* Measurement data measured by REW V5.31.3
* Source: EXCL: Headset (USB-C to 3.5mm Headphone Jack Adapter), MICROPHONE (Master Volume), 0, volume: 0.200
* Format: 256k Log Swept Sine, 1 sweep at -12.0 dBFS with no timing reference
* Dated: Jun 13, 2025 2:28:02 PM
* REW Settings:
*  C-weighting compensation: Off
*  Target level: 75.0 dB
* Note: ; 
* Measurement: Arya Stealth 2 L1
* Smoothing: 1/6 octave
* Frequency Step: 96 ppo
* Start Frequency: 20.0 Hz
*
* Freq(Hz) SPL(dB) Phase(degrees)
20.187378 65.837 -96.4644
20.333664 65.864 -96.6054
20.481010 65.901 -96.7937
20.629424 65.949 -97.0237
20.778913 66.007 -97.2898
20.929486 66.076 -97.5874
21.081150 66.154 -97.9134
21.233912 66.240 -98.2657
21.387782 66.334 -98.6432
21.542767 66.434 -99.0452
21.698874 66.538 -99.4710
21.856113 66.644 -99.9190
22.014492 66.749 -100.3873
22.174018 66.852 -100.8730
22.334700 66.952 -101.3723
22.496546 67.047 -101.8812
22.659566 67.135 -102.3957
22.823766 67.217 -102.9120
22.989157 67.291 -103.4269
23.155745 67.358 -103.9383
23.323542 67.417 -104.4450
23.492554 67.469 -104.9471
23.662790 67.514 -105.4452
23.834261 67.553 -105.9410
24.006973 67.585 -106.4361
24.180938 67.611 -106.9323
24.356163 67.632 -107.4314
24.532658 67.647 -107.9343
24.710431 67.657 -108.4418
24.889493 67.662 -108.9540
25.069853 67.662 -109.4705
25.251519 67.657 -109.9906
25.434502 67.648 -110.5130
25.618811 67.635 -111.0363
25.804456 67.617 -111.5585
25.991445 67.596 -112.0773
26.179790 67.572 -112.5899
26.369500 67.544 -113.0933
26.560584 67.514 -113.5842
26.753053 67.483 -114.0594
26.946917 67.451 -114.5166
27.142185 67.421 -114.9543
27.338869 67.393 -115.3727
27.536977 67.369 -115.7739
27.736522 67.351 -116.1621
27.937512 67.340 -116.5431
28.139959 67.336 -116.9239
28.343872 67.340 -117.3117
28.549264 67.351 -117.7133
28.756143 67.369 -118.1338
28.964522 67.392 -118.5758
29.174411 67.420 -119.0395
29.385821 67.450 -119.5224
29.598763 67.482 -120.0197
29.813248 67.515 -120.5248
30.029287 67.548 -121.0303
30.246891 67.581 -121.5285
30.466073 67.614 -122.0121
30.686842 67.648 -122.4745
30.909212 67.683 -122.9103
31.133193 67.719 -123.3156
31.358797 67.757 -123.6882
31.586035 67.799 -124.0282
31.814921 67.844 -124.3378
32.045465 67.894 -124.6223
32.277680 67.948 -124.8894
32.511577 68.007 -125.1490
32.747169 68.071 -125.4123
32.984469 68.138 -125.6905
33.223488 68.207 -125.9930
33.464239 68.277 -126.3264
33.706735 68.347 -126.6934
33.950987 68.415 -127.0922
34.197010 68.482 -127.5174
34.444816 68.547 -127.9605
34.694417 68.610 -128.4118
34.945827 68.674 -128.8620
35.199059 68.738 -129.3029
35.454126 68.804 -129.7289
35.711041 68.872 -130.1369
35.969818 68.942 -130.5257
36.230470 69.014 -130.8958
36.493011 69.087 -131.2485
36.757455 69.159 -131.5854
37.023814 69.230 -131.9080
37.292104 69.298 -132.2185
37.562338 69.363 -132.5192
37.834530 69.424 -132.8129
38.108695 69.481 -133.1029
38.384846 69.533 -133.3920
38.662999 69.583 -133.6821
38.943167 69.629 -133.9740
39.225365 69.673 -134.2670
39.509608 69.716 -134.5598
39.795911 69.758 -134.8507
40.084289 69.802 -135.1390
40.374756 69.847 -135.4254
40.667328 69.894 -135.7124
40.962020 69.942 -136.0042
41.258848 69.991 -136.3056
41.557827 70.040 -136.6213
41.858972 70.087 -136.9550
42.162299 70.132 -137.3086
42.467824 70.172 -137.6822
42.775564 70.208 -138.0735
43.085533 70.239 -138.4787
43.397749 70.265 -138.8924
43.712227 70.288 -139.3084
44.028983 70.309 -139.7207
44.348036 70.327 -140.1236
44.669400 70.346 -140.5129
44.993093 70.366 -140.8862
45.319131 70.388 -141.2427
45.647532 70.411 -141.5834
45.978313 70.435 -141.9109
46.311491 70.460 -142.2288
46.647083 70.484 -142.5415
46.985107 70.507 -142.8534
47.325581 70.527 -143.1685
47.668521 70.544 -143.4896
48.013947 70.556 -143.8175
48.361876 70.564 -144.1513
48.712326 70.568 -144.4885
49.065315 70.568 -144.8257
49.420863 70.565 -145.1599
49.778987 70.560 -145.4887
50.139706 70.554 -145.8109
50.503039 70.547 -146.1263
50.869005 70.541 -146.4352
51.237623 70.535 -146.7390
51.608912 70.530 -147.0393
51.982891 70.529 -147.3388
52.359580 70.530 -147.6401
52.739000 70.534 -147.9451
53.121168 70.541 -148.2541
53.506106 70.550 -148.5647
53.893833 70.561 -148.8726
54.284370 70.571 -149.1723
54.677737 70.582 -149.4586
55.073955 70.591 -149.7279
55.473043 70.599 -149.9783
55.875024 70.607 -150.2098
56.279917 70.614 -150.4235
56.687745 70.620 -150.6212
57.098527 70.627 -150.8054
57.512287 70.635 -150.9791
57.929045 70.643 -151.1465
58.348822 70.653 -151.3137
58.771642 70.666 -151.4885
59.197525 70.681 -151.6800
59.626495 70.699 -151.8967
60.058573 70.721 -152.1442
60.493782 70.746 -152.4239
60.932145 70.774 -152.7321
61.373685 70.804 -153.0616
61.818424 70.837 -153.4034
62.266386 70.872 -153.7493
62.717593 70.909 -154.0931
63.172071 70.949 -154.4317
63.629842 70.990 -154.7643
64.090930 71.033 -155.0923
64.555359 71.078 -155.4175
65.023154 71.124 -155.7419
65.494339 71.171 -156.0662
65.968938 71.219 -156.3902
66.446976 71.267 -156.7126
66.928478 71.315 -157.0318
67.413469 71.362 -157.3463
67.901975 71.408 -157.6555
68.394021 71.452 -157.9598
68.889632 71.496 -158.2604
69.388835 71.538 -158.5592
69.891655 71.578 -158.8586
70.398118 71.616 -159.1612
70.908252 71.652 -159.4691
71.422083 71.686 -159.7836
71.939636 71.718 -160.1055
72.460941 71.746 -160.4348
72.986023 71.772 -160.7710
73.514909 71.795 -161.1131
74.047629 71.814 -161.4601
74.584208 71.830 -161.8111
75.124676 71.842 -162.1652
75.669061 71.852 -162.5217
76.217390 71.858 -162.8801
76.769692 71.862 -163.2399
77.325997 71.863 -163.6003
77.886333 71.863 -163.9605
78.450730 71.860 -164.3198
79.019216 71.856 -164.6774
79.591822 71.851 -165.0327
80.168577 71.845 -165.3853
80.749512 71.837 -165.7352
81.334656 71.829 -166.0821
81.924040 71.820 -166.4263
82.517696 71.810 -166.7677
83.115653 71.799 -167.1064
83.717943 71.787 -167.4423
84.324598 71.773 -167.7753
84.935649 71.759 -168.1053
85.551128 71.744 -168.4325
86.171066 71.729 -168.7570
86.795497 71.712 -169.0791
87.424453 71.696 -169.3988
88.057967 71.679 -169.7165
88.696071 71.661 -170.0321
89.338800 71.643 -170.3458
89.986185 71.624 -170.6574
90.638262 71.605 -170.9667
91.295065 71.585 -171.2734
91.956626 71.566 -171.5774
92.622982 71.546 -171.8783
93.294166 71.526 -172.1762
93.970214 71.507 -172.4708
94.651161 71.487 -172.7619
95.337042 71.468 -173.0495
96.027894 71.449 -173.3336
96.723752 71.430 -173.6144
97.424652 71.412 -173.8923
98.130631 71.394 -174.1674
98.841726 71.376 -174.4399
99.557974 71.359 -174.7100
100.279412 71.342 -174.9775
101.006078 71.326 -175.2424
101.738010 71.310 -175.5044
102.475245 71.294 -175.7631
103.217823 71.277 -176.0176
103.965782 71.261 -176.2668
104.719161 71.245 -176.5097
105.477999 71.228 -176.7459
106.242336 71.212 -176.9759
107.012212 71.196 -177.2003
107.787666 71.181 -177.4198
108.568740 71.168 -177.6347
109.355474 71.155 -177.8447
110.147909 71.144 -178.0493
110.946086 71.135 -178.2482
111.750047 71.127 -178.4413
112.559834 71.121 -178.6293
113.375489 71.116 -178.8130
114.197055 71.112 -178.9939
115.024574 71.109 -179.1737
115.858089 71.107 -179.3537
116.697645 71.106 -179.5351
117.543284 71.105 -179.7188
118.395051 71.103 -179.9051
119.252990 71.102 179.9059
120.117147 71.100 179.7145
120.987565 71.097 179.5213
121.864291 71.094 179.3264
122.747370 71.091 179.1299
123.636848 71.087 178.9322
124.532771 71.083 178.7332
125.435187 71.078 178.5334
126.344142 71.072 178.3327
127.259684 71.066 178.1314
128.181860 71.059 177.9291
129.110718 71.051 177.7257
130.046308 71.041 177.5208
130.988677 71.030 177.3142
131.937875 71.018 177.1056
132.893951 71.004 176.8945
133.856956 70.988 176.6805
134.826938 70.971 176.4631
135.803950 70.952 176.2418
136.788041 70.931 176.0162
137.779264 70.909 175.7861
138.777669 70.885 175.5513
139.783309 70.858 175.3121
140.796237 70.830 175.0695
141.816504 70.798 174.8249
142.844165 70.764 174.5801
143.879273 70.727 174.3371
144.921881 70.687 174.0981
145.972045 70.644 173.8656
147.029819 70.599 173.6420
148.095257 70.550 173.4299
149.168417 70.499 173.2318
150.249353 70.445 173.0501
151.338121 70.390 172.8870
152.434780 70.333 172.7442
153.539385 70.274 172.6235
154.651995 70.215 172.5260
155.772667 70.155 172.4527
156.901460 70.095 172.4044
158.038432 70.036 172.3814
159.183644 69.979 172.3835
160.337154 69.922 172.4099
161.499023 69.868 172.4599
162.669312 69.816 172.5323
163.848081 69.767 172.6258
165.035392 69.720 172.7387
166.231306 69.676 172.8688
167.435887 69.636 173.0138
168.649196 69.599 173.1709
169.871298 69.566 173.3373
171.102255 69.536 173.5103
172.342133 69.510 173.6874
173.590995 69.487 173.8663
174.848907 69.467 174.0454
176.115934 69.449 174.2233
177.392143 69.435 174.3990
178.677599 69.422 174.5718
179.972371 69.412 174.7407
181.276525 69.404 174.9044
182.590129 69.397 175.0612
183.913252 69.392 175.2092
185.245964 69.387 175.3460
186.588332 69.384 175.4695
187.940428 69.382 175.5776
189.302322 69.380 175.6684
190.674085 69.379 175.7404
192.055788 69.379 175.7933
193.447503 69.379 175.8281
194.849303 69.380 175.8468
196.261262 69.382 175.8524
197.683452 69.385 175.8476
199.115948 69.388 175.8345
200.558824 69.393 175.8151
202.012156 69.398 175.7909
203.476019 69.404 175.7629
204.950490 69.409 175.7324
206.435646 69.415 175.7001
207.931564 69.420 175.6666
209.438322 69.425 175.6315
210.955998 69.429 175.5941
212.484672 69.433 175.5532
214.024424 69.437 175.5078
215.575333 69.441 175.4569
217.137481 69.445 175.3995
218.710948 69.450 175.3351
220.295818 69.457 175.2634
221.892172 69.464 175.1842
223.500094 69.473 175.0975
225.119668 69.482 175.0036
226.750978 69.492 174.9034
228.394109 69.503 174.7980
230.049147 69.515 174.6891
231.716178 69.528 174.5784
233.395289 69.542 174.4667
235.086567 69.557 174.3546
236.790102 69.574 174.2420
238.505980 69.592 174.1287
240.234293 69.611 174.0144
241.975130 69.631 173.8985
243.728581 69.652 173.7805
245.494739 69.674 173.6596
247.273695 69.696 173.5357
249.065542 69.719 173.4090
250.870374 69.742 173.2802
252.688284 69.764 173.1501
254.519367 69.786 173.0196
256.363720 69.808 172.8889
258.221437 69.829 172.7573
260.092616 69.850 172.6232
261.977354 69.870 172.4846
263.875750 69.890 172.3387
265.787903 69.908 172.1825
267.713911 69.926 172.0133
269.653877 69.943 171.8285
271.607900 69.959 171.6260
273.576083 69.974 171.4047
275.558528 69.989 171.1640
277.555338 70.002 170.9042
279.566619 70.015 170.6265
281.592474 70.027 170.3322
283.633009 70.037 170.0231
285.688331 70.045 169.7009
287.758546 70.051 169.3673
289.843763 70.054 169.0241
291.944090 70.055 168.6732
294.059638 70.051 168.3170
296.190515 70.045 167.9584
298.336833 70.034 167.6008
300.498705 70.019 167.2478
302.676243 69.999 166.9034
304.869559 69.976 166.5717
307.078770 69.948 166.2566
309.303989 69.916 165.9622
311.545334 69.880 165.6923
313.802919 69.840 165.4506
316.076865 69.798 165.2405
318.367288 69.753 165.0653
320.674309 69.707 164.9276
322.998047 69.659 164.8289
325.338624 69.612 164.7705
327.696162 69.564 164.7522
330.070783 69.517 164.7731
332.462612 69.472 164.8317
334.871773 69.429 164.9256
337.298392 69.389 165.0517
339.742595 69.350 165.2067
342.204510 69.315 165.3867
344.684265 69.283 165.5876
347.181989 69.254 165.8055
349.697813 69.228 166.0367
352.231868 69.205 166.2780
354.784285 69.185 166.5264
357.355198 69.169 166.7794
359.944741 69.156 167.0342
362.553049 69.146 167.2881
365.180258 69.140 167.5380
367.826505 69.137 167.7809
370.491927 69.136 168.0143
373.176665 69.138 168.2360
375.880856 69.142 168.4449
378.604644 69.148 168.6406
381.348169 69.156 168.8228
384.111575 69.165 168.9916
386.895006 69.176 169.1467
389.698607 69.189 169.2877
392.522524 69.203 169.4141
395.366904 69.218 169.5253
398.231895 69.234 169.6209
401.117648 69.251 169.7006
404.024312 69.269 169.7641
406.952038 69.287 169.8112
409.900981 69.305 169.8413
412.871292 69.324 169.8539
415.863128 69.342 169.8484
418.876643 69.360 169.8242
421.911996 69.377 169.7811
424.969344 69.394 169.7190
428.048847 69.410 169.6378
431.150666 69.425 169.5373
434.274961 69.439 169.4172
437.421897 69.452 169.2769
440.591636 69.464 169.1152
443.784345 69.474 168.9308
447.000189 69.483 168.7220
450.239337 69.490 168.4875
453.501956 69.495 168.2260
456.788219 69.499 167.9366
460.098294 69.499 167.6188
463.432356 69.498 167.2721
466.790578 69.493 166.8959
470.173135 69.485 166.4899
473.580203 69.474 166.0536
477.011961 69.458 165.5874
480.468586 69.436 165.0923
483.950259 69.409 164.5705
487.457163 69.374 164.0261
490.989478 69.331 163.4648
494.547390 69.279 162.8948
498.131084 69.216 162.3264
501.740748 69.144 161.7716
505.376568 69.060 161.2441
509.038735 68.966 160.7583
512.727439 68.862 160.3289
516.442874 68.751 159.9695
520.185232 68.632 159.6915
523.954708 68.510 159.5031
527.751500 68.386 159.4084
531.575805 68.263 159.4075
535.427822 68.142 159.4976
539.307753 68.027 159.6728
543.215800 67.919 159.9259
547.152165 67.819 160.2488
551.117055 67.728 160.6335
555.110677 67.647 161.0724
559.133237 67.578 161.5583
563.184947 67.519 162.0844
567.266018 67.471 162.6437
571.376661 67.435 163.2291
575.517092 67.411 163.8330
579.687526 67.397 164.4477
583.888181 67.395 165.0653
588.119275 67.403 165.6783
592.381030 67.421 166.2794
596.673667 67.448 166.8615
600.997410 67.483 167.4188
605.352485 67.525 167.9462
609.739119 67.573 168.4399
614.157540 67.627 168.8971
618.607979 67.685 169.3156
623.090667 67.747 169.6941
627.605839 67.813 170.0315
632.153730 67.882 170.3268
636.734576 67.954 170.5785
641.348617 68.029 170.7838
645.996094 68.107 170.9385
650.677248 68.187 171.0375
655.392323 68.269 171.0743
660.141566 68.352 171.0424
664.925224 68.434 170.9356
669.743546 68.515 170.7490
674.596784 68.591 170.4797
679.485191 68.662 170.1279
684.409020 68.724 169.6967
689.368530 68.775 169.1931
694.363979 68.815 168.6275
699.395626 68.839 168.0137
704.463736 68.848 167.3673
709.568570 68.840 166.7060
714.710396 68.814 166.0476
719.889483 68.772 165.4100
725.106099 68.713 164.8099
730.360516 68.639 164.2618
735.653010 68.551 163.7784
740.983855 68.452 163.3700
746.353329 68.342 163.0453
751.761713 68.225 162.8116
757.209288 68.101 162.6751
762.696339 67.974 162.6403
768.223151 67.845 162.7106
773.790013 67.717 162.8872
779.397214 67.593 163.1685
785.045047 67.476 163.5491
790.733808 67.369 164.0192
796.463791 67.274 164.5640
802.235296 67.195 165.1644
808.048623 67.132 165.7983
813.904077 67.087 166.4432
819.801961 67.060 167.0776
825.742584 67.049 167.6833
831.726255 67.054 168.2447
837.753287 67.074 168.7483
843.823992 67.106 169.1816
849.938689 67.150 169.5336
856.097695 67.203 169.7944
862.301332 67.262 169.9568
868.549922 67.325 170.0172
874.843793 67.388 169.9756
881.183272 67.450 169.8360
887.568689 67.507 169.6063
894.000378 67.559 169.2971
900.478673 67.602 168.9203
907.003913 67.637 168.4888
913.576437 67.662 168.0151
920.196588 67.678 167.5115
926.864712 67.684 166.9897
933.581156 67.681 166.4603
940.346270 67.669 165.9338
947.160407 67.648 165.4200
954.023921 67.619 164.9286
960.937172 67.583 164.4691
967.900519 67.540 164.0510
974.914325 67.492 163.6827
981.978956 67.442 163.3708
989.094780 67.390 163.1192
996.262169 67.340 162.9273
1003.481495 67.295 162.7897
1010.753136 67.255 162.6960
1018.077470 67.222 162.6324
1025.454879 67.197 162.5837
1032.885748 67.178 162.5369
1040.370463 67.164 162.4824
1047.909417 67.154 162.4165
1055.503000 67.146 162.3401
1063.151610 67.139 162.2578
1070.855645 67.131 162.1765
1078.615506 67.123 162.1044
1086.431599 67.114 162.0488
1094.304330 67.106 162.0150
1102.234110 67.100 162.0047
1110.221353 67.097 162.0142
1118.266475 67.098 162.0347
1126.369895 67.103 162.0533
1134.532035 67.113 162.0560
1142.753322 67.125 162.0298
1151.034184 67.139 161.9649
1159.375052 67.151 161.8564
1167.776361 67.159 161.7050
1176.238550 67.162 161.5163
1184.762060 67.157 161.3005
1193.347334 67.142 161.0713
1201.994821 67.118 160.8446
1210.704971 67.084 160.6378
1219.478238 67.041 160.4686
1228.315080 66.990 160.3529
1237.215957 66.934 160.3029
1246.181334 66.875 160.3251
1255.211678 66.816 160.4207
1264.307459 66.758 160.5854
1273.469152 66.705 160.8121
1282.697235 66.657 161.0917
1291.992188 66.615 161.4150
1301.354495 66.580 161.7733
1310.784647 66.553 162.1585
1320.283132 66.533 162.5625
1329.850448 66.520 162.9764
1339.487093 66.516 163.3899
1349.193569 66.519 163.7913
1358.970381 66.529 164.1690
1368.818041 66.545 164.5132
1378.737061 66.564 164.8164
1388.727958 66.585 165.0750
1398.791253 66.607 165.2894
1408.927471 66.627 165.4624
1419.137140 66.645 165.5991
1429.420793 66.658 165.7059
1439.778965 66.666 165.7928
1450.212197 66.666 165.8734
1460.721033 66.658 165.9663
1471.306019 66.642 166.0927
1481.967709 66.619 166.2742
1492.706658 66.591 166.5292
1503.523426 66.561 166.8699
1514.418576 66.532 167.3018
1525.392678 66.506 167.8237
1536.446302 66.486 168.4296
1547.580025 66.473 169.1105
1558.794428 66.469 169.8561
1570.090095 66.476 170.6548
1581.467615 66.493 171.4932
1592.927581 66.522 172.3555
1604.470591 66.563 173.2223
1616.097246 66.616 174.0695
1627.808153 66.681 174.8691
1639.603922 66.754 175.5915
1651.485168 66.834 176.2098
1663.452510 66.914 176.7053
1675.506573 66.990 177.0711
1687.647984 67.055 177.3149
1699.877377 67.106 177.4581
1712.195390 67.138 177.5346
1724.602663 67.148 177.5863
1737.099845 67.138 177.6593
1749.687587 67.107 177.7988
1762.366544 67.061 178.0451
1775.137379 67.004 178.4293
1788.000756 66.943 178.9703
1800.957346 66.884 179.6723
1814.007826 66.833 -179.4768
1827.152874 66.798 -178.5045
1840.393177 66.783 -177.4515
1853.729425 66.789 -176.3667
1867.162312 66.817 -175.3014
1880.692540 66.865 -174.3041
1894.320813 66.929 -173.4147
1908.047843 67.003 -172.6612
1921.874344 67.081 -172.0579
1935.801038 67.157 -171.6047
1949.828650 67.226 -171.2876
1963.957912 67.281 -171.0810
1978.189561 67.319 -170.9504
1992.524338 67.339 -170.8575
2006.962991 67.341 -170.7638
2021.506272 67.326 -170.6346
2036.154940 67.297 -170.4414
2050.909758 67.258 -170.1640
2065.771495 67.213 -169.7907
2080.740927 67.167 -169.3200
2095.818833 67.125 -168.7615
2111.006001 67.090 -168.1351
2126.303220 67.066 -167.4686
2141.711290 67.054 -166.7927
2157.231013 67.052 -166.1344
2172.863198 67.060 -165.5126
2188.608660 67.075 -164.9364
2204.468221 67.095 -164.4069
2220.442706 67.118 -163.9201
2236.532950 67.143 -163.4696
2252.739789 67.170 -163.0475
2269.064070 67.197 -162.6452
2285.506644 67.224 -162.2534
2302.068367 67.252 -161.8634
2318.750104 67.282 -161.4678
2335.552723 67.315 -161.0612
2352.477101 67.351 -160.6411
2369.524119 67.392 -160.2065
2386.694668 67.440 -159.7590
2403.989641 67.495 -159.3031
2421.409941 67.560 -158.8471
2438.956476 67.634 -158.4029
2456.630160 67.719 -157.9840
2474.431915 67.813 -157.6035
2492.362668 67.915 -157.2727
2510.423356 68.023 -156.9991
2528.614918 68.136 -156.7861
2546.938304 68.252 -156.6311
2565.394469 68.368 -156.5253
2583.984375 68.485 -156.4552
2602.708991 68.602 -156.4062
2621.569293 68.721 -156.3662
2640.566265 68.843 -156.3286
2659.700897 68.970 -156.2945
2678.974186 69.104 -156.2732
2698.387137 69.245 -156.2811
2717.940763 69.392 -156.3378
2737.636082 69.542 -156.4616
2757.474121 69.692 -156.6645
2777.455915 69.838 -156.9489
2797.582506 69.976 -157.3066
2817.854942 70.103 -157.7199
2838.274281 70.217 -158.1650
2858.841586 70.319 -158.6164
2879.557931 70.409 -159.0519
2900.424394 70.491 -159.4550
2921.442065 70.566 -159.8162
2942.612039 70.637 -160.1326
2963.935418 70.705 -160.4064
2985.413316 70.773 -160.6441
3007.046852 70.839 -160.8556
3028.837153 70.904 -161.0530
3050.785356 70.968 -161.2482
3072.892604 71.028 -161.4502
3095.160050 71.081 -161.6634
3117.588856 71.127 -161.8868
3140.180190 71.162 -162.1134
3162.935230 71.185 -162.3317
3185.855163 71.197 -162.5289
3208.941182 71.199 -162.6960
3232.194493 71.191 -162.8300
3255.616307 71.174 -162.9336
3279.207844 71.149 -163.0110
3302.970336 71.114 -163.0636
3326.905021 71.069 -163.0866
3351.013146 71.011 -163.0675
3375.295969 70.941 -162.9868
3399.754755 70.858 -162.8201
3424.390779 70.765 -162.5423
3449.205326 70.664 -162.1308
3474.199690 70.560 -161.5710
3499.375173 70.458 -160.8617
3524.733088 70.365 -160.0179
3550.274757 70.284 -159.0673
3576.001511 70.221 -158.0426
3601.914692 70.175 -156.9728
3628.015651 70.148 -155.8775
3654.305748 70.140 -154.7668
3680.786354 70.151 -153.6454
3707.458849 70.182 -152.5155
3734.324624 70.235 -151.3781
3761.385080 70.312 -150.2321
3788.641627 70.414 -149.0758
3816.095686 70.543 -147.9112
3843.748688 70.703 -146.7478
3871.602076 70.894 -145.6050
3899.657300 71.117 -144.5126
3927.915825 71.370 -143.5096
3956.379122 71.649 -142.6386
3985.048676 71.949 -141.9370
4013.925981 72.261 -141.4255
4043.012544 72.581 -141.1004
4072.309879 72.902 -140.9352
4101.819515 73.224 -140.8895
4131.542990 73.550 -140.9247
4161.481854 73.883 -141.0191
4191.637667 74.227 -141.1783
4222.012001 74.584 -141.4354
4252.606441 74.952 -141.8420
4283.422580 75.327 -142.4523
4314.462026 75.698 -143.3093
4345.726396 76.058 -144.4343
4377.217321 76.398 -145.8257
4408.936442 76.710 -147.4637
4440.885413 76.991 -149.3185
4473.065899 77.236 -151.3565
4505.479579 77.444 -153.5414
4538.128141 77.612 -155.8352
4571.013288 77.741 -158.1992
4604.136735 77.833 -160.5981
4637.500207 77.891 -163.0033
4671.105446 77.917 -165.3936
4704.954201 77.915 -167.7546
4739.048239 77.887 -170.0767
4773.389336 77.834 -172.3526
4807.979283 77.758 -174.5759
4842.819883 77.659 -176.7387
4877.912952 77.538 -178.8318
4913.260320 77.395 179.1562
4948.863830 77.229 177.2390
4984.725337 77.043 175.4320
5020.846712 76.835 173.7530
5057.229836 76.609 172.2210
5093.876609 76.366 170.8561
5130.788938 76.108 169.6794
5167.968750 75.839 168.7115
5205.417982 75.563 167.9705
5243.138586 75.286 167.4696
5281.132530 75.014 167.2153
5319.401793 74.755 167.2068
5357.948371 74.514 167.4352
5396.774274 74.299 167.8837
5435.881525 74.117 168.5271
5475.272163 73.974 169.3320
5514.948243 73.873 170.2556
5554.911831 73.817 171.2464
5595.165012 73.808 172.2467
5635.709884 73.843 173.1956
5676.548561 73.917 174.0359
5717.683172 74.024 174.7195
5759.115861 74.156 175.2113
5800.848789 74.304 175.4906
5842.884130 74.460 175.5495
5885.224077 74.615 175.3922
5927.870837 74.762 175.0327
5970.826633 74.895 174.4938
6014.093704 75.009 173.8055
6057.674306 75.100 173.0023
6101.570711 75.167 172.1209
6145.785208 75.208 171.1972
6190.320101 75.225 170.2627
6235.177712 75.220 169.3436
6280.360380 75.193 168.4612
6325.870460 75.148 167.6330
6371.710325 75.087 166.8745
6417.882365 75.011 166.1998
6464.388986 74.924 165.6207
6511.232613 74.831 165.1445
6558.415689 74.734 164.7713
6605.940673 74.639 164.4922
6653.810042 74.552 164.2886
6702.026292 74.475 164.1343
6750.591937 74.412 163.9974
6799.509509 74.365 163.8423
6848.781558 74.335 163.6317
6898.410653 74.321 163.3295
6948.399380 74.322 162.9035
6998.750346 74.337 162.3264
7049.466176 74.363 161.5747
7100.549514 74.399 160.6272
7152.003023 74.440 159.4635
7203.829385 74.486 158.0639
7256.031302 74.533 156.4097
7308.611496 74.576 154.4836
7361.572708 74.611 152.2708
7414.917698 74.635 149.7590
7468.649249 74.642 146.9383
7522.770160 74.630 143.7994
7577.283253 74.593 140.3330
7632.191371 74.530 136.5269
7687.497376 74.439 132.3640
7743.204151 74.318 127.8184
7799.314600 74.167 122.8505
7855.831649 73.988 117.3997
7912.758244 73.783 111.3738
7970.097352 73.557 104.6300
8027.851962 73.315 96.9440
8086.025087 73.065 87.9609
8144.619758 72.818 77.1206
8203.639030 72.582 63.5892
8263.085980 72.371 46.3740
8322.963708 72.194 25.1604
8383.275334 72.062 1.9316
8444.024002 71.983 -19.4839
8505.212881 71.961 -36.8247
8566.845160 71.998 -50.2521
8628.924051 72.092 -60.7558
8691.452792 72.242 -69.2113
8754.434642 72.444 -76.2250
8817.872884 72.693 -82.1976
8881.770826 72.985 -87.4017
8946.131799 73.315 -92.0332
9010.959157 73.677 -96.2422
9076.256282 74.064 -100.1500
9142.026576 74.469 -103.8577
9208.273470 74.884 -107.4501
9275.000415 75.302 -110.9993
9342.210891 75.715 -114.5653
9409.908403 76.114 -118.1966
9478.096478 76.491 -121.9307
9546.778672 76.838 -125.7935
9615.958566 77.148 -129.7996
9685.639765 77.412 -133.9506
9755.825904 77.623 -138.2356
9826.520640 77.773 -142.6305
9897.727659 77.857 -147.0991
9969.450674 77.871 -151.5946
10041.693423 77.812 -156.0627
10114.459673 77.681 -160.4445
10187.753217 77.477 -164.6810
10261.577877 77.205 -168.7172
10335.937500 76.870 -172.5040
10410.835964 76.479 -176.0020
10486.277173 76.039 -179.1822
10562.265060 75.559 177.9719
10638.803587 75.048 175.4625
10715.896743 74.517 173.2767
10793.548548 73.976 171.3855
10871.763050 73.434 169.7458
10950.544327 72.899 168.3044
11029.896485 72.378 167.0044
11109.823662 71.872 165.7931
11190.330024 71.381 164.6299
11271.419768 70.903 163.4904
11353.097122 70.434 162.3671
11435.366344 69.968 161.2661
11518.231722 69.502 160.2020
11601.697577 69.033 159.1914
11685.768261 68.559 158.2485
11770.448155 68.082 157.3806
11855.741674 67.604 156.5853
11941.653265 67.126 155.8494
12028.187408 66.653 155.1499
12115.348612 66.186 154.4586
12203.141422 65.725 153.7504
12291.570415 65.268 153.0156
12380.640201 64.808 152.2723
12470.355424 64.337 151.5786
12560.720760 63.846 151.0433
12651.740920 63.326 150.8337
12743.420650 62.770 151.1741
12835.764729 62.180 152.3301
12928.777972 61.560 154.5714
13022.465227 60.928 158.1052
13116.831378 60.304 162.9833
13211.881345 59.716 169.0116
13307.620084 59.195 175.7249
13404.052584 58.772 -177.5127
13501.183875 58.469 -171.3165
13599.019019 58.300 -166.1215
13697.563116 58.261 -162.1354
13796.821305 58.335 -159.3805
13896.798760 58.493 -157.7639
13997.500692 58.705 -157.1403
14098.932352 58.944 -157.3538
14201.099028 59.186 -158.2622
14304.006046 59.414 -159.7462
14407.658770 59.616 -161.7095
14512.062604 59.781 -164.0737
14617.222992 59.902 -166.7715
14723.145416 59.973 -169.7416
14829.835397 59.990 -172.9258
14937.298497 59.951 -176.2693
15045.540320 59.856 -179.7214
15154.566507 59.705 176.7635
15264.382743 59.499 173.2261
15374.994752 59.241 169.7023
15486.408302 58.933 166.2249
15598.629201 58.578 162.8229
15711.663298 58.178 159.5233
15825.516487 57.737 156.3501
15940.194703 57.257 153.3250
16055.703925 56.744 150.4671
16172.050174 56.201 147.7927
16289.239516 55.634 145.3109
16407.278061 55.053 143.0168
16526.171961 54.468 140.8878
16645.927415 53.891 138.8808
16766.550667 53.337 136.9369
16888.048005 52.820 134.9863
17010.425762 52.354 132.9567
17133.690320 51.953 130.7798
17257.848103 51.630 128.3969
17382.905584 51.396 125.7593
17508.869284 51.262 122.8254
17635.745768 51.235 119.5519
17763.541652 51.320 115.8853
17892.263597 51.513 111.7560
18021.918315 51.802 107.0782
18152.512564 52.169 101.7556
18284.053153 52.591 95.6865
18416.546939 53.043 88.7650
18550.000830 53.503 80.8731
18684.421783 53.951 71.8722
18819.816805 54.371 61.6022
18956.192956 54.749 49.9156
19093.557344 55.075 36.7884
19231.917131 55.342 22.5264
19371.279531 55.549 7.9775
19511.651807 55.699 -5.5293
19653.041280 55.800 -16.6303
19795.455318 55.859 -24.3811
19938.901348 55.886 -28.3290
