* Measurement data measured by REW V5.31.3
* Source: EXCL: Headset (USB-C to 3.5mm Headphone Jack Adapter), MICROPHONE (Master Volume), 0, volume: 0.750
* Format: 256k Log Swept Sine, 1 sweep at -12.0 dBFS with no timing reference
* Dated: May 28, 2025 2:28:29 PM
* REW Settings:
*  C-weighting compensation: Off
*  Target level: 75.0 dB
* Note: ; 
* Measurement: Arya Stealth L5
* Smoothing: 1/6 octave
* Frequency Step: 96 ppo
* Start Frequency: 20.0 Hz
*
* Freq(Hz) SPL(dB) Phase(degrees)
20.187378 80.048 -144.4931
20.333664 80.063 -144.6135
20.481010 80.083 -144.7746
20.629424 80.108 -144.9710
20.778913 80.139 -145.1971
20.929486 80.176 -145.4471
21.081150 80.217 -145.7156
21.233912 80.264 -145.9980
21.387782 80.315 -146.2899
21.542767 80.369 -146.5878
21.698874 80.427 -146.8884
21.856113 80.486 -147.1890
22.014492 80.546 -147.4875
22.174018 80.606 -147.7820
22.334700 80.664 -148.0707
22.496546 80.720 -148.3526
22.659566 80.773 -148.6269
22.823766 80.822 -148.8930
22.989157 80.867 -149.1510
23.155745 80.906 -149.4015
23.323542 80.940 -149.6457
23.492554 80.970 -149.8851
23.662790 80.994 -150.1219
23.834261 81.013 -150.3589
24.006973 81.028 -150.5990
24.180938 81.039 -150.8452
24.356163 81.046 -151.1005
24.532658 81.049 -151.3672
24.710431 81.049 -151.6473
24.889493 81.045 -151.9413
25.069853 81.038 -152.2490
25.251519 81.028 -152.5689
25.434502 81.014 -152.8984
25.618811 80.996 -153.2341
25.804456 80.975 -153.5720
25.991445 80.951 -153.9080
26.179790 80.924 -154.2383
26.369500 80.894 -154.5596
26.560584 80.863 -154.8696
26.753053 80.831 -155.1671
26.946917 80.799 -155.4520
27.142185 80.767 -155.7250
27.338869 80.738 -155.9879
27.536977 80.710 -156.2426
27.736522 80.685 -156.4912
27.937512 80.662 -156.7357
28.139959 80.643 -156.9776
28.343872 80.626 -157.2178
28.549264 80.613 -157.4566
28.756143 80.602 -157.6941
28.964522 80.593 -157.9301
29.174411 80.586 -158.1641
29.385821 80.581 -158.3961
29.598763 80.578 -158.6259
29.813248 80.577 -158.8536
30.029287 80.576 -159.0795
30.246891 80.577 -159.3038
30.466073 80.580 -159.5264
30.686842 80.584 -159.7472
30.909212 80.591 -159.9656
31.133193 80.599 -160.1806
31.358797 80.611 -160.3912
31.586035 80.626 -160.5962
31.814921 80.645 -160.7948
32.045465 80.668 -160.9869
32.277680 80.697 -161.1727
32.511577 80.730 -161.3534
32.747169 80.768 -161.5308
32.984469 80.811 -161.7070
33.223488 80.858 -161.8839
33.464239 80.908 -162.0632
33.706735 80.961 -162.2456
33.950987 81.016 -162.4307
34.197010 81.073 -162.6172
34.444816 81.131 -162.8031
34.694417 81.189 -162.9858
34.945827 81.249 -163.1633
35.199059 81.309 -163.3336
35.454126 81.371 -163.4961
35.711041 81.434 -163.6505
35.969818 81.497 -163.7977
36.230470 81.562 -163.9385
36.493011 81.626 -164.0742
36.757455 81.690 -164.2060
37.023814 81.753 -164.3348
37.292104 81.814 -164.4618
37.562338 81.874 -164.5885
37.834530 81.933 -164.7170
38.108695 81.989 -164.8498
38.384846 82.044 -164.9898
38.662999 82.097 -165.1400
38.943167 82.149 -165.3028
39.225365 82.198 -165.4797
39.509608 82.246 -165.6711
39.795911 82.292 -165.8759
40.084289 82.336 -166.0923
40.374756 82.378 -166.3177
40.667328 82.418 -166.5493
40.962020 82.455 -166.7843
41.258848 82.490 -167.0207
41.557827 82.524 -167.2567
41.858972 82.554 -167.4911
42.162299 82.583 -167.7227
42.467824 82.610 -167.9507
42.775564 82.635 -168.1740
43.085533 82.658 -168.3917
43.397749 82.680 -168.6029
43.712227 82.700 -168.8072
44.028983 82.720 -169.0047
44.348036 82.740 -169.1963
44.669400 82.759 -169.3837
44.993093 82.778 -169.5695
45.319131 82.797 -169.7568
45.647532 82.815 -169.9487
45.978313 82.832 -170.1477
46.311491 82.848 -170.3553
46.647083 82.863 -170.5717
46.985107 82.876 -170.7951
47.325581 82.888 -171.0231
47.668521 82.898 -171.2525
48.013947 82.908 -171.4801
48.361876 82.917 -171.7040
48.712326 82.926 -171.9233
49.065315 82.934 -172.1384
49.420863 82.942 -172.3505
49.778987 82.948 -172.5614
50.139706 82.952 -172.7727
50.503039 82.954 -172.9854
50.869005 82.953 -173.1997
51.237623 82.950 -173.4147
51.608912 82.945 -173.6284
51.982891 82.939 -173.8379
52.359580 82.932 -174.0397
52.739000 82.927 -174.2307
53.121168 82.922 -174.4086
53.506106 82.919 -174.5724
53.893833 82.918 -174.7230
54.284370 82.919 -174.8626
54.677737 82.921 -174.9942
55.073955 82.924 -175.1210
55.473043 82.928 -175.2458
55.875024 82.935 -175.3699
56.279917 82.944 -175.4940
56.687745 82.955 -175.6170
57.098527 82.969 -175.7379
57.512287 82.986 -175.8558
57.929045 83.005 -175.9721
58.348822 83.026 -176.0908
58.771642 83.048 -176.2189
59.197525 83.069 -176.3648
59.626495 83.089 -176.5361
60.058573 83.106 -176.7375
60.493782 83.121 -176.9690
60.932145 83.134 -177.2270
61.373685 83.145 -177.5050
61.818424 83.157 -177.7958
62.266386 83.170 -178.0927
62.717593 83.185 -178.3900
63.172071 83.203 -178.6838
63.629842 83.224 -178.9713
64.090930 83.248 -179.2515
64.555359 83.274 -179.5243
65.023154 83.303 -179.7905
65.494339 83.332 179.9485
65.968938 83.363 179.6915
66.446976 83.395 179.4370
66.928478 83.426 179.1836
67.413469 83.457 178.9305
67.901975 83.487 178.6772
68.394021 83.517 178.4241
68.889632 83.545 178.1721
69.388835 83.572 177.9221
69.891655 83.598 177.6750
70.398118 83.622 177.4313
70.908252 83.644 177.1913
71.422083 83.664 176.9547
71.939636 83.682 176.7213
72.460941 83.697 176.4904
72.986023 83.710 176.2615
73.514909 83.721 176.0342
74.047629 83.729 175.8081
74.584208 83.735 175.5829
75.124676 83.739 175.3586
75.669061 83.741 175.1350
76.217390 83.741 174.9118
76.769692 83.740 174.6886
77.325997 83.737 174.4648
77.886333 83.733 174.2399
78.450730 83.727 174.0131
79.019216 83.719 173.7842
79.591822 83.710 173.5530
80.168577 83.700 173.3196
80.749512 83.688 173.0847
81.334656 83.675 172.8486
81.924040 83.662 172.6122
82.517696 83.647 172.3762
83.115653 83.633 172.1410
83.717943 83.618 171.9072
84.324598 83.603 171.6751
84.935649 83.588 171.4448
85.551128 83.573 171.2163
86.171066 83.558 170.9897
86.795497 83.542 170.7645
87.424453 83.526 170.5402
88.057967 83.511 170.3161
88.696071 83.494 170.0916
89.338800 83.478 169.8665
89.986185 83.461 169.6411
90.638262 83.444 169.4158
91.295065 83.427 169.1915
91.956626 83.409 168.9689
92.622982 83.391 168.7486
93.294166 83.372 168.5311
93.970214 83.354 168.3165
94.651161 83.335 168.1049
95.337042 83.316 167.8962
96.027894 83.297 167.6899
96.723752 83.278 167.4857
97.424652 83.259 167.2832
98.130631 83.240 167.0824
98.841726 83.222 166.8834
99.557974 83.203 166.6867
100.279412 83.185 166.4928
101.006078 83.167 166.3022
101.738010 83.149 166.1154
102.475245 83.132 165.9324
103.217823 83.116 165.7529
103.965782 83.101 165.5760
104.719161 83.087 165.4003
105.477999 83.075 165.2244
106.242336 83.065 165.0471
107.012212 83.056 164.8677
107.787666 83.049 164.6865
108.568740 83.044 164.5042
109.355474 83.040 164.3221
110.147909 83.037 164.1411
110.946086 83.034 163.9622
111.750047 83.033 163.7858
112.559834 83.032 163.6120
113.375489 83.032 163.4407
114.197055 83.032 163.2715
115.024574 83.034 163.1037
115.858089 83.035 162.9366
116.697645 83.038 162.7695
117.543284 83.040 162.6018
118.395051 83.043 162.4331
119.252990 83.046 162.2632
120.117147 83.049 162.0922
120.987565 83.052 161.9201
121.864291 83.055 161.7473
122.747370 83.058 161.5739
123.636848 83.060 161.4005
124.532771 83.062 161.2269
125.435187 83.063 161.0529
126.344142 83.065 160.8779
127.259684 83.065 160.7008
128.181860 83.066 160.5208
129.110718 83.066 160.3372
130.046308 83.065 160.1498
130.988677 83.064 159.9590
131.937875 83.061 159.7655
132.893951 83.057 159.5706
133.856956 83.051 159.3753
134.826938 83.042 159.1805
135.803950 83.032 158.9862
136.788041 83.019 158.7916
137.779264 83.004 158.5957
138.777669 82.987 158.3974
139.783309 82.967 158.1960
140.796237 82.946 157.9913
141.816504 82.922 157.7831
142.844165 82.897 157.5717
143.879273 82.870 157.3578
144.921881 82.841 157.1423
145.972045 82.811 156.9260
147.029819 82.778 156.7104
148.095257 82.744 156.4966
149.168417 82.709 156.2857
150.249353 82.672 156.0784
151.338121 82.634 155.8752
152.434780 82.595 155.6760
153.539385 82.555 155.4811
154.651995 82.513 155.2910
155.772667 82.471 155.1063
156.901460 82.429 154.9282
158.038432 82.385 154.7581
159.183644 82.341 154.5977
160.337154 82.296 154.4480
161.499023 82.251 154.3100
162.669312 82.205 154.1842
163.848081 82.158 154.0711
165.035392 82.110 153.9712
166.231306 82.062 153.8851
167.435887 82.014 153.8138
168.649196 81.965 153.7587
169.871298 81.917 153.7209
171.102255 81.870 153.7016
172.342133 81.823 153.7018
173.590995 81.777 153.7217
174.848907 81.733 153.7613
176.115934 81.690 153.8201
177.392143 81.650 153.8969
178.677599 81.612 153.9899
179.972371 81.577 154.0972
181.276525 81.544 154.2162
182.590129 81.513 154.3440
183.913252 81.486 154.4775
185.245964 81.460 154.6137
186.588332 81.438 154.7498
187.940428 81.418 154.8834
189.302322 81.400 155.0128
190.674085 81.384 155.1368
192.055788 81.371 155.2548
193.447503 81.360 155.3661
194.849303 81.351 155.4706
196.261262 81.344 155.5682
197.683452 81.339 155.6595
199.115948 81.336 155.7449
200.558824 81.334 155.8252
202.012156 81.334 155.9002
203.476019 81.336 155.9689
204.950490 81.340 156.0298
206.435646 81.345 156.0811
207.931564 81.352 156.1215
209.438322 81.360 156.1501
210.955998 81.369 156.1666
212.484672 81.379 156.1707
214.024424 81.391 156.1622
215.575333 81.403 156.1410
217.137481 81.416 156.1075
218.710948 81.429 156.0620
220.295818 81.444 156.0049
221.892172 81.460 155.9372
223.500094 81.477 155.8594
225.119668 81.496 155.7722
226.750978 81.515 155.6760
228.394109 81.535 155.5711
230.049147 81.555 155.4576
231.716178 81.577 155.3358
233.395289 81.599 155.2059
235.086567 81.621 155.0683
236.790102 81.644 154.9235
238.505980 81.667 154.7718
240.234293 81.691 154.6137
241.975130 81.714 154.4495
243.728581 81.737 154.2792
245.494739 81.760 154.1031
247.273695 81.782 153.9219
249.065542 81.804 153.7365
250.870374 81.825 153.5482
252.688284 81.846 153.3582
254.519367 81.866 153.1678
256.363720 81.886 152.9779
258.221437 81.904 152.7892
260.092616 81.922 152.6023
261.977354 81.939 152.4178
263.875750 81.956 152.2363
265.787903 81.971 152.0583
267.713911 81.986 151.8840
269.653877 82.001 151.7131
271.607900 82.016 151.5450
273.576083 82.031 151.3782
275.558528 82.046 151.2110
277.555338 82.061 151.0414
279.566619 82.077 150.8676
281.592474 82.094 150.6880
283.633009 82.112 150.5019
285.688331 82.132 150.3083
287.758546 82.152 150.1067
289.843763 82.174 149.8963
291.944090 82.197 149.6762
294.059638 82.221 149.4456
296.190515 82.247 149.2036
298.336833 82.273 148.9490
300.498705 82.299 148.6810
302.676243 82.326 148.3985
304.869559 82.352 148.1003
307.078770 82.378 147.7858
309.303989 82.403 147.4543
311.545334 82.426 147.1057
313.802919 82.446 146.7401
316.076865 82.464 146.3580
318.367288 82.479 145.9605
320.674309 82.491 145.5491
322.998047 82.498 145.1256
325.338624 82.500 144.6926
327.696162 82.496 144.2530
330.070783 82.487 143.8105
332.462612 82.472 143.3693
334.871773 82.450 142.9344
337.298392 82.422 142.5112
339.742595 82.387 142.1054
342.204510 82.346 141.7230
344.684265 82.298 141.3697
347.181989 82.245 141.0511
349.697813 82.188 140.7720
352.231868 82.126 140.5364
354.784285 82.060 140.3475
357.355198 81.993 140.2073
359.944741 81.925 140.1171
362.553049 81.856 140.0770
365.180258 81.788 140.0861
367.826505 81.723 140.1425
370.491927 81.661 140.2433
373.176665 81.603 140.3845
375.880856 81.550 140.5614
378.604644 81.503 140.7685
381.348169 81.462 140.9999
384.111575 81.428 141.2496
386.895006 81.400 141.5109
389.698607 81.378 141.7771
392.522524 81.362 142.0415
395.366904 81.353 142.2975
398.231895 81.348 142.5391
401.117648 81.348 142.7614
404.024312 81.352 142.9608
406.952038 81.359 143.1349
409.900981 81.369 143.2825
412.871292 81.380 143.4035
415.863128 81.393 143.4984
418.876643 81.407 143.5681
421.911996 81.420 143.6142
424.969344 81.433 143.6388
428.048847 81.444 143.6444
431.150666 81.454 143.6342
434.274961 81.463 143.6115
437.421897 81.470 143.5792
440.591636 81.477 143.5392
443.784345 81.483 143.4930
447.000189 81.490 143.4403
450.239337 81.498 143.3800
453.501956 81.507 143.3100
456.788219 81.518 143.2271
460.098294 81.531 143.1275
463.432356 81.546 143.0068
466.790578 81.564 142.8609
470.173135 81.584 142.6856
473.580203 81.606 142.4775
477.011961 81.629 142.2337
480.468586 81.653 141.9522
483.950259 81.678 141.6317
487.457163 81.702 141.2716
490.989478 81.725 140.8723
494.547390 81.747 140.4346
498.131084 81.767 139.9600
501.740748 81.785 139.4506
505.376568 81.799 138.9083
509.038735 81.810 138.3353
512.727439 81.818 137.7334
516.442874 81.820 137.1044
520.185232 81.818 136.4500
523.954708 81.811 135.7721
527.751500 81.797 135.0730
531.575805 81.776 134.3563
535.427822 81.747 133.6271
539.307753 81.710 132.8929
543.215800 81.662 132.1631
547.152165 81.604 131.4490
551.117055 81.535 130.7645
555.110677 81.455 130.1246
559.133237 81.364 129.5454
563.184947 81.264 129.0431
567.266018 81.155 128.6323
571.376661 81.041 128.3250
575.517092 80.924 128.1292
579.687526 80.806 128.0484
583.888181 80.691 128.0805
588.119275 80.582 128.2191
592.381030 80.480 128.4537
596.673667 80.388 128.7716
600.997410 80.306 129.1591
605.352485 80.237 129.6021
609.739119 80.179 130.0869
614.157540 80.134 130.6000
618.607979 80.100 131.1289
623.090667 80.078 131.6620
627.605839 80.067 132.1889
632.153730 80.066 132.7004
636.734576 80.075 133.1887
641.348617 80.091 133.6472
645.996094 80.115 134.0707
650.677248 80.145 134.4556
655.392323 80.180 134.7998
660.141566 80.220 135.1032
664.925224 80.263 135.3665
669.743546 80.310 135.5909
674.596784 80.359 135.7767
679.485191 80.410 135.9233
684.409020 80.464 136.0294
689.368530 80.520 136.0927
694.363979 80.578 136.1111
699.395626 80.637 136.0818
704.463736 80.698 136.0020
709.568570 80.759 135.8683
714.710396 80.820 135.6776
719.889483 80.881 135.4266
725.106099 80.939 135.1124
730.360516 80.995 134.7320
735.653010 81.046 134.2835
740.983855 81.091 133.7665
746.353329 81.129 133.1826
751.761713 81.156 132.5368
757.209288 81.172 131.8370
762.696339 81.175 131.0940
768.223151 81.164 130.3203
773.790013 81.137 129.5290
779.397214 81.096 128.7337
785.045047 81.039 127.9478
790.733808 80.967 127.1855
796.463791 80.879 126.4623
802.235296 80.776 125.7958
808.048623 80.659 125.2052
813.904077 80.529 124.7103
819.801961 80.389 124.3293
825.742584 80.242 124.0766
831.726255 80.093 123.9598
837.753287 79.946 123.9787
843.823992 79.806 124.1244
849.938689 79.677 124.3809
856.097695 79.562 124.7267
862.301332 79.464 125.1369
868.549922 79.384 125.5857
874.843793 79.323 126.0484
881.183272 79.279 126.5038
887.568689 79.252 126.9357
894.000378 79.239 127.3331
900.478673 79.240 127.6892
907.003913 79.251 128.0003
913.576437 79.274 128.2635
920.196588 79.306 128.4753
926.864712 79.347 128.6315
933.581156 79.396 128.7261
940.346270 79.453 128.7530
947.160407 79.515 128.7058
954.023921 79.582 128.5792
960.937172 79.651 128.3696
967.900519 79.721 128.0756
974.914325 79.788 127.6994
981.978956 79.851 127.2460
989.094780 79.908 126.7236
996.262169 79.957 126.1431
1003.481495 79.997 125.5174
1010.753136 80.027 124.8606
1018.077470 80.046 124.1876
1025.454879 80.056 123.5126
1032.885748 80.055 122.8485
1040.370463 80.047 122.2061
1047.909417 80.030 121.5935
1055.503000 80.008 121.0163
1063.151610 79.980 120.4780
1070.855645 79.948 119.9809
1078.615506 79.912 119.5266
1086.431599 79.873 119.1164
1094.304330 79.833 118.7508
1102.234110 79.791 118.4296
1110.221353 79.749 118.1511
1118.266475 79.707 117.9124
1126.369895 79.666 117.7101
1134.532035 79.626 117.5416
1142.753322 79.586 117.4057
1151.034184 79.547 117.3036
1159.375052 79.509 117.2383
1167.776361 79.472 117.2133
1176.238550 79.439 117.2310
1184.762060 79.409 117.2903
1193.347334 79.386 117.3855
1201.994821 79.371 117.5060
1210.704971 79.364 117.6359
1219.478238 79.367 117.7562
1228.315080 79.378 117.8472
1237.215957 79.395 117.8924
1246.181334 79.415 117.8811
1255.211678 79.435 117.8103
1264.307459 79.453 117.6844
1273.469152 79.466 117.5134
1282.697235 79.473 117.3104
1291.992188 79.473 117.0894
1301.354495 79.464 116.8635
1310.784647 79.449 116.6443
1320.283132 79.426 116.4423
1329.850448 79.397 116.2667
1339.487093 79.362 116.1259
1349.193569 79.323 116.0273
1358.970381 79.281 115.9768
1368.818041 79.236 115.9788
1378.737061 79.191 116.0354
1388.727958 79.148 116.1465
1398.791253 79.108 116.3095
1408.927471 79.073 116.5204
1419.137140 79.043 116.7731
1429.420793 79.020 117.0601
1439.778965 79.005 117.3730
1450.212197 78.998 117.7033
1460.721033 78.999 118.0426
1471.306019 79.008 118.3830
1481.967709 79.024 118.7165
1492.706658 79.047 119.0350
1503.523426 79.075 119.3302
1514.418576 79.106 119.5946
1525.392678 79.139 119.8226
1536.446302 79.171 120.0113
1547.580025 79.200 120.1610
1558.794428 79.222 120.2769
1570.090095 79.234 120.3693
1581.467615 79.235 120.4555
1592.927581 79.222 120.5598
1604.470591 79.195 120.7114
1616.097246 79.156 120.9412
1627.808153 79.107 121.2766
1639.603922 79.053 121.7359
1651.485168 79.000 122.3257
1663.452510 78.952 123.0388
1675.506573 78.915 123.8540
1687.647984 78.892 124.7396
1699.877377 78.885 125.6574
1712.195390 78.895 126.5678
1724.602663 78.920 127.4346
1737.099845 78.956 128.2289
1749.687587 79.001 128.9316
1762.366544 79.050 129.5333
1775.137379 79.099 130.0338
1788.000756 79.144 130.4418
1800.957346 79.180 130.7735
1814.007826 79.206 131.0521
1827.152874 79.219 131.3058
1840.393177 79.218 131.5657
1853.729425 79.204 131.8630
1867.162312 79.180 132.2251
1880.692540 79.148 132.6735
1894.320813 79.112 133.2213
1908.047843 79.076 133.8722
1921.874344 79.044 134.6205
1935.801038 79.020 135.4520
1949.828650 79.007 136.3454
1963.957912 79.006 137.2748
1978.189561 79.019 138.2125
1992.524338 79.045 139.1313
2006.962991 79.084 140.0071
2021.506272 79.132 140.8202
2036.154940 79.189 141.5573
2050.909758 79.251 142.2109
2065.771495 79.315 142.7794
2080.740927 79.381 143.2656
2095.818833 79.445 143.6762
2111.006001 79.505 144.0211
2126.303220 79.561 144.3134
2141.711290 79.611 144.5683
2157.231013 79.655 144.8022
2172.863198 79.695 145.0306
2188.608660 79.731 145.2662
2204.468221 79.765 145.5168
2220.442706 79.799 145.7849
2236.532950 79.835 146.0684
2252.739789 79.875 146.3622
2269.064070 79.918 146.6592
2285.506644 79.967 146.9515
2302.068367 80.020 147.2331
2318.750104 80.078 147.4995
2335.552723 80.139 147.7495
2352.477101 80.205 147.9839
2369.524119 80.274 148.2054
2386.694668 80.348 148.4167
2403.989641 80.428 148.6177
2421.409941 80.513 148.8041
2438.956476 80.607 148.9671
2456.630160 80.707 149.0951
2474.431915 80.813 149.1762
2492.362668 80.924 149.2014
2510.423356 81.038 149.1668
2528.614918 81.153 149.0747
2546.938304 81.265 148.9329
2565.394469 81.376 148.7532
2583.984375 81.483 148.5490
2602.708991 81.587 148.3333
2621.569293 81.690 148.1183
2640.566265 81.791 147.9144
2659.700897 81.893 147.7295
2678.974186 81.998 147.5671
2698.387137 82.108 147.4255
2717.940763 82.224 147.2971
2737.636082 82.347 147.1700
2757.474121 82.477 147.0291
2777.455915 82.614 146.8585
2797.582506 82.755 146.6444
2817.854942 82.897 146.3774
2838.274281 83.039 146.0551
2858.841586 83.177 145.6815
2879.557931 83.310 145.2656
2900.424394 83.437 144.8179
2921.442065 83.557 144.3474
2942.612039 83.672 143.8592
2963.935418 83.779 143.3546
2985.413316 83.879 142.8323
3007.046852 83.970 142.2921
3028.837153 84.052 141.7375
3050.785356 84.121 141.1762
3072.892604 84.177 140.6189
3095.160050 84.220 140.0782
3117.588856 84.250 139.5675
3140.180190 84.267 139.0988
3162.935230 84.273 138.6808
3185.855163 84.269 138.3190
3208.941182 84.256 138.0149
3232.194493 84.237 137.7663
3255.616307 84.213 137.5670
3279.207844 84.184 137.4079
3302.970336 84.150 137.2800
3326.905021 84.111 137.1762
3351.013146 84.066 137.0945
3375.295969 84.013 137.0391
3399.754755 83.951 137.0209
3424.390779 83.881 137.0549
3449.205326 83.804 137.1548
3474.199690 83.724 137.3288
3499.375173 83.642 137.5761
3524.733088 83.563 137.8860
3550.274757 83.490 138.2397
3576.001511 83.422 138.6169
3601.914692 83.361 139.0018
3628.015651 83.304 139.3871
3654.305748 83.251 139.7754
3680.786354 83.201 140.1768
3707.458849 83.155 140.6040
3734.324624 83.112 141.0693
3761.385080 83.075 141.5819
3788.641627 83.046 142.1478
3816.095686 83.027 142.7698
3843.748688 83.020 143.4490
3871.602076 83.026 144.1860
3899.657300 83.048 144.9819
3927.915825 83.086 145.8370
3956.379122 83.142 146.7484
3985.048676 83.220 147.7068
4013.925981 83.318 148.6953
4043.012544 83.439 149.6951
4072.309879 83.580 150.6933
4101.819515 83.739 151.6901
4131.542990 83.916 152.6978
4161.481854 84.113 153.7328
4191.637667 84.331 154.8032
4222.012001 84.575 155.8961
4252.606441 84.845 156.9714
4283.422580 85.141 157.9642
4314.462026 85.461 158.8014
4345.726396 85.795 159.4218
4377.217321 86.138 159.7921
4408.936442 86.482 159.9093
4440.885413 86.821 159.7937
4473.065899 87.155 159.4762
4505.479579 87.482 158.9860
4538.128141 87.805 158.3420
4571.013288 88.124 157.5477
4604.136735 88.439 156.5923
4637.500207 88.749 155.4562
4671.105446 89.047 154.1187
4704.954201 89.329 152.5641
4739.048239 89.586 150.7856
4773.389336 89.812 148.7881
4807.979283 89.996 146.5928
4842.819883 90.134 144.2374
4877.912952 90.220 141.7733
4913.260320 90.254 139.2589
4948.863830 90.237 136.7518
4984.725337 90.171 134.3036
5020.846712 90.061 131.9578
5057.229836 89.911 129.7513
5093.876609 89.726 127.7166
5130.788938 89.510 125.8830
5167.968750 89.269 124.2774
5205.417982 89.007 122.9233
5243.138586 88.730 121.8406
5281.132530 88.445 121.0454
5319.401793 88.158 120.5492
5357.948371 87.877 120.3578
5396.774274 87.610 120.4706
5435.881525 87.365 120.8780
5475.272163 87.151 121.5587
5514.948243 86.975 122.4769
5554.911831 86.845 123.5813
5595.165012 86.764 124.8070
5635.709884 86.735 126.0789
5676.548561 86.755 127.3193
5717.683172 86.819 128.4570
5759.115861 86.920 129.4338
5800.848789 87.048 130.2083
5842.884130 87.194 130.7563
5885.224077 87.349 131.0696
5927.870837 87.503 131.1541
5970.826633 87.649 131.0267
6014.093704 87.779 130.7124
6057.674306 87.889 130.2430
6101.570711 87.973 129.6553
6145.785208 88.029 128.9904
6190.320101 88.055 128.2920
6235.177712 88.052 127.6040
6280.360380 88.019 126.9681
6325.870460 87.961 126.4225
6371.710325 87.881 125.9994
6417.882365 87.784 125.7236
6464.388986 87.676 125.6100
6511.232613 87.563 125.6635
6558.415689 87.451 125.8779
6605.940673 87.346 126.2365
6653.810042 87.253 126.7139
6702.026292 87.176 127.2775
6750.591937 87.120 127.8902
6799.509509 87.085 128.5119
6848.781558 87.075 129.1018
6898.410653 87.088 129.6200
6948.399380 87.125 130.0277
6998.750346 87.185 130.2876
7049.466176 87.265 130.3630
7100.549514 87.364 130.2186
7152.003023 87.476 129.8214
7203.829385 87.597 129.1428
7256.031302 87.720 128.1601
7308.611496 87.841 126.8569
7361.572708 87.951 125.2233
7414.917698 88.045 123.2551
7468.649249 88.116 120.9528
7522.770160 88.159 118.3198
7577.283253 88.169 115.3608
7632.191371 88.141 112.0800
7687.497376 88.073 108.4787
7743.204151 87.962 104.5528
7799.314600 87.807 100.2889
7855.831649 87.608 95.6597
7912.758244 87.367 90.6151
7970.097352 87.087 85.0689
8027.851962 86.774 78.8727
8086.025087 86.437 71.7685
8144.619758 86.087 63.2947
8203.639030 85.742 52.5975
8263.085980 85.420 38.0974
8322.963708 85.143 17.3090
8383.275334 84.933 -10.8618
8444.024002 84.807 -40.1288
8505.212881 84.775 -62.5373
8566.845160 84.838 -77.8818
8628.924051 84.988 -88.7322
8691.452792 85.211 -96.9215
8754.434642 85.490 -103.4692
8817.872884 85.809 -108.9388
8881.770826 86.155 -113.6594
8946.131799 86.516 -117.8375
9010.959157 86.886 -121.6136
9076.256282 87.258 -125.0916
9142.026576 87.628 -128.3539
9208.273470 87.992 -131.4697
9275.000415 88.346 -134.4994
9342.210891 88.685 -137.4948
9409.908403 89.004 -140.4998
9478.096478 89.298 -143.5486
9546.778672 89.559 -146.6648
9615.958566 89.781 -149.8597
9685.639765 89.956 -153.1316
9755.825904 90.080 -156.4651
9826.520640 90.146 -159.8319
9897.727659 90.149 -163.1926
9969.450674 90.089 -166.4993
10041.693423 89.964 -169.6998
10114.459673 89.776 -172.7404
10187.753217 89.528 -175.5701
10261.577877 89.225 -178.1423
10335.937500 88.872 179.5825
10410.835964 88.477 177.6354
10486.277173 88.047 176.0374
10562.265060 87.590 174.7975
10638.803587 87.117 173.9105
10715.896743 86.635 173.3552
10793.548548 86.155 173.0948
10871.763050 85.682 173.0787
10950.544327 85.224 173.2490
11029.896485 84.782 173.5477
11109.823662 84.356 173.9266
11190.330024 83.945 174.3545
11271.419768 83.544 174.8202
11353.097122 83.148 175.3325
11435.366344 82.752 175.9162
11518.231722 82.354 176.6050
11601.697577 81.953 177.4353
11685.768261 81.550 178.4381
11770.448155 81.150 179.6323
11855.741674 80.758 -178.9821
11941.653265 80.380 -177.4302
12028.187408 80.025 -175.7645
12115.348612 79.697 -174.0616
12203.141422 79.399 -172.4122
12291.570415 79.131 -170.9036
12380.640201 78.884 -169.6012
12470.355424 78.648 -168.5331
12560.720760 78.410 -167.6825
12651.740920 78.156 -166.9899
12743.420650 77.878 -166.3655
12835.764729 77.569 -165.7095
12928.777972 77.230 -164.9368
13022.465227 76.865 -163.9969
13116.831378 76.481 -162.8801
13211.881345 76.082 -161.6022
13307.620084 75.671 -160.1746
13404.052584 75.248 -158.5745
13501.183875 74.813 -156.7303
13599.019019 74.366 -154.5292
13697.563116 73.914 -151.8453
13796.821305 73.466 -148.5876
13896.798760 73.038 -144.7551
13997.500692 72.649 -140.4796
14098.932352 72.311 -136.0236
14201.099028 72.033 -131.7135
14304.006046 71.814 -127.8336
14407.658770 71.643 -124.5477
14512.062604 71.503 -121.8785
14617.222992 71.377 -119.7361
14723.145416 71.248 -117.9614
14829.835397 71.109 -116.3655
14937.298497 70.958 -114.7596
15045.540320 70.804 -112.9789
15154.566507 70.662 -110.9032
15264.382743 70.554 -108.4765
15374.994752 70.503 -105.7238
15486.408302 70.533 -102.7587
15598.629201 70.659 -99.7721
15711.663298 70.887 -96.9985
15825.516487 71.211 -94.6685
15940.194703 71.615 -92.9675
16055.703925 72.078 -92.0145
16172.050174 72.578 -91.8644
16289.239516 73.091 -92.5231
16407.278061 73.599 -93.9664
16526.171961 74.084 -96.1537
16645.927415 74.532 -99.0355
16766.550667 74.931 -102.5568
16888.048005 75.271 -106.6557
17010.425762 75.546 -111.2653
17133.690320 75.752 -116.3145
17257.848103 75.889 -121.7326
17382.905584 75.961 -127.4532
17508.869284 75.975 -133.4211
17635.745768 75.943 -139.5967
17763.541652 75.879 -145.9614
17892.263597 75.797 -152.5229
18021.918315 75.712 -159.3182
18152.512564 75.634 -166.4109
18284.053153 75.566 -173.8835
18416.546939 75.507 178.1734
18550.000830 75.450 169.6667
18684.421783 75.385 160.5038
18819.816805 75.309 150.5928
18956.192956 75.217 139.8532
19093.557344 75.113 128.2661
19231.917131 75.000 115.9838
19371.279531 74.883 103.4837
19511.651807 74.770 91.6428
19653.041280 74.670 81.5810
19795.455318 74.594 74.3210
19938.901348 74.553 70.5392
