* Measurement data measured by REW V5.31.3
* Source: EXCL: Headset (USB-C to 3.5mm Headphone Jack Adapter), MICROPHONE (Master Volume), 0, volume: 0.750
* Format: 256k Log Swept Sine, 1 sweep at -12.0 dBFS with no timing reference
* Dated: May 28, 2025 2:29:34 PM
* REW Settings:
*  C-weighting compensation: Off
*  Target level: 75.0 dB
* Note: ; 
* Measurement: Arya Stealth L9
* Smoothing: 1/6 octave
* Frequency Step: 96 ppo
* Start Frequency: 20.0 Hz
*
* Freq(Hz) SPL(dB) Phase(degrees)
20.187378 80.173 -144.7780
20.333664 80.188 -144.8961
20.481010 80.208 -145.0547
20.629424 80.233 -145.2496
20.778913 80.264 -145.4759
20.929486 80.301 -145.7290
21.081150 80.343 -146.0042
21.233912 80.390 -146.2971
21.387782 80.440 -146.6036
21.542767 80.494 -146.9201
21.698874 80.550 -147.2429
21.856113 80.607 -147.5686
22.014492 80.664 -147.8942
22.174018 80.719 -148.2168
22.334700 80.772 -148.5340
22.496546 80.823 -148.8443
22.659566 80.870 -149.1465
22.823766 80.912 -149.4405
22.989157 80.950 -149.7270
23.155745 80.983 -150.0075
23.323542 81.011 -150.2842
23.492554 81.034 -150.5598
23.662790 81.052 -150.8369
23.834261 81.065 -151.1180
24.006973 81.074 -151.4052
24.180938 81.078 -151.6996
24.356163 81.078 -152.0016
24.532658 81.074 -152.3105
24.710431 81.067 -152.6248
24.889493 81.056 -152.9424
25.069853 81.043 -153.2607
25.251519 81.028 -153.5773
25.434502 81.012 -153.8900
25.618811 80.995 -154.1967
25.804456 80.978 -154.4960
25.991445 80.961 -154.7871
26.179790 80.945 -155.0693
26.369500 80.929 -155.3423
26.560584 80.914 -155.6059
26.753053 80.900 -155.8597
26.946917 80.886 -156.1036
27.142185 80.873 -156.3371
27.338869 80.860 -156.5601
27.536977 80.847 -156.7727
27.736522 80.834 -156.9755
27.937512 80.821 -157.1698
28.139959 80.809 -157.3574
28.343872 80.796 -157.5408
28.549264 80.784 -157.7229
28.756143 80.772 -157.9072
28.964522 80.759 -158.0968
29.174411 80.747 -158.2946
29.385821 80.735 -158.5031
29.598763 80.724 -158.7238
29.813248 80.713 -158.9575
30.029287 80.703 -159.2037
30.246891 80.695 -159.4610
30.466073 80.689 -159.7271
30.686842 80.686 -159.9989
30.909212 80.686 -160.2729
31.133193 80.691 -160.5456
31.358797 80.701 -160.8136
31.586035 80.717 -161.0742
31.814921 80.739 -161.3257
32.045465 80.766 -161.5673
32.277680 80.800 -161.7989
32.511577 80.837 -162.0211
32.747169 80.879 -162.2348
32.984469 80.923 -162.4409
33.223488 80.969 -162.6400
33.464239 81.015 -162.8323
33.706735 81.061 -163.0181
33.950987 81.107 -163.1977
34.197010 81.153 -163.3722
34.444816 81.198 -163.5433
34.694417 81.244 -163.7139
34.945827 81.291 -163.8872
35.199059 81.339 -164.0670
35.454126 81.390 -164.2563
35.711041 81.443 -164.4571
35.969818 81.498 -164.6700
36.230470 81.556 -164.8935
36.493011 81.615 -165.1248
36.757455 81.674 -165.3594
37.023814 81.734 -165.5925
37.292104 81.794 -165.8188
37.562338 81.852 -166.0337
37.834530 81.909 -166.2337
38.108695 81.963 -166.4166
38.384846 82.015 -166.5822
38.662999 82.064 -166.7322
38.943167 82.110 -166.8704
39.225365 82.155 -167.0019
39.509608 82.197 -167.1325
39.795911 82.237 -167.2677
40.084289 82.276 -167.4115
40.374756 82.313 -167.5656
40.667328 82.348 -167.7292
40.962020 82.381 -167.8989
41.258848 82.412 -168.0705
41.557827 82.442 -168.2392
41.858972 82.471 -168.4015
42.162299 82.499 -168.5555
42.467824 82.527 -168.7013
42.775564 82.553 -168.8406
43.085533 82.579 -168.9762
43.397749 82.604 -169.1111
43.712227 82.628 -169.2481
44.028983 82.652 -169.3890
44.348036 82.674 -169.5348
44.669400 82.696 -169.6855
44.993093 82.718 -169.8400
45.319131 82.740 -169.9966
45.647532 82.761 -170.1533
45.978313 82.782 -170.3082
46.311491 82.804 -170.4600
46.647083 82.824 -170.6083
46.985107 82.844 -170.7535
47.325581 82.863 -170.8970
47.668521 82.882 -171.0405
48.013947 82.898 -171.1858
48.361876 82.914 -171.3345
48.712326 82.926 -171.4881
49.065315 82.937 -171.6478
49.420863 82.944 -171.8142
49.778987 82.947 -171.9875
50.139706 82.945 -172.1674
50.503039 82.940 -172.3528
50.869005 82.931 -172.5430
51.237623 82.918 -172.7373
51.608912 82.903 -172.9358
51.982891 82.888 -173.1391
52.359580 82.873 -173.3485
52.739000 82.860 -173.5650
53.121168 82.849 -173.7887
53.506106 82.841 -174.0190
53.893833 82.835 -174.2540
54.284370 82.831 -174.4911
54.677737 82.828 -174.7272
55.073955 82.827 -174.9590
55.473043 82.827 -175.1835
55.875024 82.828 -175.3973
56.279917 82.828 -175.5978
56.687745 82.829 -175.7833
57.098527 82.829 -175.9534
57.512287 82.828 -176.1099
57.929045 82.828 -176.2563
58.348822 82.827 -176.3978
58.771642 82.828 -176.5411
59.197525 82.832 -176.6934
59.626495 82.841 -176.8615
60.058573 82.856 -177.0504
60.493782 82.877 -177.2618
60.932145 82.904 -177.4933
61.373685 82.936 -177.7397
61.818424 82.972 -177.9944
62.266386 83.010 -178.2519
62.717593 83.049 -178.5088
63.172071 83.089 -178.7642
63.629842 83.129 -179.0182
64.090930 83.170 -179.2713
64.555359 83.209 -179.5231
65.023154 83.248 -179.7729
65.494339 83.287 179.9801
65.968938 83.325 179.7363
66.446976 83.361 179.4953
66.928478 83.397 179.2563
67.413469 83.431 179.0185
67.901975 83.463 178.7809
68.394021 83.494 178.5431
68.889632 83.524 178.3054
69.388835 83.552 178.0680
69.891655 83.579 177.8315
70.398118 83.604 177.5962
70.908252 83.628 177.3626
71.422083 83.650 177.1309
71.939636 83.671 176.9011
72.460941 83.689 176.6730
72.986023 83.705 176.4457
73.514909 83.719 176.2181
74.047629 83.730 175.9889
74.584208 83.739 175.7569
75.124676 83.745 175.5212
75.669061 83.748 175.2814
76.217390 83.749 175.0377
76.769692 83.748 174.7903
77.325997 83.744 174.5400
77.886333 83.738 174.2872
78.450730 83.731 174.0328
79.019216 83.723 173.7781
79.591822 83.713 173.5241
80.168577 83.702 173.2721
80.749512 83.691 173.0228
81.334656 83.678 172.7765
81.924040 83.665 172.5327
82.517696 83.651 172.2911
83.115653 83.636 172.0511
83.717943 83.621 171.8124
84.324598 83.604 171.5751
84.935649 83.587 171.3396
85.551128 83.570 171.1061
86.171066 83.552 170.8751
86.795497 83.533 170.6466
87.424453 83.514 170.4208
88.057967 83.496 170.1978
88.696071 83.477 169.9777
89.338800 83.458 169.7604
89.986185 83.439 169.5462
90.638262 83.421 169.3352
91.295065 83.402 169.1272
91.956626 83.384 168.9220
92.622982 83.367 168.7191
93.294166 83.349 168.5182
93.970214 83.332 168.3187
94.651161 83.315 168.1203
95.337042 83.298 167.9224
96.027894 83.281 167.7245
96.723752 83.265 167.5261
97.424652 83.248 167.3271
98.130631 83.231 167.1281
98.841726 83.215 166.9298
99.557974 83.198 166.7332
100.279412 83.181 166.5390
101.006078 83.165 166.3476
101.738010 83.149 166.1588
102.475245 83.135 165.9720
103.217823 83.121 165.7870
103.965782 83.108 165.6034
104.719161 83.096 165.4211
105.477999 83.085 165.2395
106.242336 83.074 165.0580
107.012212 83.063 164.8759
107.787666 83.054 164.6926
108.568740 83.044 164.5085
109.355474 83.036 164.3243
110.147909 83.029 164.1414
110.946086 83.024 163.9612
111.750047 83.020 163.7849
112.559834 83.017 163.6132
113.375489 83.016 163.4462
114.197055 83.016 163.2831
115.024574 83.017 163.1229
115.858089 83.018 162.9641
116.697645 83.019 162.8052
117.543284 83.021 162.6448
118.395051 83.022 162.4815
119.252990 83.023 162.3144
120.117147 83.023 162.1428
120.987565 83.023 161.9670
121.864291 83.023 161.7877
122.747370 83.022 161.6062
123.636848 83.021 161.4237
124.532771 83.021 161.2411
125.435187 83.020 161.0589
126.344142 83.019 160.8769
127.259684 83.018 160.6945
128.181860 83.017 160.5112
129.110718 83.015 160.3262
130.046308 83.012 160.1394
130.988677 83.007 159.9505
131.937875 83.002 159.7597
132.893951 82.994 159.5671
133.856956 82.985 159.3733
134.826938 82.974 159.1789
135.803950 82.961 158.9847
136.788041 82.946 158.7915
137.779264 82.928 158.5996
138.777669 82.909 158.4094
139.783309 82.887 158.2205
140.796237 82.864 158.0326
141.816504 82.839 157.8451
142.844165 82.813 157.6576
143.879273 82.785 157.4700
144.921881 82.756 157.2823
145.972045 82.726 157.0941
147.029819 82.694 156.9053
148.095257 82.662 156.7154
149.168417 82.628 156.5244
150.249353 82.594 156.3326
151.338121 82.558 156.1410
152.434780 82.522 155.9512
153.539385 82.484 155.7653
154.651995 82.445 155.5853
155.772667 82.405 155.4132
156.901460 82.364 155.2504
158.038432 82.323 155.0977
159.183644 82.280 154.9557
160.337154 82.237 154.8248
161.499023 82.193 154.7056
162.669312 82.148 154.5985
163.848081 82.102 154.5044
165.035392 82.056 154.4242
166.231306 82.010 154.3590
167.435887 81.964 154.3099
168.649196 81.918 154.2780
169.871298 81.873 154.2645
171.102255 81.829 154.2700
172.342133 81.786 154.2952
173.590995 81.744 154.3401
174.848907 81.704 154.4044
176.115934 81.665 154.4870
177.392143 81.628 154.5865
178.677599 81.594 154.7007
179.972371 81.561 154.8271
181.276525 81.531 154.9630
182.590129 81.504 155.1053
183.913252 81.479 155.2516
185.245964 81.457 155.3991
186.588332 81.437 155.5458
187.940428 81.420 155.6896
189.302322 81.406 155.8283
190.674085 81.394 155.9601
192.055788 81.384 156.0836
193.447503 81.377 156.1974
194.849303 81.372 156.3013
196.261262 81.369 156.3944
197.683452 81.367 156.4762
199.115948 81.368 156.5461
200.558824 81.369 156.6036
202.012156 81.372 156.6484
203.476019 81.377 156.6810
204.950490 81.381 156.7024
206.435646 81.387 156.7136
207.931564 81.393 156.7156
209.438322 81.400 156.7091
210.955998 81.407 156.6938
212.484672 81.415 156.6693
214.024424 81.425 156.6349
215.575333 81.435 156.5899
217.137481 81.446 156.5336
218.710948 81.459 156.4657
220.295818 81.473 156.3860
221.892172 81.488 156.2948
223.500094 81.504 156.1928
225.119668 81.520 156.0809
226.750978 81.538 155.9602
228.394109 81.555 155.8314
230.049147 81.573 155.6951
231.716178 81.592 155.5517
233.395289 81.610 155.4014
235.086567 81.629 155.2450
236.790102 81.648 155.0832
238.505980 81.666 154.9171
240.234293 81.685 154.7475
241.975130 81.704 154.5756
243.728581 81.723 154.4020
245.494739 81.742 154.2276
247.273695 81.761 154.0534
249.065542 81.780 153.8803
250.870374 81.799 153.7092
252.688284 81.817 153.5408
254.519367 81.835 153.3756
256.363720 81.853 153.2138
258.221437 81.870 153.0552
260.092616 81.887 152.8996
261.977354 81.904 152.7464
263.875750 81.919 152.5951
265.787903 81.935 152.4449
267.713911 81.950 152.2952
269.653877 81.966 152.1454
271.607900 81.981 151.9949
273.576083 81.996 151.8431
275.558528 82.012 151.6891
277.555338 82.028 151.5317
279.566619 82.045 151.3695
281.592474 82.063 151.2010
283.633009 82.082 151.0249
285.688331 82.102 150.8397
287.758546 82.123 150.6443
289.843763 82.145 150.4379
291.944090 82.168 150.2199
294.059638 82.191 149.9899
296.190515 82.215 149.7475
298.336833 82.239 149.4921
300.498705 82.262 149.2231
302.676243 82.286 148.9398
304.869559 82.308 148.6416
307.078770 82.330 148.3277
309.303989 82.351 147.9977
311.545334 82.369 147.6516
313.802919 82.385 147.2896
316.076865 82.398 146.9124
318.367288 82.409 146.5214
320.674309 82.415 146.1186
322.998047 82.417 145.7065
325.338624 82.415 145.2885
327.696162 82.407 144.8687
330.070783 82.394 144.4520
332.462612 82.376 144.0441
334.871773 82.351 143.6508
337.298392 82.320 143.2782
339.742595 82.283 142.9320
342.204510 82.240 142.6173
344.684265 82.192 142.3383
347.181989 82.140 142.0988
349.697813 82.083 141.9017
352.231868 82.024 141.7495
354.784285 81.963 141.6438
357.355198 81.901 141.5857
359.944741 81.839 141.5751
362.553049 81.778 141.6104
365.180258 81.720 141.6887
367.826505 81.665 141.8054
370.491927 81.615 141.9548
373.176665 81.569 142.1306
375.880856 81.529 142.3258
378.604644 81.494 142.5343
381.348169 81.465 142.7504
384.111575 81.442 142.9691
386.895006 81.424 143.1863
389.698607 81.412 143.3978
392.522524 81.404 143.6001
395.366904 81.400 143.7898
398.231895 81.400 143.9642
401.117648 81.404 144.1213
404.024312 81.410 144.2598
406.952038 81.418 144.3791
409.900981 81.429 144.4787
412.871292 81.441 144.5589
415.863128 81.454 144.6202
418.876643 81.467 144.6634
421.911996 81.481 144.6899
424.969344 81.494 144.7017
428.048847 81.507 144.7009
431.150666 81.519 144.6896
434.274961 81.530 144.6692
437.421897 81.540 144.6404
440.591636 81.550 144.6026
443.784345 81.560 144.5541
447.000189 81.571 144.4925
450.239337 81.582 144.4148
453.501956 81.595 144.3180
456.788219 81.610 144.1991
460.098294 81.626 144.0552
463.432356 81.644 143.8837
466.790578 81.663 143.6820
470.173135 81.683 143.4481
473.580203 81.703 143.1802
477.011961 81.723 142.8774
480.468586 81.742 142.5392
483.950259 81.761 142.1658
487.457163 81.778 141.7578
490.989478 81.793 141.3165
494.547390 81.806 140.8432
498.131084 81.817 140.3398
501.740748 81.825 139.8085
505.376568 81.829 139.2508
509.038735 81.830 138.6685
512.727439 81.826 138.0630
516.442874 81.818 137.4357
520.185232 81.805 136.7884
523.954708 81.786 136.1235
527.751500 81.760 135.4447
531.575805 81.727 134.7570
535.427822 81.686 134.0673
539.307753 81.636 133.3839
543.215800 81.577 132.7173
547.152165 81.507 132.0793
551.117055 81.429 131.4836
555.110677 81.340 130.9447
559.133237 81.244 130.4772
563.184947 81.141 130.0949
567.266018 81.033 129.8093
571.376661 80.923 129.6282
575.517092 80.813 129.5550
579.687526 80.706 129.5884
583.888181 80.604 129.7228
588.119275 80.511 129.9487
592.381030 80.426 130.2535
596.673667 80.353 130.6236
600.997410 80.290 131.0449
605.352485 80.239 131.5036
609.739119 80.199 131.9869
614.157540 80.169 132.4833
618.607979 80.151 132.9825
623.090667 80.142 133.4756
627.605839 80.142 133.9553
632.153730 80.150 134.4152
636.734576 80.166 134.8497
641.348617 80.189 135.2540
645.996094 80.218 135.6239
650.677248 80.253 135.9561
655.392323 80.291 136.2488
660.141566 80.334 136.5016
664.925224 80.379 136.7151
669.743546 80.426 136.8904
674.596784 80.476 137.0281
679.485191 80.528 137.1285
684.409020 80.580 137.1909
689.368530 80.634 137.2144
694.363979 80.690 137.1974
699.395626 80.746 137.1374
704.463736 80.803 137.0311
709.568570 80.860 136.8744
714.710396 80.917 136.6630
719.889483 80.974 136.3927
725.106099 81.028 136.0599
730.360516 81.078 135.6621
735.653010 81.123 135.1983
740.983855 81.162 134.6697
746.353329 81.191 134.0803
751.761713 81.211 133.4369
757.209288 81.218 132.7491
762.696339 81.212 132.0284
768.223151 81.192 131.2869
773.790013 81.158 130.5376
779.397214 81.109 129.7934
785.045047 81.045 129.0678
790.733808 80.967 128.3757
796.463791 80.874 127.7336
802.235296 80.767 127.1595
808.048623 80.648 126.6721
813.904077 80.520 126.2885
819.801961 80.384 126.0222
825.742584 80.247 125.8804
831.726255 80.111 125.8625
837.753287 79.981 125.9599
843.823992 79.861 126.1569
849.938689 79.754 126.4335
856.097695 79.661 126.7677
862.301332 79.585 127.1371
868.549922 79.525 127.5208
874.843793 79.481 127.9001
881.183272 79.452 128.2598
887.568689 79.436 128.5886
894.000378 79.432 128.8790
900.478673 79.438 129.1260
907.003913 79.453 129.3266
913.576437 79.475 129.4786
920.196588 79.505 129.5804
926.864712 79.541 129.6298
933.581156 79.582 129.6246
940.346270 79.628 129.5620
947.160407 79.678 129.4386
954.023921 79.731 129.2510
960.937172 79.786 128.9960
967.900519 79.840 128.6716
974.914325 79.893 128.2780
981.978956 79.942 127.8185
989.094780 79.986 127.2998
996.262169 80.021 126.7322
1003.481495 80.049 126.1291
1010.753136 80.066 125.5052
1018.077470 80.074 124.8760
1025.454879 80.073 124.2560
1032.885748 80.064 123.6579
1040.370463 80.048 123.0913
1047.909417 80.027 122.5631
1055.503000 80.002 122.0767
1063.151610 79.975 121.6324
1070.855645 79.947 121.2280
1078.615506 79.920 120.8588
1086.431599 79.894 120.5190
1094.304330 79.868 120.2017
1102.234110 79.843 119.8999
1110.221353 79.819 119.6084
1118.266475 79.794 119.3238
1126.369895 79.766 119.0461
1134.532035 79.736 118.7785
1142.753322 79.701 118.5279
1151.034184 79.662 118.3036
1159.375052 79.618 118.1166
1167.776361 79.571 117.9782
1176.238550 79.523 117.8975
1184.762060 79.475 117.8802
1193.347334 79.430 117.9265
1201.994821 79.390 118.0295
1210.704971 79.359 118.1757
1219.478238 79.336 118.3459
1228.315080 79.324 118.5186
1237.215957 79.319 118.6741
1246.181334 79.322 118.7976
1255.211678 79.329 118.8812
1264.307459 79.338 118.9234
1273.469152 79.347 118.9276
1282.697235 79.355 118.9001
1291.992188 79.361 118.8481
1301.354495 79.364 118.7792
1310.784647 79.363 118.7006
1320.283132 79.358 118.6191
1329.850448 79.349 118.5409
1339.487093 79.336 118.4716
1349.193569 79.321 118.4156
1358.970381 79.302 118.3766
1368.818041 79.281 118.3576
1378.737061 79.258 118.3612
1388.727958 79.234 118.3900
1398.791253 79.209 118.4460
1408.927471 79.184 118.5318
1419.137140 79.159 118.6498
1429.420793 79.136 118.8028
1439.778965 79.115 118.9937
1450.212197 79.097 119.2256
1460.721033 79.083 119.5003
1471.306019 79.075 119.8175
1481.967709 79.074 120.1733
1492.706658 79.082 120.5594
1503.523426 79.098 120.9627
1514.418576 79.124 121.3661
1525.392678 79.157 121.7501
1536.446302 79.197 122.0957
1547.580025 79.239 122.3881
1558.794428 79.279 122.6193
1570.090095 79.315 122.7908
1581.467615 79.341 122.9142
1592.927581 79.355 123.0103
1604.470591 79.355 123.1066
1616.097246 79.341 123.2332
1627.808153 79.315 123.4176
1639.603922 79.279 123.6818
1651.485168 79.238 124.0392
1663.452510 79.194 124.4947
1675.506573 79.153 125.0440
1687.647984 79.116 125.6762
1699.877377 79.087 126.3755
1712.195390 79.069 127.1225
1724.602663 79.062 127.8950
1737.099845 79.067 128.6693
1749.687587 79.083 129.4211
1762.366544 79.110 130.1275
1775.137379 79.145 130.7682
1788.000756 79.184 131.3275
1800.957346 79.224 131.7977
1814.007826 79.261 132.1806
1827.152874 79.290 132.4891
1840.393177 79.307 132.7465
1853.729425 79.310 132.9839
1867.162312 79.299 133.2366
1880.692540 79.273 133.5394
1894.320813 79.237 133.9233
1908.047843 79.192 134.4115
1921.874344 79.145 135.0172
1935.801038 79.100 135.7416
1949.828650 79.061 136.5742
1963.957912 79.034 137.4933
1978.189561 79.022 138.4689
1992.524338 79.026 139.4655
2006.962991 79.048 140.4459
2021.506272 79.086 141.3749
2036.154940 79.137 142.2229
2050.909758 79.200 142.9680
2065.771495 79.270 143.5973
2080.740927 79.342 144.1065
2095.818833 79.413 144.5001
2111.006001 79.479 144.7903
2126.303220 79.537 144.9965
2141.711290 79.583 145.1447
2157.231013 79.618 145.2646
2172.863198 79.641 145.3873
2188.608660 79.655 145.5411
2204.468221 79.661 145.7474
2220.442706 79.664 146.0194
2236.532950 79.668 146.3610
2252.739789 79.678 146.7672
2269.064070 79.695 147.2253
2285.506644 79.724 147.7163
2302.068367 79.765 148.2168
2318.750104 79.819 148.7025
2335.552723 79.885 149.1517
2352.477101 79.961 149.5486
2369.524119 80.045 149.8848
2386.694668 80.135 150.1591
2403.989641 80.228 150.3752
2421.409941 80.324 150.5403
2438.956476 80.421 150.6624
2456.630160 80.520 150.7493
2474.431915 80.620 150.8080
2492.362668 80.722 150.8442
2510.423356 80.826 150.8624
2528.614918 80.933 150.8655
2546.938304 81.043 150.8538
2565.394469 81.158 150.8248
2583.984375 81.276 150.7738
2602.708991 81.399 150.6952
2621.569293 81.524 150.5847
2640.566265 81.652 150.4410
2659.700897 81.780 150.2667
2678.974186 81.909 150.0678
2698.387137 82.037 149.8527
2717.940763 82.166 149.6302
2737.636082 82.296 149.4071
2757.474121 82.429 149.1853
2777.455915 82.566 148.9600
2797.582506 82.709 148.7193
2817.854942 82.856 148.4475
2838.274281 83.008 148.1282
2858.841586 83.160 147.7488
2879.557931 83.310 147.3030
2900.424394 83.455 146.7907
2921.442065 83.592 146.2171
2942.612039 83.721 145.5911
2963.935418 83.837 144.9236
2985.413316 83.942 144.2267
3007.046852 84.033 143.5130
3028.837153 84.112 142.7950
3050.785356 84.177 142.0836
3072.892604 84.230 141.3868
3095.160050 84.271 140.7097
3117.588856 84.301 140.0544
3140.180190 84.321 139.4214
3162.935230 84.329 138.8096
3185.855163 84.327 138.2180
3208.941182 84.313 137.6472
3232.194493 84.286 137.0998
3255.616307 84.247 136.5800
3279.207844 84.196 136.0930
3302.970336 84.131 135.6438
3326.905021 84.054 135.2378
3351.013146 83.964 134.8801
3375.295969 83.862 134.5772
3399.754755 83.748 134.3381
3424.390779 83.622 134.1733
3449.205326 83.487 134.0932
3474.199690 83.342 134.1057
3499.375173 83.193 134.2136
3524.733088 83.040 134.4136
3550.274757 82.886 134.6982
3576.001511 82.732 135.0597
3601.914692 82.580 135.4949
3628.015651 82.430 136.0060
3654.305748 82.282 136.5998
3680.786354 82.139 137.2845
3707.458849 82.001 138.0687
3734.324624 81.872 138.9612
3761.385080 81.753 139.9716
3788.641627 81.648 141.1087
3816.095686 81.561 142.3787
3843.748688 81.495 143.7839
3871.602076 81.455 145.3212
3899.657300 81.445 146.9802
3927.915825 81.470 148.7398
3956.379122 81.531 150.5667
3985.048676 81.631 152.4150
4013.925981 81.770 154.2337
4043.012544 81.943 155.9776
4072.309879 82.147 157.6176
4101.819515 82.378 159.1437
4131.542990 82.631 160.5584
4161.481854 82.905 161.8664
4191.637667 83.197 163.0646
4222.012001 83.506 164.1357
4252.606441 83.828 165.0504
4283.422580 84.158 165.7772
4314.462026 84.489 166.2966
4345.726396 84.815 166.6112
4377.217321 85.132 166.7471
4408.936442 85.438 166.7460
4440.885413 85.737 166.6519
4473.065899 86.032 166.4971
4505.479579 86.329 166.2920
4538.128141 86.634 166.0223
4571.013288 86.947 165.6530
4604.136735 87.267 165.1375
4637.500207 87.589 164.4290
4671.105446 87.905 163.4890
4704.954201 88.206 162.2941
4739.048239 88.482 160.8396
4773.389336 88.723 159.1425
4807.979283 88.921 157.2405
4842.819883 89.070 155.1877
4877.912952 89.170 153.0469
4913.260320 89.220 150.8812
4948.863830 89.225 148.7468
4984.725337 89.189 146.6904
5020.846712 89.117 144.7480
5057.229836 89.016 142.9476
5093.876609 88.889 141.3105
5130.788938 88.744 139.8535
5167.968750 88.584 138.5901
5205.417982 88.414 137.5310
5243.138586 88.240 136.6843
5281.132530 88.066 136.0552
5319.401793 87.899 135.6450
5357.948371 87.743 135.4510
5396.774274 87.604 135.4654
5435.881525 87.489 135.6735
5475.272163 87.403 136.0515
5514.948243 87.351 136.5660
5554.911831 87.336 137.1736
5595.165012 87.359 137.8226
5635.709884 87.420 138.4567
5676.548561 87.516 139.0197
5717.683172 87.640 139.4618
5759.115861 87.787 139.7436
5800.848789 87.947 139.8383
5842.884130 88.113 139.7314
5885.224077 88.277 139.4200
5927.870837 88.431 138.9119
5970.826633 88.568 138.2245
6014.093704 88.683 137.3831
6057.674306 88.771 136.4187
6101.570711 88.827 135.3679
6145.785208 88.850 134.2722
6190.320101 88.838 133.1759
6235.177712 88.792 132.1238
6280.360380 88.713 131.1585
6325.870460 88.605 130.3184
6371.710325 88.471 129.6364
6417.882365 88.318 129.1381
6464.388986 88.150 128.8398
6511.232613 87.975 128.7480
6558.415689 87.799 128.8591
6605.940673 87.628 129.1601
6653.810042 87.468 129.6286
6702.026292 87.325 130.2346
6750.591937 87.202 130.9420
6799.509509 87.104 131.7099
6848.781558 87.032 132.4956
6898.410653 86.989 133.2549
6948.399380 86.975 133.9432
6998.750346 86.990 134.5150
7049.466176 87.034 134.9246
7100.549514 87.102 135.1276
7152.003023 87.192 135.0828
7203.829385 87.299 134.7537
7256.031302 87.415 134.1106
7308.611496 87.534 133.1312
7361.572708 87.648 131.8011
7414.917698 87.749 130.1138
7468.649249 87.830 128.0698
7522.770160 87.884 125.6748
7577.283253 87.905 122.9381
7632.191371 87.887 119.8702
7687.497376 87.827 116.4803
7743.204151 87.721 112.7740
7799.314600 87.570 108.7496
7855.831649 87.373 104.3927
7912.758244 87.134 99.6686
7970.097352 86.856 94.5083
8027.851962 86.549 88.7823
8086.025087 86.223 82.2476
8144.619758 85.893 74.4218
8203.639030 85.577 64.2681
8263.085980 85.295 49.3282
8322.963708 85.068 23.7656
8383.275334 84.910 -17.3967
8444.024002 84.831 -54.4243
8505.212881 84.831 -75.7077
8566.845160 84.902 -88.4742
8628.924051 85.031 -97.3115
8691.452792 85.204 -104.0934
8754.434642 85.406 -109.6364
8817.872884 85.626 -114.3384
8881.770826 85.858 -118.4156
8946.131799 86.097 -122.0000
9010.959157 86.339 -125.1818
9076.256282 86.586 -128.0314
9142.026576 86.836 -130.6091
9208.273470 87.090 -132.9708
9275.000415 87.348 -135.1703
9342.210891 87.608 -137.2593
9409.908403 87.869 -139.2873
9478.096478 88.129 -141.3004
9546.778672 88.383 -143.3399
9615.958566 88.627 -145.4410
9685.639765 88.856 -147.6311
9755.825904 89.064 -149.9283
9826.520640 89.246 -152.3415
9897.727659 89.395 -154.8694
9969.450674 89.507 -157.5016
10041.693423 89.577 -160.2189
10114.459673 89.600 -162.9941
10187.753217 89.573 -165.7935
10261.577877 89.494 -168.5779
10335.937500 89.363 -171.3046
10410.835964 89.178 -173.9298
10486.277173 88.943 -176.4106
10562.265060 88.660 -178.7078
10638.803587 88.333 179.2134
10715.896743 87.967 177.3804
10793.548548 87.567 175.8132
10871.763050 87.139 174.5231
10950.544327 86.691 173.5132
11029.896485 86.227 172.7777
11109.823662 85.754 172.3040
11190.330024 85.277 172.0737
11271.419768 84.802 172.0643
11353.097122 84.333 172.2503
11435.366344 83.874 172.6035
11518.231722 83.429 173.0916
11601.697577 83.003 173.6766
11685.768261 82.599 174.3141
11770.448155 82.220 174.9525
11855.741674 81.868 175.5348
11941.653265 81.545 176.0010
12028.187408 81.250 176.2928
12115.348612 80.978 176.3578
12203.141422 80.725 176.1552
12291.570415 80.480 175.6596
12380.640201 80.234 174.8652
12470.355424 79.974 173.7887
12560.720760 79.686 172.4725
12651.740920 79.358 170.9882
12743.420650 78.976 169.4403
12835.764729 78.532 167.9692
12928.777972 78.018 166.7541
13022.465227 77.433 166.0175
13116.831378 76.783 166.0370
13211.881345 76.079 167.1757
13307.620084 75.337 169.9432
13404.052584 74.585 175.0869
13501.183875 73.856 -176.3773
13599.019019 73.191 -163.5941
13697.563116 72.633 -147.3962
13796.821305 72.220 -131.3823
13896.798760 71.970 -119.0406
13997.500692 71.875 -111.0452
14098.932352 71.904 -106.4551
14201.099028 72.011 -104.2050
14304.006046 72.148 -103.5099
14407.658770 72.275 -103.8344
14512.062604 72.361 -104.8018
14617.222992 72.384 -106.1285
14723.145416 72.333 -107.5834
14829.835397 72.203 -108.9661
14937.298497 71.996 -110.0970
15045.540320 71.723 -110.8140
15154.566507 71.397 -110.9745
15264.382743 71.040 -110.4661
15374.994752 70.678 -109.2249
15486.408302 70.341 -107.2650
15598.629201 70.062 -104.7059
15711.663298 69.874 -101.7803
15825.516487 69.797 -98.8031
15940.194703 69.840 -96.1039
16055.703925 69.999 -93.9534
16172.050174 70.255 -92.5225
16289.239516 70.585 -91.8855
16407.278061 70.964 -92.0488
16526.171961 71.369 -92.9835
16645.927415 71.780 -94.6467
16766.550667 72.180 -96.9915
16888.048005 72.555 -99.9685
17010.425762 72.895 -103.5260
17133.690320 73.193 -107.6097
17257.848103 73.445 -112.1653
17382.905584 73.652 -117.1417
17508.869284 73.817 -122.4951
17635.745768 73.946 -128.1911
17763.541652 74.049 -134.2090
17892.263597 74.133 -140.5457
18021.918315 74.211 -147.2181
18152.512564 74.287 -154.2635
18284.053153 74.366 -161.7372
18416.546939 74.449 -169.7089
18550.000830 74.531 -178.2611
18684.421783 74.606 172.5170
18819.816805 74.669 162.5389
18956.192956 74.712 151.7498
19093.557344 74.729 140.1935
19231.917131 74.715 128.1170
19371.279531 74.673 116.0723
19511.651807 74.608 104.9093
19653.041280 74.536 95.5953
19795.455318 74.473 88.9539
19938.901348 74.436 85.5143
