* Measurement data measured by REW V5.31.3
* Source: EXCL: Headset (USB-C to 3.5mm Headphone Jack Adapter), MICROPHONE (Master Volume), 0, volume: 0.200
* Format: 256k Log Swept Sine, 1 sweep at -12.0 dBFS with no timing reference
* Dated: Jun 13, 2025 2:29:06 PM
* REW Settings:
*  C-weighting compensation: Off
*  Target level: 75.0 dB
* Note: ; 
* Measurement: Arya Stealth 2 L4
* Smoothing: 1/6 octave
* Frequency Step: 96 ppo
* Start Frequency: 20.0 Hz
*
* Freq(Hz) SPL(dB) Phase(degrees)
20.187378 65.687 -96.5397
20.333664 65.713 -96.7529
20.481010 65.749 -97.0394
20.629424 65.792 -97.3917
20.778913 65.842 -97.8009
20.929486 65.898 -98.2574
21.081150 65.957 -98.7507
21.233912 66.020 -99.2706
21.387782 66.086 -99.8067
21.542767 66.153 -100.3495
21.698874 66.222 -100.8905
21.856113 66.291 -101.4223
22.014492 66.362 -101.9398
22.174018 66.434 -102.4398
22.334700 66.507 -102.9212
22.496546 66.580 -103.3855
22.659566 66.654 -103.8357
22.823766 66.727 -104.2766
22.989157 66.799 -104.7138
23.155745 66.868 -105.1531
23.323542 66.934 -105.5997
23.492554 66.995 -106.0576
23.662790 67.050 -106.5293
23.834261 67.098 -107.0155
24.006973 67.139 -107.5150
24.180938 67.172 -108.0254
24.356163 67.196 -108.5430
24.532658 67.213 -109.0638
24.710431 67.223 -109.5839
24.889493 67.227 -110.1001
25.069853 67.225 -110.6104
25.251519 67.221 -111.1141
25.434502 67.213 -111.6117
25.618811 67.204 -112.1050
25.804456 67.195 -112.5961
25.991445 67.185 -113.0875
26.179790 67.175 -113.5810
26.369500 67.166 -114.0777
26.560584 67.158 -114.5774
26.753053 67.149 -115.0789
26.946917 67.141 -115.5799
27.142185 67.134 -116.0775
27.338869 67.128 -116.5688
27.536977 67.123 -117.0513
27.736522 67.120 -117.5231
27.937512 67.119 -117.9836
28.139959 67.121 -118.4329
28.343872 67.126 -118.8722
28.549264 67.134 -119.3031
28.756143 67.144 -119.7272
28.964522 67.157 -120.1460
29.174411 67.171 -120.5605
29.385821 67.186 -120.9710
29.598763 67.203 -121.3776
29.813248 67.221 -121.7798
30.029287 67.239 -122.1775
30.246891 67.258 -122.5703
30.466073 67.279 -122.9586
30.686842 67.301 -123.3429
30.909212 67.325 -123.7237
31.133193 67.351 -124.1020
31.358797 67.381 -124.4783
31.586035 67.414 -124.8529
31.814921 67.450 -125.2260
32.045465 67.490 -125.5974
32.277680 67.535 -125.9669
32.511577 67.583 -126.3344
32.747169 67.636 -126.6998
32.984469 67.692 -127.0635
33.223488 67.752 -127.4256
33.464239 67.815 -127.7867
33.706735 67.880 -128.1471
33.950987 67.948 -128.5072
34.197010 68.017 -128.8676
34.444816 68.087 -129.2287
34.694417 68.158 -129.5912
34.945827 68.230 -129.9555
35.199059 68.302 -130.3222
35.454126 68.373 -130.6910
35.711041 68.445 -131.0613
35.969818 68.515 -131.4314
36.230470 68.585 -131.7993
36.493011 68.654 -132.1623
36.757455 68.722 -132.5177
37.023814 68.788 -132.8637
37.292104 68.853 -133.1991
37.562338 68.917 -133.5238
37.834530 68.980 -133.8389
38.108695 69.041 -134.1462
38.384846 69.100 -134.4476
38.662999 69.157 -134.7450
38.943167 69.211 -135.0400
39.225365 69.263 -135.3337
39.509608 69.312 -135.6269
39.795911 69.359 -135.9200
40.084289 69.404 -136.2138
40.374756 69.447 -136.5088
40.667328 69.488 -136.8057
40.962020 69.528 -137.1052
41.258848 69.567 -137.4077
41.557827 69.605 -137.7136
41.858972 69.643 -138.0228
42.162299 69.679 -138.3353
42.467824 69.715 -138.6506
42.775564 69.751 -138.9682
43.085533 69.786 -139.2874
43.397749 69.820 -139.6070
43.712227 69.854 -139.9260
44.028983 69.887 -140.2430
44.348036 69.920 -140.5572
44.669400 69.951 -140.8679
44.993093 69.981 -141.1750
45.319131 70.008 -141.4789
45.647532 70.033 -141.7805
45.978313 70.055 -142.0815
46.311491 70.074 -142.3838
46.647083 70.091 -142.6895
46.985107 70.105 -143.0012
47.325581 70.117 -143.3210
47.668521 70.129 -143.6503
48.013947 70.141 -143.9894
48.361876 70.154 -144.3368
48.712326 70.170 -144.6901
49.065315 70.187 -145.0454
49.420863 70.207 -145.3987
49.778987 70.228 -145.7462
50.139706 70.251 -146.0847
50.503039 70.273 -146.4122
50.869005 70.295 -146.7279
51.237623 70.314 -147.0321
51.608912 70.329 -147.3260
51.982891 70.341 -147.6116
52.359580 70.349 -147.8911
52.739000 70.353 -148.1665
53.121168 70.353 -148.4391
53.506106 70.350 -148.7094
53.893833 70.345 -148.9765
54.284370 70.338 -149.2393
54.677737 70.331 -149.4957
55.073955 70.324 -149.7439
55.473043 70.318 -149.9816
55.875024 70.314 -150.2067
56.279917 70.312 -150.4173
56.687745 70.312 -150.6118
57.098527 70.316 -150.7896
57.512287 70.322 -150.9516
57.929045 70.331 -151.1019
58.348822 70.344 -151.2478
58.771642 70.359 -151.4004
59.197525 70.377 -151.5728
59.626495 70.398 -151.7775
60.058573 70.421 -152.0235
60.493782 70.447 -152.3138
60.932145 70.474 -152.6445
61.373685 70.502 -153.0065
61.818424 70.533 -153.3881
62.266386 70.566 -153.7774
62.717593 70.602 -154.1650
63.172071 70.639 -154.5443
63.629842 70.679 -154.9120
64.090930 70.721 -155.2672
64.555359 70.765 -155.6108
65.023154 70.811 -155.9446
65.494339 70.858 -156.2706
65.968938 70.905 -156.5907
66.446976 70.953 -156.9063
66.928478 71.000 -157.2190
67.413469 71.047 -157.5302
67.901975 71.093 -157.8414
68.394021 71.137 -158.1538
68.889632 71.180 -158.4689
69.388835 71.220 -158.7872
69.891655 71.259 -159.1093
70.398118 71.296 -159.4350
70.908252 71.330 -159.7644
71.422083 71.362 -160.0973
71.939636 71.392 -160.4336
72.460941 71.419 -160.7732
72.986023 71.443 -161.1162
73.514909 71.465 -161.4624
74.047629 71.484 -161.8116
74.584208 71.501 -162.1640
75.124676 71.514 -162.5194
75.669061 71.524 -162.8780
76.217390 71.532 -163.2397
76.769692 71.537 -163.6044
77.325997 71.540 -163.9718
77.886333 71.541 -164.3413
78.450730 71.541 -164.7122
79.019216 71.539 -165.0837
79.591822 71.535 -165.4552
80.168577 71.531 -165.8261
80.749512 71.524 -166.1960
81.334656 71.517 -166.5646
81.924040 71.507 -166.9315
82.517696 71.497 -167.2966
83.115653 71.484 -167.6592
83.717943 71.471 -168.0188
84.324598 71.456 -168.3747
84.935649 71.440 -168.7262
85.551128 71.423 -169.0723
86.171066 71.406 -169.4123
86.795497 71.387 -169.7458
87.424453 71.368 -170.0724
88.057967 71.349 -170.3920
88.696071 71.328 -170.7047
89.338800 71.308 -171.0106
89.986185 71.286 -171.3101
90.638262 71.264 -171.6037
91.295065 71.242 -171.8924
91.956626 71.220 -172.1771
92.622982 71.198 -172.4588
93.294166 71.176 -172.7382
93.970214 71.154 -173.0157
94.651161 71.133 -173.2911
95.337042 71.112 -173.5643
96.027894 71.092 -173.8349
96.723752 71.072 -174.1024
97.424652 71.053 -174.3666
98.130631 71.034 -174.6274
98.841726 71.016 -174.8849
99.557974 70.999 -175.1394
100.279412 70.982 -175.3912
101.006078 70.965 -175.6406
101.738010 70.949 -175.8878
102.475245 70.933 -176.1328
103.217823 70.917 -176.3754
103.965782 70.901 -176.6152
104.719161 70.885 -176.8523
105.477999 70.869 -177.0870
106.242336 70.855 -177.3198
107.012212 70.841 -177.5512
107.787666 70.829 -177.7815
108.568740 70.818 -178.0102
109.355474 70.808 -178.2367
110.147909 70.800 -178.4605
110.946086 70.793 -178.6808
111.750047 70.788 -178.8971
112.559834 70.784 -179.1092
113.375489 70.782 -179.3174
114.197055 70.780 -179.5222
115.024574 70.780 -179.7246
115.858089 70.780 -179.9255
116.697645 70.781 179.8741
117.543284 70.781 179.6732
118.395051 70.782 179.4714
119.252990 70.782 179.2683
120.117147 70.782 179.0640
120.987565 70.781 178.8586
121.864291 70.779 178.6520
122.747370 70.776 178.4443
123.636848 70.772 178.2353
124.532771 70.767 178.0247
125.435187 70.762 177.8123
126.344142 70.755 177.5975
127.259684 70.748 177.3797
128.181860 70.741 177.1579
129.110718 70.732 176.9311
130.046308 70.723 176.6981
130.988677 70.712 176.4579
131.937875 70.701 176.2104
132.893951 70.688 175.9558
133.856956 70.673 175.6953
134.826938 70.657 175.4304
135.803950 70.639 175.1635
136.788041 70.620 174.8969
137.779264 70.598 174.6324
138.777669 70.574 174.3711
139.783309 70.548 174.1132
140.796237 70.519 173.8587
141.816504 70.487 173.6075
142.844165 70.452 173.3595
143.879273 70.414 173.1156
144.921881 70.374 172.8769
145.972045 70.330 172.6453
147.029819 70.283 172.4230
148.095257 70.235 172.2130
149.168417 70.183 172.0176
150.249353 70.130 171.8394
151.338121 70.075 171.6796
152.434780 70.018 171.5392
153.539385 69.959 171.4184
154.651995 69.898 171.3175
155.772667 69.835 171.2368
156.901460 69.771 171.1769
158.038432 69.706 171.1388
159.183644 69.640 171.1238
160.337154 69.575 171.1332
161.499023 69.510 171.1681
162.669312 69.447 171.2285
163.848081 69.387 171.3139
165.035392 69.329 171.4228
166.231306 69.276 171.5533
167.435887 69.226 171.7031
168.649196 69.181 171.8696
169.871298 69.139 172.0500
171.102255 69.102 172.2414
172.342133 69.069 172.4406
173.590995 69.040 172.6444
174.848907 69.015 172.8501
176.115934 68.993 173.0551
177.392143 68.974 173.2575
178.677599 68.959 173.4554
179.972371 68.946 173.6473
181.276525 68.937 173.8318
182.590129 68.930 174.0076
183.913252 68.925 174.1736
185.245964 68.923 174.3285
186.588332 68.923 174.4708
187.940428 68.924 174.5987
189.302322 68.927 174.7104
190.674085 68.932 174.8046
192.055788 68.937 174.8808
193.447503 68.943 174.9400
194.849303 68.949 174.9842
196.261262 68.956 175.0161
197.683452 68.962 175.0380
199.115948 68.969 175.0515
200.558824 68.976 175.0574
202.012156 68.984 175.0560
203.476019 68.991 175.0465
204.950490 68.998 175.0277
206.435646 69.005 174.9980
207.931564 69.012 174.9563
209.438322 69.019 174.9026
210.955998 69.024 174.8384
212.484672 69.030 174.7656
214.024424 69.035 174.6866
215.575333 69.039 174.6034
217.137481 69.044 174.5173
218.710948 69.049 174.4290
220.295818 69.054 174.3392
221.892172 69.060 174.2482
223.500094 69.066 174.1560
225.119668 69.073 174.0626
226.750978 69.082 173.9678
228.394109 69.091 173.8718
230.049147 69.101 173.7747
231.716178 69.112 173.6769
233.395289 69.125 173.5789
235.086567 69.140 173.4810
236.790102 69.155 173.3831
238.505980 69.172 173.2846
240.234293 69.190 173.1846
241.975130 69.208 173.0817
243.728581 69.227 172.9747
245.494739 69.247 172.8620
247.273695 69.268 172.7426
249.065542 69.288 172.6152
250.870374 69.309 172.4791
252.688284 69.330 172.3333
254.519367 69.352 172.1768
256.363720 69.374 172.0091
258.221437 69.395 171.8301
260.092616 69.417 171.6403
261.977354 69.438 171.4408
263.875750 69.459 171.2329
265.787903 69.478 171.0179
267.713911 69.497 170.7966
269.653877 69.515 170.5696
271.607900 69.533 170.3369
273.576083 69.550 170.0979
275.558528 69.566 169.8511
277.555338 69.581 169.5945
279.566619 69.596 169.3260
281.592474 69.609 169.0433
283.633009 69.621 168.7446
285.688331 69.630 168.4292
287.758546 69.637 168.0973
289.843763 69.642 167.7505
291.944090 69.643 167.3913
294.059638 69.640 167.0234
296.190515 69.633 166.6508
298.336833 69.621 166.2778
300.498705 69.604 165.9093
302.676243 69.583 165.5496
304.869559 69.556 165.2034
307.078770 69.525 164.8748
309.303989 69.489 164.5679
311.545334 69.449 164.2869
313.802919 69.406 164.0356
316.076865 69.359 163.8179
318.367288 69.310 163.6371
320.674309 69.259 163.4966
322.998047 69.207 163.3984
325.338624 69.154 163.3441
327.696162 69.103 163.3338
330.070783 69.052 163.3664
332.462612 69.003 163.4396
334.871773 68.957 163.5501
337.298392 68.912 163.6941
339.742595 68.871 163.8672
342.204510 68.833 164.0653
344.684265 68.798 164.2841
347.181989 68.766 164.5192
349.697813 68.738 164.7665
352.231868 68.713 165.0218
354.784285 68.691 165.2806
357.355198 68.673 165.5391
359.944741 68.656 165.7937
362.553049 68.643 166.0418
365.180258 68.631 166.2818
367.826505 68.623 166.5130
370.491927 68.617 166.7352
373.176665 68.613 166.9483
375.880856 68.613 167.1523
378.604644 68.616 167.3470
381.348169 68.622 167.5320
384.111575 68.630 167.7063
386.895006 68.642 167.8691
389.698607 68.656 168.0192
392.522524 68.672 168.1557
395.366904 68.690 168.2776
398.231895 68.710 168.3840
401.117648 68.731 168.4743
404.024312 68.752 168.5477
406.952038 68.774 168.6038
409.900981 68.795 168.6425
412.871292 68.816 168.6635
415.863128 68.835 168.6667
418.876643 68.853 168.6515
421.911996 68.870 168.6173
424.969344 68.886 168.5632
428.048847 68.900 168.4880
431.150666 68.912 168.3908
434.274961 68.923 168.2703
437.421897 68.933 168.1254
440.591636 68.942 167.9549
443.784345 68.949 167.7577
447.000189 68.956 167.5329
450.239337 68.961 167.2800
453.501956 68.964 166.9987
456.788219 68.967 166.6886
460.098294 68.967 166.3492
463.432356 68.965 165.9796
466.790578 68.960 165.5792
470.173135 68.952 165.1474
473.580203 68.940 164.6843
477.011961 68.923 164.1909
480.468586 68.901 163.6694
483.950259 68.872 163.1236
487.457163 68.835 162.5588
490.989478 68.789 161.9821
494.547390 68.735 161.4023
498.131084 68.670 160.8301
501.740748 68.594 160.2773
505.376568 68.509 159.7560
509.038735 68.413 159.2786
512.727439 68.309 158.8564
516.442874 68.198 158.4995
520.185232 68.080 158.2158
523.954708 67.959 158.0109
527.751500 67.836 157.8881
531.575805 67.712 157.8483
535.427822 67.591 157.8912
539.307753 67.472 158.0150
543.215800 67.359 158.2170
547.152165 67.252 158.4937
551.117055 67.152 158.8412
555.110677 67.062 159.2549
559.133237 66.982 159.7292
563.184947 66.913 160.2577
567.266018 66.855 160.8327
571.376661 66.809 161.4449
575.517092 66.776 162.0845
579.687526 66.755 162.7410
583.888181 66.745 163.4044
588.119275 66.746 164.0655
592.381030 66.758 164.7158
596.673667 66.780 165.3485
600.997410 66.810 165.9583
605.352485 66.848 166.5417
609.739119 66.894 167.0966
614.157540 66.946 167.6212
618.607979 67.005 168.1136
623.090667 67.071 168.5707
627.605839 67.144 168.9879
632.153730 67.223 169.3582
636.734576 67.307 169.6736
641.348617 67.397 169.9246
645.996094 67.491 170.1019
650.677248 67.588 170.1968
655.392323 67.686 170.2023
660.141566 67.783 170.1136
664.925224 67.878 169.9284
669.743546 67.967 169.6474
674.596784 68.050 169.2743
679.485191 68.123 168.8160
684.409020 68.184 168.2820
689.368530 68.233 167.6839
694.363979 68.267 167.0347
699.395626 68.285 166.3487
704.463736 68.286 165.6412
709.568570 68.271 164.9279
714.710396 68.238 164.2251
719.889483 68.188 163.5491
725.106099 68.121 162.9153
730.360516 68.040 162.3379
735.653010 67.945 161.8293
740.983855 67.838 161.4002
746.353329 67.721 161.0605
751.761713 67.595 160.8191
757.209288 67.462 160.6848
762.696339 67.324 160.6652
768.223151 67.186 160.7660
773.790013 67.049 160.9885
779.397214 66.917 161.3285
785.045047 66.794 161.7755
790.733808 66.684 162.3129
796.463791 66.589 162.9188
802.235296 66.511 163.5679
808.048623 66.451 164.2341
813.904077 66.409 164.8932
819.801961 66.384 165.5250
825.742584 66.375 166.1137
831.726255 66.380 166.6469
837.753287 66.399 167.1142
843.823992 66.429 167.5062
849.938689 66.469 167.8143
856.097695 66.515 168.0319
862.301332 66.566 168.1552
868.549922 66.620 168.1844
874.843793 66.673 168.1233
881.183272 66.723 167.9790
887.568689 66.768 167.7619
894.000378 66.807 167.4839
900.478673 66.839 167.1580
907.003913 66.864 166.7964
913.576437 66.882 166.4101
920.196588 66.894 166.0076
926.864712 66.900 165.5944
933.581156 66.901 165.1737
940.346270 66.897 164.7472
947.160407 66.889 164.3164
954.023921 66.876 163.8843
960.937172 66.859 163.4554
967.900519 66.837 163.0360
974.914325 66.810 162.6333
981.978956 66.781 162.2542
989.094780 66.749 161.9041
996.262169 66.716 161.5854
1003.481495 66.684 161.2964
1010.753136 66.653 161.0316
1018.077470 66.624 160.7831
1025.454879 66.597 160.5427
1032.885748 66.571 160.3046
1040.370463 66.544 160.0667
1047.909417 66.516 159.8318
1055.503000 66.484 159.6063
1063.151610 66.449 159.3990
1070.855645 66.411 159.2198
1078.615506 66.369 159.0786
1086.431599 66.326 158.9836
1094.304330 66.281 158.9412
1102.234110 66.239 158.9535
1110.221353 66.199 159.0188
1118.266475 66.164 159.1308
1126.369895 66.136 159.2794
1134.532035 66.115 159.4517
1142.753322 66.100 159.6328
1151.034184 66.093 159.8079
1159.375052 66.091 159.9637
1167.776361 66.094 160.0904
1176.238550 66.098 160.1816
1184.762060 66.103 160.2345
1193.347334 66.107 160.2492
1201.994821 66.109 160.2289
1210.704971 66.106 160.1805
1219.478238 66.097 160.1133
1228.315080 66.083 160.0390
1237.215957 66.063 159.9696
1246.181334 66.036 159.9167
1255.211678 66.006 159.8906
1264.307459 65.971 159.8996
1273.469152 65.934 159.9500
1282.697235 65.895 160.0461
1291.992188 65.857 160.1897
1301.354495 65.821 160.3802
1310.784647 65.788 160.6136
1320.283132 65.759 160.8826
1329.850448 65.736 161.1767
1339.487093 65.720 161.4835
1349.193569 65.708 161.7899
1358.970381 65.702 162.0846
1368.818041 65.699 162.3597
1378.737061 65.697 162.6126
1388.727958 65.694 162.8456
1398.791253 65.690 163.0651
1408.927471 65.684 163.2792
1419.137140 65.674 163.4968
1429.420793 65.663 163.7263
1439.778965 65.649 163.9760
1450.212197 65.633 164.2546
1460.721033 65.617 164.5702
1471.306019 65.601 164.9305
1481.967709 65.587 165.3407
1492.706658 65.576 165.8025
1503.523426 65.570 166.3124
1514.418576 65.571 166.8615
1525.392678 65.578 167.4376
1536.446302 65.592 168.0277
1547.580025 65.610 168.6212
1558.794428 65.633 169.2104
1570.090095 65.658 169.7911
1581.467615 65.685 170.3616
1592.927581 65.712 170.9214
1604.470591 65.739 171.4703
1616.097246 65.765 172.0082
1627.808153 65.790 172.5351
1639.603922 65.812 173.0529
1651.485168 65.831 173.5650
1663.452510 65.848 174.0760
1675.506573 65.862 174.5898
1687.647984 65.874 175.1085
1699.877377 65.885 175.6320
1712.195390 65.895 176.1583
1724.602663 65.904 176.6845
1737.099845 65.913 177.2079
1749.687587 65.920 177.7280
1762.366544 65.926 178.2470
1775.137379 65.929 178.7706
1788.000756 65.930 179.3062
1800.957346 65.930 179.8615
1814.007826 65.929 -179.5575
1827.152874 65.927 -178.9470
1840.393177 65.927 -178.3055
1853.729425 65.930 -177.6335
1867.162312 65.937 -176.9347
1880.692540 65.950 -176.2158
1894.320813 65.969 -175.4876
1908.047843 65.995 -174.7652
1921.874344 66.030 -174.0672
1935.801038 66.071 -173.4140
1949.828650 66.119 -172.8249
1963.957912 66.170 -172.3173
1978.189561 66.221 -171.9042
1992.524338 66.269 -171.5918
2006.962991 66.309 -171.3763
2021.506272 66.336 -171.2420
2036.154940 66.348 -171.1613
2050.909758 66.341 -171.0975
2065.771495 66.317 -171.0090
2080.740927 66.275 -170.8552
2095.818833 66.222 -170.6028
2111.006001 66.162 -170.2314
2126.303220 66.101 -169.7366
2141.711290 66.046 -169.1315
2157.231013 66.003 -168.4429
2172.863198 65.974 -167.7082
2188.608660 65.962 -166.9683
2204.468221 65.965 -166.2616
2220.442706 65.981 -165.6179
2236.532950 66.005 -165.0535
2252.739789 66.034 -164.5700
2269.064070 66.062 -164.1553
2285.506644 66.089 -163.7881
2302.068367 66.111 -163.4429
2318.750104 66.130 -163.0954
2335.552723 66.147 -162.7272
2352.477101 66.166 -162.3286
2369.524119 66.188 -161.8992
2386.694668 66.216 -161.4463
2403.989641 66.253 -160.9822
2421.409941 66.298 -160.5201
2438.956476 66.351 -160.0717
2456.630160 66.413 -159.6451
2474.431915 66.482 -159.2447
2492.362668 66.557 -158.8715
2510.423356 66.637 -158.5233
2528.614918 66.724 -158.1969
2546.938304 66.815 -157.8891
2565.394469 66.913 -157.5983
2583.984375 67.018 -157.3249
2602.708991 67.129 -157.0716
2621.569293 67.247 -156.8421
2640.566265 67.372 -156.6414
2659.700897 67.504 -156.4759
2678.974186 67.643 -156.3554
2698.387137 67.786 -156.2921
2717.940763 67.932 -156.2977
2737.636082 68.079 -156.3797
2757.474121 68.222 -156.5381
2777.455915 68.358 -156.7645
2797.582506 68.486 -157.0432
2817.854942 68.603 -157.3540
2838.274281 68.710 -157.6746
2858.841586 68.808 -157.9848
2879.557931 68.899 -158.2705
2900.424394 68.984 -158.5258
2921.442065 69.067 -158.7523
2942.612039 69.148 -158.9559
2963.935418 69.227 -159.1432
2985.413316 69.304 -159.3205
3007.046852 69.379 -159.4930
3028.837153 69.451 -159.6648
3050.785356 69.519 -159.8394
3072.892604 69.582 -160.0199
3095.160050 69.639 -160.2085
3117.588856 69.689 -160.4054
3140.180190 69.730 -160.6086
3162.935230 69.762 -160.8143
3185.855163 69.783 -161.0192
3208.941182 69.794 -161.2214
3232.194493 69.793 -161.4188
3255.616307 69.778 -161.6074
3279.207844 69.747 -161.7778
3302.970336 69.697 -161.9125
3326.905021 69.629 -161.9844
3351.013146 69.541 -161.9600
3375.295969 69.436 -161.8050
3399.754755 69.317 -161.4900
3424.390779 69.191 -160.9962
3449.205326 69.064 -160.3190
3474.199690 68.943 -159.4703
3499.375173 68.833 -158.4742
3524.733088 68.738 -157.3601
3550.274757 68.661 -156.1545
3576.001511 68.603 -154.8753
3601.914692 68.565 -153.5295
3628.015651 68.549 -152.1176
3654.305748 68.557 -150.6436
3680.786354 68.596 -149.1252
3707.458849 68.668 -147.5968
3734.324624 68.777 -146.1056
3761.385080 68.922 -144.7029
3788.641627 69.101 -143.4355
3816.095686 69.310 -142.3390
3843.748688 69.543 -141.4346
3871.602076 69.793 -140.7299
3899.657300 70.055 -140.2227
3927.915825 70.324 -139.9052
3956.379122 70.595 -139.7663
3985.048676 70.862 -139.7894
4013.925981 71.120 -139.9488
4043.012544 71.368 -140.2068
4072.309879 71.603 -140.5155
4101.819515 71.828 -140.8231
4131.542990 72.048 -141.0843
4161.481854 72.272 -141.2733
4191.637667 72.506 -141.3953
4222.012001 72.758 -141.4899
4252.606441 73.028 -141.6248
4283.422580 73.314 -141.8793
4314.462026 73.608 -142.3244
4345.726396 73.899 -143.0068
4377.217321 74.175 -143.9424
4408.936442 74.428 -145.1195
4440.885413 74.650 -146.5057
4473.065899 74.834 -148.0561
4505.479579 74.980 -149.7179
4538.128141 75.085 -151.4366
4571.013288 75.153 -153.1619
4604.136735 75.188 -154.8524
4637.500207 75.195 -156.4775
4671.105446 75.178 -158.0152
4704.954201 75.142 -159.4516
4739.048239 75.093 -160.7798
4773.389336 75.035 -161.9996
4807.979283 74.973 -163.1181
4842.819883 74.909 -164.1477
4877.912952 74.847 -165.1045
4913.260320 74.788 -166.0047
4948.863830 74.731 -166.8615
4984.725337 74.675 -167.6831
5020.846712 74.620 -168.4727
5057.229836 74.565 -169.2288
5093.876609 74.509 -169.9454
5130.788938 74.451 -170.6126
5167.968750 74.393 -171.2184
5205.417982 74.334 -171.7504
5243.138586 74.279 -172.1985
5281.132530 74.229 -172.5570
5319.401793 74.187 -172.8246
5357.948371 74.158 -173.0046
5396.774274 74.143 -173.1042
5435.881525 74.147 -173.1340
5475.272163 74.170 -173.1085
5514.948243 74.217 -173.0472
5554.911831 74.287 -172.9756
5595.165012 74.380 -172.9242
5635.709884 74.497 -172.9259
5676.548561 74.632 -173.0116
5717.683172 74.784 -173.2070
5759.115861 74.946 -173.5315
5800.848789 75.115 -173.9986
5842.884130 75.284 -174.6170
5885.224077 75.449 -175.3900
5927.870837 75.604 -176.3141
5970.826633 75.744 -177.3788
6014.093704 75.866 -178.5671
6057.674306 75.966 -179.8572
6101.570711 76.042 178.7744
6145.785208 76.093 177.3512
6190.320101 76.118 175.8957
6235.177712 76.117 174.4298
6280.360380 76.089 172.9758
6325.870460 76.035 171.5560
6371.710325 75.955 170.1932
6417.882365 75.852 168.9091
6464.388986 75.727 167.7238
6511.232613 75.584 166.6538
6558.415689 75.425 165.7104
6605.940673 75.257 164.8984
6653.810042 75.082 164.2148
6702.026292 74.907 163.6486
6750.591937 74.735 163.1818
6799.509509 74.569 162.7904
6848.781558 74.413 162.4465
6898.410653 74.268 162.1208
6948.399380 74.136 161.7847
6998.750346 74.016 161.4111
7049.466176 73.909 160.9740
7100.549514 73.814 160.4475
7152.003023 73.731 159.8057
7203.829385 73.658 159.0222
7256.031302 73.594 158.0710
7308.611496 73.534 156.9270
7361.572708 73.476 155.5683
7414.917698 73.415 153.9767
7468.649249 73.346 152.1387
7522.770160 73.264 150.0454
7577.283253 73.163 147.6920
7632.191371 73.038 145.0773
7687.497376 72.884 142.2029
7743.204151 72.698 139.0716
7799.314600 72.476 135.6857
7855.831649 72.216 132.0439
7912.758244 71.919 128.1380
7970.097352 71.588 123.9461
8027.851962 71.226 119.4224
8086.025087 70.842 114.4771
8144.619758 70.447 108.9330
8203.639030 70.057 102.4160
8263.085980 69.688 94.0297
8322.963708 69.361 81.1426
8383.275334 69.097 53.6550
8444.024002 68.916 -8.8276
8505.212881 68.828 -50.4487
8566.845160 68.841 -67.0870
8628.924051 68.950 -76.4056
8691.452792 69.147 -82.9446
8754.434642 69.417 -88.1014
8817.872884 69.747 -92.4374
8881.770826 70.121 -96.2314
8946.131799 70.526 -99.6488
9010.959157 70.949 -102.8019
9076.256282 71.381 -105.7742
9142.026576 71.813 -108.6287
9208.273470 72.237 -111.4138
9275.000415 72.651 -114.1656
9342.210891 73.050 -116.9117
9409.908403 73.433 -119.6738
9478.096478 73.800 -122.4707
9546.778672 74.149 -125.3197
9615.958566 74.480 -128.2377
9685.639765 74.791 -131.2406
9755.825904 75.082 -134.3434
9826.520640 75.350 -137.5590
9897.727659 75.591 -140.8971
9969.450674 75.802 -144.3630
10041.693423 75.978 -147.9565
10114.459673 76.113 -151.6700
10187.753217 76.205 -155.4882
10261.577877 76.247 -159.3877
10335.937500 76.235 -163.3376
10410.835964 76.169 -167.3008
10486.277173 76.045 -171.2366
10562.265060 75.864 -175.1030
10638.803587 75.629 -178.8600
10715.896743 75.342 177.5286
10793.548548 75.007 174.0931
10871.763050 74.629 170.8567
10950.544327 74.215 167.8345
11029.896485 73.771 165.0336
11109.823662 73.303 162.4520
11190.330024 72.820 160.0786
11271.419768 72.328 157.8931
11353.097122 71.836 155.8657
11435.366344 71.352 153.9571
11518.231722 70.884 152.1191
11601.697577 70.439 150.2955
11685.768261 70.024 148.4236
11770.448155 69.645 146.4371
11855.741674 69.302 144.2684
11941.653265 68.997 141.8533
12028.187408 68.723 139.1337
12115.348612 68.473 136.0616
12203.141422 68.236 132.6017
12291.570415 67.997 128.7332
12380.640201 67.741 124.4498
12470.355424 67.453 119.7590
12560.720760 67.120 114.6758
12651.740920 66.731 109.2128
12743.420650 66.282 103.3632
12835.764729 65.773 97.0741
12928.777972 65.211 90.2042
13022.465227 64.608 82.4494
13116.831378 63.983 73.1877
13211.881345 63.359 61.1102
13307.620084 62.765 43.3253
13404.052584 62.228 14.4302
13501.183875 61.772 -25.0023
13599.019019 61.414 -57.1250
13697.563116 61.160 -77.0790
13796.821305 61.006 -90.3658
13896.798760 60.934 -100.4090
13997.500692 60.924 -108.7571
14098.932352 60.950 -116.1425
14201.099028 60.990 -122.9403
14304.006046 61.019 -129.3533
14407.658770 61.020 -135.4899
14512.062604 60.978 -141.4019
14617.222992 60.880 -147.1040
14723.145416 60.718 -152.5864
14829.835397 60.489 -157.8218
14937.298497 60.189 -162.7731
15045.540320 59.821 -167.3995
15154.566507 59.389 -171.6622
15264.382743 58.897 -175.5295
15374.994752 58.356 -178.9817
15486.408302 57.776 177.9854
15598.629201 57.167 175.3568
15711.663298 56.545 173.0984
15825.516487 55.924 171.1580
15940.194703 55.317 169.4675
16055.703925 54.740 167.9468
16172.050174 54.207 166.5068
16289.239516 53.729 165.0526
16407.278061 53.312 163.4888
16526.171961 52.960 161.7273
16645.927415 52.668 159.6987
16766.550667 52.428 157.3606
16888.048005 52.229 154.7007
17010.425762 52.063 151.7323
17133.690320 51.923 148.4847
17257.848103 51.812 144.9904
17382.905584 51.737 141.2710
17508.869284 51.710 137.3256
17635.745768 51.743 133.1216
17763.541652 51.844 128.5906
17892.263597 52.014 123.6350
18021.918315 52.245 118.1396
18152.512564 52.520 111.9865
18284.053153 52.819 105.0615
18416.546939 53.125 97.2563
18550.000830 53.421 88.4597
18684.421783 53.696 78.5588
18819.816805 53.941 67.4589
18956.192956 54.152 55.1522
19093.557344 54.327 41.8501
19231.917131 54.466 28.1235
19371.279531 54.572 14.9080
19511.651807 54.649 3.2584
19653.041280 54.701 -5.9777
19795.455318 54.733 -12.3043
19938.901348 54.748 -15.5028
