* Measurement data measured by REW V5.31.3
* Source: EXCL: Headset (USB-C to 3.5mm Headphone Jack Adapter), MICROPHONE (Master Volume), 0, volume: 0.750
* Format: 256k Log Swept Sine, 1 sweep at -12.0 dBFS with no timing reference
* Dated: May 28, 2025 2:29:53 PM
* REW Settings:
*  C-weighting compensation: Off
*  Target level: 75.0 dB
* Note: ; 
* Measurement: Arya Stealth L10
* Smoothing: 1/6 octave
* Frequency Step: 96 ppo
* Start Frequency: 20.0 Hz
*
* Freq(Hz) SPL(dB) Phase(degrees)
20.187378 80.211 -135.8490
20.333664 80.233 -135.9868
20.481010 80.264 -136.1702
20.629424 80.302 -136.3925
20.778913 80.346 -136.6462
20.929486 80.395 -136.9246
21.081150 80.449 -137.2213
21.233912 80.506 -137.5315
21.387782 80.565 -137.8511
21.542767 80.625 -138.1772
21.698874 80.685 -138.5080
21.856113 80.744 -138.8424
22.014492 80.802 -139.1798
22.174018 80.856 -139.5203
22.334700 80.907 -139.8643
22.496546 80.955 -140.2122
22.659566 80.997 -140.5648
22.823766 81.036 -140.9229
22.989157 81.069 -141.2872
23.155745 81.098 -141.6583
23.323542 81.123 -142.0369
23.492554 81.144 -142.4231
23.662790 81.162 -142.8171
23.834261 81.176 -143.2185
24.006973 81.187 -143.6267
24.180938 81.195 -144.0406
24.356163 81.202 -144.4588
24.532658 81.205 -144.8795
24.710431 81.207 -145.3002
24.889493 81.206 -145.7185
25.069853 81.202 -146.1313
25.251519 81.195 -146.5358
25.434502 81.185 -146.9291
25.618811 81.172 -147.3084
25.804456 81.155 -147.6720
25.991445 81.135 -148.0186
26.179790 81.112 -148.3483
26.369500 81.087 -148.6624
26.560584 81.060 -148.9634
26.753053 81.032 -149.2552
26.946917 81.003 -149.5423
27.142185 80.975 -149.8298
27.338869 80.947 -150.1225
27.536977 80.920 -150.4242
27.736522 80.894 -150.7376
27.937512 80.870 -151.0633
28.139959 80.847 -151.4001
28.343872 80.825 -151.7451
28.549264 80.805 -152.0941
28.756143 80.787 -152.4422
28.964522 80.771 -152.7846
29.174411 80.758 -153.1177
29.385821 80.748 -153.4391
29.598763 80.742 -153.7482
29.813248 80.740 -154.0462
30.029287 80.742 -154.3356
30.246891 80.749 -154.6197
30.466073 80.759 -154.9018
30.686842 80.772 -155.1844
30.909212 80.788 -155.4692
31.133193 80.806 -155.7563
31.358797 80.826 -156.0449
31.586035 80.848 -156.3331
31.814921 80.872 -156.6189
32.045465 80.898 -156.9005
32.277680 80.927 -157.1765
32.511577 80.959 -157.4466
32.747169 80.995 -157.7111
32.984469 81.033 -157.9709
33.223488 81.075 -158.2269
33.464239 81.119 -158.4801
33.706735 81.166 -158.7306
33.950987 81.214 -158.9780
34.197010 81.264 -159.2215
34.444816 81.314 -159.4597
34.694417 81.366 -159.6916
34.945827 81.418 -159.9161
35.199059 81.470 -160.1332
35.454126 81.523 -160.3433
35.711041 81.578 -160.5474
35.969818 81.632 -160.7464
36.230470 81.687 -160.9413
36.493011 81.741 -161.1323
36.757455 81.795 -161.3194
37.023814 81.848 -161.5018
37.292104 81.900 -161.6788
37.562338 81.950 -161.8500
37.834530 81.998 -162.0160
38.108695 82.045 -162.1783
38.384846 82.091 -162.3395
38.662999 82.135 -162.5026
38.943167 82.179 -162.6710
39.225365 82.221 -162.8475
39.509608 82.263 -163.0340
39.795911 82.304 -163.2311
40.084289 82.344 -163.4384
40.374756 82.384 -163.6540
40.667328 82.423 -163.8755
40.962020 82.461 -164.0998
41.258848 82.499 -164.3238
41.557827 82.536 -164.5446
41.858972 82.572 -164.7599
42.162299 82.607 -164.9683
42.467824 82.640 -165.1697
42.775564 82.673 -165.3655
43.085533 82.705 -165.5580
43.397749 82.735 -165.7504
43.712227 82.765 -165.9462
44.028983 82.794 -166.1482
44.348036 82.822 -166.3583
44.669400 82.849 -166.5775
44.993093 82.875 -166.8056
45.319131 82.900 -167.0417
45.647532 82.924 -167.2845
45.978313 82.946 -167.5324
46.311491 82.967 -167.7835
46.647083 82.987 -168.0359
46.985107 83.005 -168.2879
47.325581 83.021 -168.5379
47.668521 83.035 -168.7850
48.013947 83.048 -169.0295
48.361876 83.058 -169.2727
48.712326 83.067 -169.5167
49.065315 83.074 -169.7642
49.420863 83.079 -170.0170
49.778987 83.083 -170.2761
50.139706 83.085 -170.5409
50.503039 83.086 -170.8098
50.869005 83.086 -171.0803
51.237623 83.086 -171.3498
51.608912 83.086 -171.6160
51.982891 83.087 -171.8770
52.359580 83.087 -172.1316
52.739000 83.087 -172.3790
53.121168 83.087 -172.6192
53.506106 83.085 -172.8527
53.893833 83.082 -173.0812
54.284370 83.078 -173.3072
54.677737 83.072 -173.5342
55.073955 83.065 -173.7662
55.473043 83.058 -174.0079
55.875024 83.051 -174.2637
56.279917 83.045 -174.5373
56.687745 83.040 -174.8313
57.098527 83.036 -175.1461
57.512287 83.035 -175.4796
57.929045 83.036 -175.8271
58.348822 83.039 -176.1803
58.771642 83.045 -176.5287
59.197525 83.053 -176.8602
59.626495 83.064 -177.1634
60.058573 83.077 -177.4305
60.493782 83.092 -177.6593
60.932145 83.110 -177.8535
61.373685 83.131 -178.0218
61.818424 83.154 -178.1753
62.266386 83.180 -178.3246
62.717593 83.207 -178.4782
63.172071 83.236 -178.6414
63.629842 83.267 -178.8170
64.090930 83.299 -179.0058
64.555359 83.331 -179.2076
65.023154 83.365 -179.4211
65.494339 83.398 -179.6450
65.968938 83.431 -179.8776
66.446976 83.464 179.8832
66.928478 83.495 179.6396
67.413469 83.525 179.3942
67.901975 83.554 179.1492
68.394021 83.580 178.9068
68.889632 83.606 178.6681
69.388835 83.630 178.4333
69.891655 83.652 178.2021
70.398118 83.672 177.9728
70.908252 83.691 177.7439
71.422083 83.709 177.5134
71.939636 83.724 177.2797
72.460941 83.737 177.0419
72.986023 83.749 176.7996
73.514909 83.758 176.5532
74.047629 83.765 176.3035
74.584208 83.769 176.0517
75.124676 83.770 175.7988
75.669061 83.769 175.5459
76.217390 83.766 175.2935
76.769692 83.760 175.0421
77.325997 83.753 174.7916
77.886333 83.744 174.5416
78.450730 83.734 174.2918
79.019216 83.723 174.0419
79.591822 83.711 173.7913
80.168577 83.699 173.5396
80.749512 83.685 173.2866
81.334656 83.671 173.0321
81.924040 83.656 172.7763
82.517696 83.639 172.5197
83.115653 83.623 172.2626
83.717943 83.605 172.0057
84.324598 83.588 171.7492
84.935649 83.570 171.4935
85.551128 83.552 171.2389
86.171066 83.533 170.9857
86.795497 83.515 170.7341
87.424453 83.496 170.4843
88.057967 83.477 170.2368
88.696071 83.458 169.9915
89.338800 83.439 169.7485
89.986185 83.419 169.5079
90.638262 83.400 169.2693
91.295065 83.380 169.0329
91.956626 83.360 168.7984
92.622982 83.340 168.5659
93.294166 83.320 168.3353
93.970214 83.299 168.1069
94.651161 83.279 167.8809
95.337042 83.258 167.6575
96.027894 83.236 167.4373
96.723752 83.214 167.2205
97.424652 83.192 167.0072
98.130631 83.170 166.7972
98.841726 83.147 166.5902
99.557974 83.126 166.3858
100.279412 83.104 166.1839
101.006078 83.084 165.9847
101.738010 83.064 165.7887
102.475245 83.046 165.5963
103.217823 83.028 165.4078
103.965782 83.013 165.2233
104.719161 82.998 165.0423
105.477999 82.985 164.8633
106.242336 82.974 164.6847
107.012212 82.964 164.5042
107.787666 82.955 164.3206
108.568740 82.948 164.1332
109.355474 82.942 163.9424
110.147909 82.937 163.7495
110.946086 82.933 163.5560
111.750047 82.930 163.3636
112.559834 82.927 163.1738
113.375489 82.924 162.9878
114.197055 82.922 162.8062
115.024574 82.921 162.6290
115.858089 82.921 162.4564
116.697645 82.921 162.2880
117.543284 82.921 162.1238
118.395051 82.922 161.9637
119.252990 82.924 161.8077
120.117147 82.925 161.6556
120.987565 82.928 161.5063
121.864291 82.930 161.3587
122.747370 82.932 161.2109
123.636848 82.934 161.0612
124.532771 82.936 160.9084
125.435187 82.937 160.7513
126.344142 82.938 160.5894
127.259684 82.938 160.4222
128.181860 82.937 160.2494
129.110718 82.935 160.0705
130.046308 82.932 159.8852
130.988677 82.928 159.6935
131.937875 82.922 159.4957
132.893951 82.916 159.2925
133.856956 82.908 159.0848
134.826938 82.899 158.8737
135.803950 82.888 158.6602
136.788041 82.876 158.4453
137.779264 82.862 158.2296
138.777669 82.846 158.0130
139.783309 82.829 157.7951
140.796237 82.810 157.5750
141.816504 82.790 157.3518
142.844165 82.768 157.1252
143.879273 82.745 156.8951
144.921881 82.719 156.6620
145.972045 82.692 156.4266
147.029819 82.663 156.1901
148.095257 82.632 155.9533
149.168417 82.599 155.7174
150.249353 82.564 155.4834
151.338121 82.527 155.2519
152.434780 82.489 155.0234
153.539385 82.449 154.7982
154.651995 82.408 154.5762
155.772667 82.366 154.3575
156.901460 82.322 154.1425
158.038432 82.277 153.9315
159.183644 82.230 153.7255
160.337154 82.183 153.5256
161.499023 82.134 153.3335
162.669312 82.084 153.1511
163.848081 82.033 152.9807
165.035392 81.982 152.8246
166.231306 81.929 152.6852
167.435887 81.877 152.5646
168.649196 81.823 152.4651
169.871298 81.770 152.3886
171.102255 81.716 152.3367
172.342133 81.662 152.3106
173.590995 81.609 152.3104
174.848907 81.556 152.3356
176.115934 81.503 152.3848
177.392143 81.453 152.4559
178.677599 81.403 152.5467
179.972371 81.356 152.6547
181.276525 81.312 152.7777
182.590129 81.270 152.9138
183.913252 81.230 153.0610
185.245964 81.194 153.2175
186.588332 81.162 153.3818
187.940428 81.133 153.5517
189.302322 81.108 153.7253
190.674085 81.087 153.9005
192.055788 81.071 154.0749
193.447503 81.058 154.2462
194.849303 81.049 154.4116
196.261262 81.043 154.5688
197.683452 81.041 154.7155
199.115948 81.040 154.8500
200.558824 81.041 154.9712
202.012156 81.044 155.0783
203.476019 81.047 155.1712
204.950490 81.052 155.2501
206.435646 81.058 155.3155
207.931564 81.065 155.3680
209.438322 81.073 155.4084
210.955998 81.081 155.4371
212.484672 81.091 155.4545
214.024424 81.102 155.4608
215.575333 81.113 155.4556
217.137481 81.125 155.4391
218.710948 81.138 155.4111
220.295818 81.152 155.3715
221.892172 81.167 155.3199
223.500094 81.183 155.2562
225.119668 81.199 155.1800
226.750978 81.217 155.0914
228.394109 81.235 154.9904
230.049147 81.254 154.8777
231.716178 81.274 154.7538
233.395289 81.295 154.6198
235.086567 81.316 154.4769
236.790102 81.338 154.3262
238.505980 81.360 154.1683
240.234293 81.383 154.0037
241.975130 81.405 153.8326
243.728581 81.427 153.6555
245.494739 81.449 153.4732
247.273695 81.470 153.2866
249.065542 81.490 153.0970
250.870374 81.509 152.9059
252.688284 81.526 152.7146
254.519367 81.543 152.5244
256.363720 81.560 152.3366
258.221437 81.575 152.1526
260.092616 81.590 151.9734
261.977354 81.604 151.8000
263.875750 81.619 151.6324
265.787903 81.633 151.4705
267.713911 81.648 151.3136
269.653877 81.663 151.1610
271.607900 81.679 151.0114
273.576083 81.695 150.8633
275.558528 81.712 150.7149
277.555338 81.730 150.5641
279.566619 81.749 150.4089
281.592474 81.769 150.2473
283.633009 81.791 150.0775
285.688331 81.814 149.8973
287.758546 81.838 149.7049
289.843763 81.863 149.4985
291.944090 81.890 149.2764
294.059638 81.917 149.0376
296.190515 81.945 148.7816
298.336833 81.973 148.5082
300.498705 82.002 148.2177
302.676243 82.030 147.9099
304.869559 82.057 147.5849
307.078770 82.083 147.2427
309.303989 82.108 146.8834
311.545334 82.130 146.5067
313.802919 82.150 146.1129
316.076865 82.166 145.7023
318.367288 82.179 145.2760
320.674309 82.188 144.8355
322.998047 82.191 144.3831
325.338624 82.190 143.9219
327.696162 82.182 143.4556
330.070783 82.168 142.9888
332.462612 82.148 142.5265
334.871773 82.121 142.0742
337.298392 82.087 141.6381
339.742595 82.046 141.2243
342.204510 81.999 140.8394
344.684265 81.946 140.4897
347.181989 81.888 140.1809
349.697813 81.825 139.9180
352.231868 81.758 139.7048
354.784285 81.688 139.5444
357.355198 81.616 139.4384
359.944741 81.543 139.3871
362.553049 81.470 139.3898
365.180258 81.399 139.4437
367.826505 81.332 139.5453
370.491927 81.268 139.6893
373.176665 81.210 139.8698
375.880856 81.157 140.0803
378.604644 81.111 140.3139
381.348169 81.072 140.5638
384.111575 81.040 140.8232
386.895006 81.015 141.0861
389.698607 80.997 141.3467
392.522524 80.984 141.6000
395.366904 80.977 141.8413
398.231895 80.975 142.0670
401.117648 80.977 142.2742
404.024312 80.982 142.4608
406.952038 80.989 142.6259
409.900981 80.998 142.7691
412.871292 81.009 142.8905
415.863128 81.020 142.9907
418.876643 81.031 143.0708
421.911996 81.042 143.1324
424.969344 81.053 143.1780
428.048847 81.062 143.2104
431.150666 81.071 143.2326
434.274961 81.078 143.2470
437.421897 81.085 143.2552
440.591636 81.092 143.2577
443.784345 81.099 143.2531
447.000189 81.108 143.2389
450.239337 81.118 143.2116
453.501956 81.131 143.1670
456.788219 81.145 143.1007
460.098294 81.163 143.0082
463.432356 81.183 142.8853
466.790578 81.205 142.7282
470.173135 81.229 142.5341
473.580203 81.254 142.3010
477.011961 81.280 142.0279
480.468586 81.306 141.7146
483.950259 81.332 141.3617
487.457163 81.356 140.9702
490.989478 81.380 140.5411
494.547390 81.401 140.0759
498.131084 81.419 139.5759
501.740748 81.435 139.0424
505.376568 81.447 138.4767
509.038735 81.456 137.8800
512.727439 81.460 137.2535
516.442874 81.460 136.5988
520.185232 81.455 135.9174
523.954708 81.444 135.2116
527.751500 81.426 134.4850
531.575805 81.400 133.7421
535.427822 81.365 132.9897
539.307753 81.320 132.2363
543.215800 81.264 131.4929
547.152165 81.196 130.7723
551.117055 81.117 130.0892
555.110677 81.026 129.4598
559.133237 80.924 128.9009
563.184947 80.813 128.4291
567.266018 80.694 128.0590
571.376661 80.571 127.8022
575.517092 80.445 127.6663
579.687526 80.320 127.6535
583.888181 80.199 127.7610
588.119275 80.085 127.9811
592.381030 79.980 128.3023
596.673667 79.886 128.7102
600.997410 79.804 129.1893
605.352485 79.734 129.7238
609.739119 79.678 130.2979
614.157540 79.635 130.8971
618.607979 79.605 131.5081
623.090667 79.587 132.1189
627.605839 79.581 132.7194
632.153730 79.586 133.3007
636.734576 79.600 133.8553
641.348617 79.624 134.3770
645.996094 79.655 134.8609
650.677248 79.693 135.3033
655.392323 79.738 135.7020
660.141566 79.787 136.0561
664.925224 79.841 136.3659
669.743546 79.900 136.6316
674.596784 79.962 136.8532
679.485191 80.027 137.0298
684.409020 80.095 137.1602
689.368530 80.166 137.2423
694.363979 80.239 137.2740
699.395626 80.314 137.2524
704.463736 80.390 137.1738
709.568570 80.467 137.0340
714.710396 80.543 136.8283
719.889483 80.619 136.5521
725.106099 80.692 136.2010
730.360516 80.762 135.7716
735.653010 80.826 135.2622
740.983855 80.883 134.6736
746.353329 80.930 134.0095
751.761713 80.966 133.2773
757.209288 80.989 132.4873
762.696339 80.997 131.6520
768.223151 80.989 130.7855
773.790013 80.964 129.9020
779.397214 80.922 129.0166
785.045047 80.863 128.1446
790.733808 80.787 127.3028
796.463791 80.693 126.5098
802.235296 80.582 125.7862
808.048623 80.456 125.1537
813.904077 80.317 124.6330
819.801961 80.167 124.2414
825.742584 80.012 123.9904
831.726255 79.855 123.8834
837.753287 79.702 123.9156
843.823992 79.557 124.0747
849.938689 79.424 124.3429
856.097695 79.305 124.6989
862.301332 79.203 125.1200
868.549922 79.119 125.5831
874.843793 79.054 126.0664
881.183272 79.006 126.5508
887.568689 78.975 127.0202
894.000378 78.961 127.4623
900.478673 78.961 127.8676
907.003913 78.975 128.2283
913.576437 79.002 128.5375
920.196588 79.041 128.7885
926.864712 79.090 128.9742
933.581156 79.149 129.0872
940.346270 79.217 129.1201
947.160407 79.291 129.0660
954.023921 79.369 128.9194
960.937172 79.449 128.6769
967.900519 79.529 128.3381
974.914325 79.605 127.9061
981.978956 79.675 127.3879
989.094780 79.737 126.7946
996.262169 79.789 126.1406
1003.481495 79.829 125.4427
1010.753136 79.856 124.7190
1018.077470 79.872 123.9871
1025.454879 79.876 123.2632
1032.885748 79.869 122.5606
1040.370463 79.855 121.8897
1047.909417 79.833 121.2574
1055.503000 79.805 120.6674
1063.151610 79.774 120.1213
1070.855645 79.740 119.6184
1078.615506 79.703 119.1571
1086.431599 79.666 118.7348
1094.304330 79.627 118.3483
1102.234110 79.588 117.9941
1110.221353 79.547 117.6694
1118.266475 79.505 117.3727
1126.369895 79.462 117.1047
1134.532035 79.416 116.8687
1142.753322 79.368 116.6706
1151.034184 79.317 116.5188
1159.375052 79.265 116.4221
1167.776361 79.213 116.3889
1176.238550 79.163 116.4243
1184.762060 79.117 116.5287
1193.347334 79.080 116.6956
1201.994821 79.052 116.9113
1210.704971 79.037 117.1548
1219.478238 79.034 117.4003
1228.315080 79.044 117.6208
1237.215957 79.063 117.7931
1246.181334 79.089 117.9013
1255.211678 79.119 117.9384
1264.307459 79.149 117.9059
1273.469152 79.176 117.8109
1282.697235 79.199 117.6644
1291.992188 79.216 117.4781
1301.354495 79.226 117.2638
1310.784647 79.228 117.0333
1320.283132 79.222 116.7981
1329.850448 79.208 116.5697
1339.487093 79.187 116.3594
1349.193569 79.158 116.1773
1358.970381 79.124 116.0326
1368.818041 79.084 115.9331
1378.737061 79.041 115.8855
1388.727958 78.996 115.8948
1398.791253 78.951 115.9644
1408.927471 78.908 116.0959
1419.137140 78.868 116.2892
1429.420793 78.833 116.5425
1439.778965 78.805 116.8522
1450.212197 78.786 117.2131
1460.721033 78.778 117.6176
1471.306019 78.780 118.0545
1481.967709 78.795 118.5094
1492.706658 78.821 118.9643
1503.523426 78.860 119.3986
1514.418576 78.908 119.7914
1525.392678 78.963 120.1235
1536.446302 79.021 120.3798
1547.580025 79.077 120.5529
1558.794428 79.128 120.6446
1570.090095 79.167 120.6671
1581.467615 79.192 120.6432
1592.927581 79.200 120.6037
1604.470591 79.189 120.5851
1616.097246 79.162 120.6244
1627.808153 79.119 120.7549
1639.603922 79.067 121.0020
1651.485168 79.009 121.3805
1663.452510 78.951 121.8931
1675.506573 78.898 122.5305
1687.647984 78.856 123.2727
1699.877377 78.827 124.0919
1712.195390 78.814 124.9541
1724.602663 78.817 125.8228
1737.099845 78.837 126.6620
1749.687587 78.870 127.4395
1762.366544 78.914 128.1305
1775.137379 78.964 128.7184
1788.000756 79.015 129.1965
1800.957346 79.062 129.5687
1814.007826 79.101 129.8496
1827.152874 79.128 130.0644
1840.393177 79.139 130.2461
1853.729425 79.134 130.4328
1867.162312 79.113 130.6627
1880.692540 79.079 130.9702
1894.320813 79.036 131.3823
1908.047843 78.988 131.9155
1921.874344 78.940 132.5743
1935.801038 78.899 133.3501
1949.828650 78.868 134.2225
1963.957912 78.851 135.1617
1978.189561 78.850 136.1317
1992.524338 78.867 137.0950
2006.962991 78.899 138.0157
2021.506272 78.946 138.8638
2036.154940 79.003 139.6175
2050.909758 79.067 140.2644
2065.771495 79.135 140.8007
2080.740927 79.202 141.2304
2095.818833 79.266 141.5641
2111.006001 79.323 141.8185
2126.303220 79.371 142.0154
2141.711290 79.409 142.1803
2157.231013 79.438 142.3401
2172.863198 79.459 142.5198
2188.608660 79.474 142.7385
2204.468221 79.487 143.0070
2220.442706 79.501 143.3273
2236.532950 79.520 143.6935
2252.739789 79.546 144.0928
2269.064070 79.581 144.5082
2285.506644 79.626 144.9210
2302.068367 79.681 145.3137
2318.750104 79.743 145.6737
2335.552723 79.813 145.9938
2352.477101 79.888 146.2732
2369.524119 79.968 146.5154
2386.694668 80.052 146.7262
2403.989641 80.140 146.9100
2421.409941 80.232 147.0688
2438.956476 80.331 147.2003
2456.630160 80.434 147.2994
2474.431915 80.544 147.3587
2492.362668 80.658 147.3716
2510.423356 80.775 147.3342
2528.614918 80.895 147.2463
2546.938304 81.016 147.1104
2565.394469 81.137 146.9305
2583.984375 81.257 146.7111
2602.708991 81.376 146.4576
2621.569293 81.493 146.1763
2640.566265 81.607 145.8756
2659.700897 81.720 145.5652
2678.974186 81.830 145.2554
2698.387137 81.941 144.9548
2717.940763 82.053 144.6684
2737.636082 82.168 144.3950
2757.474121 82.289 144.1262
2777.455915 82.415 143.8476
2797.582506 82.546 143.5414
2817.854942 82.680 143.1904
2838.274281 82.815 142.7820
2858.841586 82.947 142.3103
2879.557931 83.073 141.7776
2900.424394 83.190 141.1931
2921.442065 83.297 140.5703
2942.612039 83.392 139.9237
2963.935418 83.475 139.2672
2985.413316 83.546 138.6122
3007.046852 83.606 137.9684
3028.837153 83.655 137.3431
3050.785356 83.692 136.7420
3072.892604 83.718 136.1703
3095.160050 83.734 135.6331
3117.588856 83.739 135.1356
3140.180190 83.733 134.6826
3162.935230 83.717 134.2783
3185.855163 83.691 133.9265
3208.941182 83.656 133.6299
3232.194493 83.614 133.3894
3255.616307 83.564 133.2039
3279.207844 83.508 133.0703
3302.970336 83.447 132.9838
3326.905021 83.381 132.9385
3351.013146 83.310 132.9297
3375.295969 83.232 132.9556
3399.754755 83.149 133.0184
3424.390779 83.059 133.1247
3449.205326 82.962 133.2835
3474.199690 82.860 133.5040
3499.375173 82.755 133.7919
3524.733088 82.648 134.1475
3550.274757 82.541 134.5667
3576.001511 82.435 135.0456
3601.914692 82.331 135.5844
3628.015651 82.229 136.1904
3654.305748 82.131 136.8763
3680.786354 82.039 137.6550
3707.458849 81.956 138.5345
3734.324624 81.886 139.5152
3761.385080 81.833 140.5899
3788.641627 81.802 141.7449
3816.095686 81.793 142.9622
3843.748688 81.810 144.2220
3871.602076 81.852 145.5054
3899.657300 81.921 146.7963
3927.915825 82.015 148.0829
3956.379122 82.134 149.3563
3985.048676 82.279 150.6082
4013.925981 82.447 151.8308
4043.012544 82.638 153.0192
4072.309879 82.851 154.1738
4101.819515 83.085 155.3002
4131.542990 83.340 156.4036
4161.481854 83.617 157.4820
4191.637667 83.916 158.5185
4222.012001 84.239 159.4776
4252.606441 84.581 160.3077
4283.422580 84.940 160.9528
4314.462026 85.308 161.3689
4345.726396 85.678 161.5358
4377.217321 86.043 161.4594
4408.936442 86.401 161.1651
4440.885413 86.750 160.6876
4473.065899 87.090 160.0601
4505.479579 87.425 159.3052
4538.128141 87.757 158.4294
4571.013288 88.087 157.4222
4604.136735 88.415 156.2607
4637.500207 88.736 154.9163
4671.105446 89.044 153.3626
4704.954201 89.332 151.5798
4739.048239 89.591 149.5608
4773.389336 89.811 147.3163
4807.979283 89.983 144.8781
4842.819883 90.103 142.2956
4877.912952 90.167 139.6292
4913.260320 90.176 136.9415
4948.863830 90.133 134.2896
4984.725337 90.042 131.7216
5020.846712 89.909 129.2769
5057.229836 89.737 126.9886
5093.876609 89.531 124.8856
5130.788938 89.298 122.9924
5167.968750 89.041 121.3297
5205.417982 88.767 119.9131
5243.138586 88.481 118.7538
5281.132530 88.188 117.8589
5319.401793 87.896 117.2318
5357.948371 87.609 116.8730
5396.774274 87.334 116.7801
5435.881525 87.076 116.9459
5475.272163 86.843 117.3565
5514.948243 86.640 117.9890
5554.911831 86.473 118.8094
5595.165012 86.347 119.7734
5635.709884 86.263 120.8276
5676.548561 86.223 121.9142
5717.683172 86.224 122.9752
5759.115861 86.263 123.9576
5800.848789 86.333 124.8164
5842.884130 86.427 125.5187
5885.224077 86.537 126.0436
5927.870837 86.656 126.3828
5970.826633 86.777 126.5374
6014.093704 86.894 126.5166
6057.674306 86.999 126.3363
6101.570711 87.089 126.0187
6145.785208 87.159 125.5920
6190.320101 87.206 125.0896
6235.177712 87.228 124.5475
6280.360380 87.225 124.0023
6325.870460 87.197 123.4894
6371.710325 87.148 123.0404
6417.882365 87.080 122.6816
6464.388986 86.997 122.4331
6511.232613 86.904 122.3075
6558.415689 86.805 122.3085
6605.940673 86.707 122.4315
6653.810042 86.613 122.6634
6702.026292 86.529 122.9842
6750.591937 86.459 123.3670
6799.509509 86.406 123.7803
6848.781558 86.373 124.1890
6898.410653 86.361 124.5555
6948.399380 86.373 124.8405
6998.750346 86.407 125.0030
7049.466176 86.463 125.0014
7100.549514 86.540 124.7951
7152.003023 86.633 124.3464
7203.829385 86.737 123.6222
7256.031302 86.848 122.5956
7308.611496 86.960 121.2462
7361.572708 87.065 119.5601
7414.917698 87.158 117.5292
7468.649249 87.234 115.1496
7522.770160 87.286 112.4197
7577.283253 87.312 109.3380
7632.191371 87.308 105.9011
7687.497376 87.271 102.1008
7743.204151 87.202 97.9206
7799.314600 87.099 93.3321
7855.831649 86.965 88.2895
7912.758244 86.803 82.7227
7970.097352 86.616 76.5273
8027.851962 86.409 69.5496
8086.025087 86.190 61.5659
8144.619758 85.964 52.2580
8203.639030 85.743 41.1981
8263.085980 85.535 27.8970
8322.963708 85.351 12.0425
8383.275334 85.200 -5.9781
8444.024002 85.092 -24.6725
8505.212881 85.031 -42.0707
8566.845160 85.022 -56.9598
8628.924051 85.064 -69.1964
8691.452792 85.156 -79.1855
8754.434642 85.294 -87.4263
8817.872884 85.475 -94.3375
8881.770826 85.694 -100.2357
8946.131799 85.947 -105.3568
9010.959157 86.229 -109.8801
9076.256282 86.534 -113.9480
9142.026576 86.856 -117.6779
9208.273470 87.189 -121.1685
9275.000415 87.526 -124.5040
9342.210891 87.859 -127.7547
9409.908403 88.180 -130.9771
9478.096478 88.482 -134.2141
9546.778672 88.756 -137.4952
9615.958566 88.995 -140.8365
9685.639765 89.192 -144.2408
9755.825904 89.342 -147.6985
9826.520640 89.440 -151.1890
9897.727659 89.482 -154.6826
9969.450674 89.465 -158.1423
10041.693423 89.390 -161.5272
10114.459673 89.255 -164.7938
10187.753217 89.064 -167.8995
10261.577877 88.820 -170.8032
10335.937500 88.526 -173.4678
10410.835964 88.187 -175.8615
10486.277173 87.810 -177.9597
10562.265060 87.401 -179.7471
10638.803587 86.969 178.7805
10715.896743 86.520 177.6143
10793.548548 86.063 176.7319
10871.763050 85.606 176.0981
10950.544327 85.154 175.6683
11029.896485 84.711 175.3945
11109.823662 84.278 175.2314
11190.330024 83.857 175.1433
11271.419768 83.442 175.1082
11353.097122 83.033 175.1179
11435.366344 82.624 175.1765
11518.231722 82.214 175.2947
11601.697577 81.800 175.4868
11685.768261 81.381 175.7657
11770.448155 80.959 176.1410
11855.741674 80.533 176.6158
11941.653265 80.108 177.1855
12028.187408 79.685 177.8354
12115.348612 79.269 178.5389
12203.141422 78.863 179.2581
12291.570415 78.471 179.9442
12380.640201 78.093 -179.4581
12470.355424 77.729 -179.0046
12560.720760 77.377 -178.7424
12651.740920 77.028 -178.6982
12743.420650 76.673 -178.8689
12835.764729 76.304 -179.2126
12928.777972 75.911 -179.6450
13022.465227 75.488 179.9655
13116.831378 75.032 179.8098
13211.881345 74.548 -179.8343
13307.620084 74.045 -178.5507
13404.052584 73.540 -175.7017
13501.183875 73.055 -170.3348
13599.019019 72.620 -161.2626
13697.563116 72.263 -147.9387
13796.821305 72.003 -132.3839
13896.798760 71.847 -118.7977
13997.500692 71.782 -109.5426
14098.932352 71.784 -104.2421
14201.099028 71.820 -101.6971
14304.006046 71.857 -100.8992
14407.658770 71.869 -101.1553
14512.062604 71.835 -101.9960
14617.222992 71.741 -103.0853
14723.145416 71.582 -104.1652
14829.835397 71.357 -105.0259
14937.298497 71.075 -105.4940
15045.540320 70.749 -105.4324
15154.566507 70.400 -104.7494
15264.382743 70.051 -103.4139
15374.994752 69.732 -101.4742
15486.408302 69.471 -99.0695
15598.629201 69.293 -96.4191
15711.663298 69.216 -93.7859
15825.516487 69.246 -91.4224
15940.194703 69.377 -89.5240
16055.703925 69.596 -88.2097
16172.050174 69.885 -87.5314
16289.239516 70.226 -87.4973
16407.278061 70.600 -88.0970
16526.171961 70.992 -89.3167
16645.927415 71.385 -91.1432
16766.550667 71.763 -93.5641
16888.048005 72.114 -96.5611
17010.425762 72.425 -100.1057
17133.690320 72.686 -104.1562
17257.848103 72.892 -108.6594
17382.905584 73.045 -113.5566
17508.869284 73.149 -118.7942
17635.745768 73.215 -124.3342
17763.541652 73.254 -130.1625
17892.263597 73.279 -136.2916
18021.918315 73.298 -142.7571
18152.512564 73.316 -149.6112
18284.053153 73.333 -156.9153
18416.546939 73.344 -164.7359
18550.000830 73.343 -173.1446
18684.421783 73.326 177.7831
18819.816805 73.286 167.9750
18956.192956 73.221 157.3878
19093.557344 73.130 146.0688
19231.917131 73.015 134.2543
19371.279531 72.882 122.4695
19511.651807 72.744 111.5321
19653.041280 72.617 102.3862
19795.455318 72.518 95.8500
19938.901348 72.463 92.4595
