* Measurement data measured by REW V5.31.3
* Source: EXCL: Headset (USB-C to 3.5mm Headphone Jack Adapter), MICROPHONE (Master Volume), 0, volume: 0.750
* Format: 256k Log Swept Sine, 1 sweep at -12.0 dBFS with no timing reference
* Dated: May 28, 2025 2:28:45 PM
* REW Settings:
*  C-weighting compensation: Off
*  Target level: 75.0 dB
* Note: ; 
* Measurement: Arya Stealth L6
* Smoothing: 1/6 octave
* Frequency Step: 96 ppo
* Start Frequency: 20.0 Hz
*
* Freq(Hz) SPL(dB) Phase(degrees)
20.187378 80.153 -144.5056
20.333664 80.163 -144.5738
20.481010 80.177 -144.6664
20.629424 80.194 -144.7823
20.778913 80.216 -144.9207
20.929486 80.242 -145.0812
21.081150 80.273 -145.2639
21.233912 80.308 -145.4691
21.387782 80.346 -145.6975
21.542767 80.388 -145.9493
21.698874 80.434 -146.2245
21.856113 80.481 -146.5224
22.014492 80.531 -146.8412
22.174018 80.581 -147.1788
22.334700 80.632 -147.5320
22.496546 80.683 -147.8971
22.659566 80.733 -148.2705
22.823766 80.782 -148.6481
22.989157 80.829 -149.0266
23.155745 80.875 -149.4029
23.323542 80.919 -149.7747
23.492554 80.960 -150.1404
23.662790 80.998 -150.4991
23.834261 81.032 -150.8501
24.006973 81.063 -151.1934
24.180938 81.088 -151.5288
24.356163 81.109 -151.8559
24.532658 81.124 -152.1744
24.710431 81.132 -152.4836
24.889493 81.135 -152.7827
25.069853 81.130 -153.0710
25.251519 81.119 -153.3482
25.434502 81.103 -153.6143
25.618811 81.080 -153.8703
25.804456 81.054 -154.1176
25.991445 81.023 -154.3589
26.179790 80.990 -154.5970
26.369500 80.956 -154.8357
26.560584 80.921 -155.0783
26.753053 80.887 -155.3284
26.946917 80.855 -155.5885
27.142185 80.824 -155.8604
27.338869 80.796 -156.1446
27.536977 80.772 -156.4404
27.736522 80.750 -156.7458
27.937512 80.732 -157.0578
28.139959 80.717 -157.3725
28.343872 80.705 -157.6855
28.549264 80.696 -157.9924
28.756143 80.688 -158.2891
28.964522 80.683 -158.5721
29.174411 80.679 -158.8388
29.385821 80.675 -159.0880
29.598763 80.673 -159.3197
29.813248 80.671 -159.5353
30.029287 80.669 -159.7374
30.246891 80.668 -159.9295
30.466073 80.668 -160.1155
30.686842 80.669 -160.2996
30.909212 80.672 -160.4857
31.133193 80.676 -160.6768
31.358797 80.682 -160.8751
31.586035 80.692 -161.0818
31.814921 80.706 -161.2968
32.045465 80.724 -161.5194
32.277680 80.748 -161.7476
32.511577 80.777 -161.9793
32.747169 80.812 -162.2117
32.984469 80.852 -162.4421
33.223488 80.898 -162.6678
33.464239 80.950 -162.8862
33.706735 81.005 -163.0953
33.950987 81.065 -163.2936
34.197010 81.126 -163.4801
34.444816 81.190 -163.6547
34.694417 81.254 -163.8177
34.945827 81.318 -163.9703
35.199059 81.381 -164.1141
35.454126 81.444 -164.2511
35.711041 81.505 -164.3834
35.969818 81.565 -164.5136
36.230470 81.624 -164.6437
36.493011 81.682 -164.7757
36.757455 81.740 -164.9112
37.023814 81.796 -165.0510
37.292104 81.851 -165.1955
37.562338 81.905 -165.3439
37.834530 81.958 -165.4952
38.108695 82.009 -165.6477
38.384846 82.059 -165.7999
38.662999 82.108 -165.9506
38.943167 82.154 -166.0990
39.225365 82.200 -166.2457
39.509608 82.244 -166.3916
39.795911 82.287 -166.5384
40.084289 82.329 -166.6882
40.374756 82.369 -166.8427
40.667328 82.409 -167.0035
40.962020 82.447 -167.1716
41.258848 82.484 -167.3476
41.557827 82.519 -167.5318
41.858972 82.553 -167.7240
42.162299 82.584 -167.9238
42.467824 82.614 -168.1307
42.775564 82.641 -168.3436
43.085533 82.667 -168.5611
43.397749 82.690 -168.7813
43.712227 82.711 -169.0022
44.028983 82.731 -169.2214
44.348036 82.749 -169.4371
44.669400 82.766 -169.6475
44.993093 82.783 -169.8515
45.319131 82.798 -170.0486
45.647532 82.812 -170.2388
45.978313 82.825 -170.4230
46.311491 82.837 -170.6021
46.647083 82.847 -170.7773
46.985107 82.856 -170.9496
47.325581 82.864 -171.1202
47.668521 82.872 -171.2898
48.013947 82.879 -171.4593
48.361876 82.887 -171.6294
48.712326 82.895 -171.8007
49.065315 82.904 -171.9734
49.420863 82.913 -172.1472
49.778987 82.923 -172.3215
50.139706 82.932 -172.4949
50.503039 82.941 -172.6667
50.869005 82.948 -172.8362
51.237623 82.954 -173.0041
51.608912 82.958 -173.1719
51.982891 82.961 -173.3422
52.359580 82.962 -173.5178
52.739000 82.963 -173.7009
53.121168 82.962 -173.8930
53.506106 82.960 -174.0937
53.893833 82.958 -174.3012
54.284370 82.955 -174.5121
54.677737 82.952 -174.7220
55.073955 82.950 -174.9255
55.473043 82.948 -175.1178
55.875024 82.948 -175.2944
56.279917 82.950 -175.4521
56.687745 82.955 -175.5898
57.098527 82.962 -175.7081
57.512287 82.972 -175.8104
57.929045 82.985 -175.9024
58.348822 82.999 -175.9924
58.771642 83.015 -176.0913
59.197525 83.031 -176.2104
59.626495 83.048 -176.3601
60.058573 83.064 -176.5475
60.493782 83.080 -176.7741
60.932145 83.096 -177.0366
61.373685 83.112 -177.3270
61.818424 83.130 -177.6355
62.266386 83.149 -177.9523
62.717593 83.171 -178.2693
63.172071 83.196 -178.5808
63.629842 83.222 -178.8833
64.090930 83.250 -179.1757
64.555359 83.279 -179.4583
65.023154 83.309 -179.7322
65.494339 83.340 -179.9982
65.968938 83.372 179.7426
66.446976 83.404 179.4898
66.928478 83.436 179.2428
67.413469 83.467 179.0010
67.901975 83.497 178.7640
68.394021 83.527 178.5311
68.889632 83.555 178.3019
69.388835 83.582 178.0758
69.891655 83.606 177.8521
70.398118 83.629 177.6303
70.908252 83.651 177.4096
71.422083 83.670 177.1891
71.939636 83.687 176.9680
72.460941 83.702 176.7454
72.986023 83.714 176.5208
73.514909 83.725 176.2936
74.047629 83.733 176.0638
74.584208 83.739 175.8313
75.124676 83.742 175.5963
75.669061 83.744 175.3590
76.217390 83.743 175.1200
76.769692 83.741 174.8794
77.325997 83.737 174.6375
77.886333 83.731 174.3941
78.450730 83.724 174.1492
79.019216 83.716 173.9028
79.591822 83.706 173.6556
80.168577 83.696 173.4088
80.749512 83.685 173.1634
81.334656 83.674 172.9203
81.924040 83.662 172.6799
82.517696 83.649 172.4417
83.115653 83.637 172.2051
83.717943 83.623 171.9692
84.324598 83.610 171.7332
84.935649 83.595 171.4969
85.551128 83.581 171.2599
86.171066 83.565 171.0223
86.795497 83.550 170.7842
87.424453 83.533 170.5456
88.057967 83.517 170.3067
88.696071 83.499 170.0681
89.338800 83.481 169.8304
89.986185 83.463 169.5947
90.638262 83.444 169.3619
91.295065 83.424 169.1329
91.956626 83.404 168.9082
92.622982 83.383 168.6882
93.294166 83.362 168.4729
93.970214 83.340 168.2620
94.651161 83.318 168.0548
95.337042 83.297 167.8504
96.027894 83.275 167.6476
96.723752 83.255 167.4453
97.424652 83.234 167.2425
98.130631 83.214 167.0386
98.841726 83.195 166.8333
99.557974 83.176 166.6263
100.279412 83.157 166.4178
101.006078 83.139 166.2083
101.738010 83.122 165.9983
102.475245 83.106 165.7889
103.217823 83.090 165.5816
103.965782 83.075 165.3784
104.719161 83.061 165.1812
105.477999 83.048 164.9921
106.242336 83.037 164.8123
107.012212 83.026 164.6427
107.787666 83.018 164.4830
108.568740 83.011 164.3320
109.355474 83.005 164.1879
110.147909 83.001 164.0486
110.946086 82.999 163.9122
111.750047 82.997 163.7769
112.559834 82.997 163.6416
113.375489 82.998 163.5051
114.197055 82.999 163.3665
115.024574 83.001 163.2251
115.858089 83.003 163.0809
116.697645 83.005 162.9340
117.543284 83.008 162.7851
118.395051 83.011 162.6349
119.252990 83.013 162.4839
120.117147 83.016 162.3323
120.987565 83.018 162.1801
121.864291 83.020 162.0271
122.747370 83.022 161.8730
123.636848 83.024 161.7178
124.532771 83.025 161.5615
125.435187 83.025 161.4043
126.344142 83.025 161.2458
127.259684 83.024 161.0856
128.181860 83.022 160.9230
129.110718 83.018 160.7573
130.046308 83.014 160.5880
130.988677 83.007 160.4150
131.937875 83.000 160.2385
132.893951 82.991 160.0586
133.856956 82.980 159.8759
134.826938 82.967 159.6910
135.803950 82.953 159.5044
136.788041 82.937 159.3166
137.779264 82.919 159.1282
138.777669 82.900 158.9395
139.783309 82.879 158.7504
140.796237 82.856 158.5612
141.816504 82.831 158.3719
142.844165 82.804 158.1828
143.879273 82.776 157.9945
144.921881 82.747 157.8079
145.972045 82.716 157.6242
147.029819 82.684 157.4444
148.095257 82.651 157.2695
149.168417 82.616 157.1002
150.249353 82.581 156.9371
151.338121 82.545 156.7807
152.434780 82.508 156.6315
153.539385 82.470 156.4898
154.651995 82.432 156.3560
155.772667 82.393 156.2302
156.901460 82.354 156.1126
158.038432 82.314 156.0032
159.183644 82.274 155.9021
160.337154 82.233 155.8093
161.499023 82.192 155.7250
162.669312 82.151 155.6500
163.848081 82.110 155.5850
165.035392 82.068 155.5310
166.231306 82.028 155.4890
167.435887 81.988 155.4599
168.649196 81.948 155.4445
169.871298 81.910 155.4438
171.102255 81.872 155.4585
172.342133 81.836 155.4885
173.590995 81.801 155.5338
174.848907 81.767 155.5935
176.115934 81.735 155.6666
177.392143 81.705 155.7515
178.677599 81.677 155.8468
179.972371 81.652 155.9506
181.276525 81.629 156.0612
182.590129 81.608 156.1767
183.913252 81.590 156.2953
185.245964 81.574 156.4153
186.588332 81.560 156.5347
187.940428 81.548 156.6517
189.302322 81.538 156.7642
190.674085 81.529 156.8699
192.055788 81.521 156.9672
193.447503 81.514 157.0546
194.849303 81.508 157.1314
196.261262 81.503 157.1971
197.683452 81.500 157.2518
199.115948 81.498 157.2953
200.558824 81.498 157.3278
202.012156 81.499 157.3496
203.476019 81.502 157.3611
204.950490 81.507 157.3626
206.435646 81.512 157.3543
207.931564 81.519 157.3364
209.438322 81.526 157.3091
210.955998 81.534 157.2726
212.484672 81.543 157.2275
214.024424 81.552 157.1740
215.575333 81.563 157.1127
217.137481 81.574 157.0442
218.710948 81.586 156.9691
220.295818 81.599 156.8875
221.892172 81.614 156.7995
223.500094 81.629 156.7050
225.119668 81.645 156.6036
226.750978 81.662 156.4952
228.394109 81.680 156.3797
230.049147 81.699 156.2568
231.716178 81.719 156.1266
233.395289 81.739 155.9892
235.086567 81.759 155.8452
236.790102 81.780 155.6950
238.505980 81.800 155.5391
240.234293 81.821 155.3780
241.975130 81.841 155.2121
243.728581 81.861 155.0420
245.494739 81.880 154.8688
247.273695 81.900 154.6938
249.065542 81.919 154.5183
250.870374 81.938 154.3436
252.688284 81.957 154.1701
254.519367 81.975 153.9979
256.363720 81.993 153.8266
258.221437 82.011 153.6556
260.092616 82.029 153.4843
261.977354 82.046 153.3119
263.875750 82.063 153.1381
265.787903 82.080 152.9624
267.713911 82.097 152.7849
269.653877 82.114 152.6057
271.607900 82.131 152.4251
273.576083 82.149 152.2432
275.558528 82.167 152.0594
277.555338 82.184 151.8730
279.566619 82.202 151.6830
281.592474 82.221 151.4885
283.633009 82.240 151.2883
285.688331 82.260 151.0818
287.758546 82.280 150.8683
289.843763 82.302 150.6470
291.944090 82.324 150.4171
294.059638 82.348 150.1776
296.190515 82.373 149.9279
298.336833 82.398 149.6669
300.498705 82.423 149.3939
302.676243 82.448 149.1083
304.869559 82.472 148.8098
307.078770 82.495 148.4980
309.303989 82.517 148.1729
311.545334 82.537 147.8344
313.802919 82.554 147.4821
316.076865 82.569 147.1160
318.367288 82.582 146.7360
320.674309 82.590 146.3429
322.998047 82.595 145.9380
325.338624 82.595 145.5237
327.696162 82.590 145.1032
330.070783 82.579 144.6806
332.462612 82.563 144.2606
334.871773 82.541 143.8483
337.298392 82.513 143.4492
339.742595 82.479 143.0691
342.204510 82.438 142.7135
344.684265 82.393 142.3879
347.181989 82.342 142.0972
349.697813 82.286 141.8457
352.231868 82.227 141.6367
354.784285 82.165 141.4727
357.355198 82.101 141.3553
359.944741 82.036 141.2852
362.553049 81.971 141.2619
365.180258 81.908 141.2838
367.826505 81.848 141.3483
370.491927 81.791 141.4519
373.176665 81.739 141.5901
375.880856 81.691 141.7578
378.604644 81.650 141.9494
381.348169 81.614 142.1592
384.111575 81.585 142.3813
386.895006 81.561 142.6100
389.698607 81.544 142.8396
392.522524 81.532 143.0645
395.366904 81.526 143.2796
398.231895 81.524 143.4805
401.117648 81.527 143.6640
404.024312 81.532 143.8277
406.952038 81.541 143.9701
409.900981 81.551 144.0906
412.871292 81.563 144.1888
415.863128 81.576 144.2650
418.876643 81.588 144.3199
421.911996 81.601 144.3549
424.969344 81.613 144.3716
428.048847 81.624 144.3724
431.150666 81.634 144.3597
434.274961 81.642 144.3354
437.421897 81.650 144.3010
440.591636 81.656 144.2573
443.784345 81.663 144.2045
447.000189 81.669 144.1420
450.239337 81.677 144.0689
453.501956 81.685 143.9832
456.788219 81.695 143.8824
460.098294 81.707 143.7634
463.432356 81.721 143.6228
466.790578 81.737 143.4569
470.173135 81.754 143.2626
473.580203 81.773 143.0373
477.011961 81.792 142.7788
480.468586 81.812 142.4857
483.950259 81.832 142.1572
487.457163 81.851 141.7928
490.989478 81.869 141.3926
494.547390 81.885 140.9576
498.131084 81.899 140.4888
501.740748 81.911 139.9883
505.376568 81.920 139.4581
509.038735 81.925 138.9002
512.727439 81.927 138.3168
516.442874 81.925 137.7097
520.185232 81.918 137.0811
523.954708 81.906 136.4330
527.751500 81.888 135.7683
531.575805 81.864 135.0905
535.427822 81.832 134.4051
539.307753 81.791 133.7191
543.215800 81.742 133.0417
547.152165 81.682 132.3839
551.117055 81.612 131.7585
555.110677 81.532 131.1801
559.133237 81.443 130.6633
563.184947 81.346 130.2231
567.266018 81.242 129.8724
571.376661 81.135 129.6214
575.517092 81.026 129.4760
579.687526 80.918 129.4376
583.888181 80.815 129.5027
588.119275 80.718 129.6634
592.381030 80.629 129.9088
596.673667 80.551 130.2260
600.997410 80.483 130.6016
605.352485 80.426 131.0221
609.739119 80.381 131.4746
614.157540 80.346 131.9470
618.607979 80.322 132.4281
623.090667 80.308 132.9081
627.605839 80.304 133.3787
632.153730 80.308 133.8326
636.734576 80.320 134.2634
641.348617 80.339 134.6656
645.996094 80.365 135.0344
650.677248 80.396 135.3662
655.392323 80.432 135.6586
660.141566 80.471 135.9109
664.925224 80.513 136.1233
669.743546 80.557 136.2966
674.596784 80.603 136.4313
679.485191 80.652 136.5276
684.409020 80.702 136.5850
689.368530 80.753 136.6031
694.363979 80.805 136.5814
699.395626 80.859 136.5182
704.463736 80.913 136.4115
709.568570 80.968 136.2584
714.710396 81.022 136.0553
719.889483 81.076 135.7986
725.106099 81.128 135.4847
730.360516 81.176 135.1103
735.653010 81.221 134.6733
740.983855 81.259 134.1733
746.353329 81.290 133.6124
751.761713 81.311 132.9957
757.209288 81.321 132.3313
762.696339 81.318 131.6295
768.223151 81.302 130.9021
773.790013 81.272 130.1618
779.397214 81.227 129.4208
785.045047 81.168 128.6920
790.733808 81.095 127.9891
796.463791 81.008 127.3271
802.235296 80.907 126.7232
808.048623 80.793 126.1957
813.904077 80.668 125.7630
819.801961 80.535 125.4409
825.742584 80.398 125.2405
831.726255 80.260 125.1663
837.753287 80.127 125.2139
843.823992 80.001 125.3714
849.938689 79.888 125.6201
856.097695 79.789 125.9371
862.301332 79.706 126.2978
868.549922 79.640 126.6777
874.843793 79.590 127.0549
881.183272 79.556 127.4115
887.568689 79.535 127.7349
894.000378 79.525 128.0179
900.478673 79.526 128.2571
907.003913 79.535 128.4519
913.576437 79.552 128.6025
920.196588 79.576 128.7092
926.864712 79.607 128.7708
933.581156 79.644 128.7851
940.346270 79.687 128.7484
947.160407 79.734 128.6561
954.023921 79.786 128.5031
960.937172 79.841 128.2847
967.900519 79.896 127.9977
974.914325 79.951 127.6411
981.978956 80.003 127.2171
989.094780 80.051 126.7314
996.262169 80.091 126.1929
1003.481495 80.124 125.6130
1010.753136 80.147 125.0052
1018.077470 80.161 124.3837
1025.454879 80.166 123.7626
1032.885748 80.162 123.1544
1040.370463 80.151 122.5694
1047.909417 80.134 122.0151
1055.503000 80.112 121.4961
1063.151610 80.087 121.0143
1070.855645 80.059 120.5699
1078.615506 80.030 120.1622
1086.431599 79.999 119.7894
1094.304330 79.969 119.4488
1102.234110 79.938 119.1371
1110.221353 79.908 118.8502
1118.266475 79.877 118.5837
1126.369895 79.846 118.3346
1134.532035 79.814 118.1014
1142.753322 79.780 117.8862
1151.034184 79.743 117.6940
1159.375052 79.703 117.5323
1167.776361 79.662 117.4095
1176.238550 79.619 117.3328
1184.762060 79.577 117.3065
1193.347334 79.538 117.3301
1201.994821 79.505 117.3975
1210.704971 79.478 117.4966
1219.478238 79.459 117.6110
1228.315080 79.448 117.7219
1237.215957 79.444 117.8118
1246.181334 79.444 117.8684
1255.211678 79.448 117.8860
1264.307459 79.451 117.8658
1273.469152 79.453 117.8139
1282.697235 79.452 117.7392
1291.992188 79.447 117.6514
1301.354495 79.439 117.5590
1310.784647 79.426 117.4695
1320.283132 79.410 117.3892
1329.850448 79.390 117.3234
1339.487093 79.367 117.2765
1349.193569 79.342 117.2521
1358.970381 79.315 117.2528
1368.818041 79.287 117.2807
1378.737061 79.258 117.3368
1388.727958 79.230 117.4218
1398.791253 79.202 117.5358
1408.927471 79.177 117.6787
1419.137140 79.154 117.8499
1429.420793 79.134 118.0480
1439.778965 79.118 118.2717
1450.212197 79.105 118.5193
1460.721033 79.098 118.7895
1471.306019 79.095 119.0804
1481.967709 79.097 119.3892
1492.706658 79.105 119.7112
1503.523426 79.118 120.0397
1514.418576 79.136 120.3665
1525.392678 79.158 120.6820
1536.446302 79.182 120.9767
1547.580025 79.207 121.2429
1558.794428 79.230 121.4765
1570.090095 79.247 121.6798
1581.467615 79.256 121.8629
1592.927581 79.254 122.0443
1604.470591 79.239 122.2491
1616.097246 79.213 122.5056
1627.808153 79.178 122.8400
1639.603922 79.136 123.2730
1651.485168 79.092 123.8160
1663.452510 79.050 124.4694
1675.506573 79.016 125.2222
1687.647984 78.992 126.0536
1699.877377 78.982 126.9356
1712.195390 78.988 127.8359
1724.602663 79.009 128.7214
1737.099845 79.043 129.5612
1749.687587 79.089 130.3291
1762.366544 79.144 131.0061
1775.137379 79.202 131.5806
1788.000756 79.260 132.0494
1800.957346 79.314 132.4185
1814.007826 79.359 132.7028
1827.152874 79.391 132.9256
1840.393177 79.409 133.1172
1853.729425 79.412 133.3116
1867.162312 79.400 133.5424
1880.692540 79.376 133.8397
1894.320813 79.342 134.2269
1908.047843 79.304 134.7186
1921.874344 79.264 135.3188
1935.801038 79.229 136.0218
1949.828650 79.203 136.8123
1963.957912 79.187 137.6677
1978.189561 79.185 138.5601
1992.524338 79.198 139.4585
2006.962991 79.225 140.3314
2021.506272 79.266 141.1497
2036.154940 79.319 141.8892
2050.909758 79.379 142.5332
2065.771495 79.445 143.0723
2080.740927 79.512 143.5049
2095.818833 79.577 143.8364
2111.006001 79.636 144.0788
2126.303220 79.687 144.2499
2141.711290 79.729 144.3725
2157.231013 79.760 144.4722
2172.863198 79.781 144.5753
2188.608660 79.793 144.7051
2204.468221 79.800 144.8792
2220.442706 79.804 145.1076
2236.532950 79.809 145.3920
2252.739789 79.818 145.7266
2269.064070 79.834 146.0993
2285.506644 79.858 146.4935
2302.068367 79.893 146.8906
2318.750104 79.936 147.2737
2335.552723 79.988 147.6293
2352.477101 80.047 147.9496
2369.524119 80.112 148.2328
2386.694668 80.181 148.4815
2403.989641 80.254 148.7009
2421.409941 80.331 148.8959
2438.956476 80.412 149.0693
2456.630160 80.498 149.2209
2474.431915 80.589 149.3470
2492.362668 80.685 149.4423
2510.423356 80.785 149.5017
2528.614918 80.889 149.5223
2546.938304 80.995 149.5040
2565.394469 81.102 149.4491
2583.984375 81.210 149.3623
2602.708991 81.318 149.2494
2621.569293 81.425 149.1177
2640.566265 81.531 148.9759
2659.700897 81.638 148.8328
2678.974186 81.745 148.6971
2698.387137 81.854 148.5748
2717.940763 81.967 148.4690
2737.636082 82.086 148.3769
2757.474121 82.212 148.2897
2777.455915 82.345 148.1923
2797.582506 82.486 148.0659
2817.854942 82.633 147.8922
2838.274281 82.782 147.6576
2858.841586 82.931 147.3558
2879.557931 83.076 146.9888
2900.424394 83.215 146.5649
2921.442065 83.347 146.0955
2942.612039 83.470 145.5917
2963.935418 83.586 145.0616
2985.413316 83.692 144.5105
3007.046852 83.790 143.9414
3028.837153 83.878 143.3571
3050.785356 83.955 142.7612
3072.892604 84.021 142.1586
3095.160050 84.074 141.5565
3117.588856 84.114 140.9641
3140.180190 84.141 140.3903
3162.935230 84.156 139.8428
3185.855163 84.159 139.3272
3208.941182 84.151 138.8465
3232.194493 84.134 138.4006
3255.616307 84.109 137.9862
3279.207844 84.075 137.5973
3302.970336 84.034 137.2268
3326.905021 83.983 136.8685
3351.013146 83.922 136.5200
3375.295969 83.849 136.1852
3399.754755 83.761 135.8764
3424.390779 83.659 135.6122
3449.205326 83.541 135.4146
3474.199690 83.411 135.3034
3499.375173 83.270 135.2921
3524.733088 83.123 135.3832
3550.274757 82.974 135.5690
3576.001511 82.826 135.8348
3601.914692 82.680 136.1644
3628.015651 82.537 136.5456
3654.305748 82.397 136.9730
3680.786354 82.260 137.4493
3707.458849 82.124 137.9848
3734.324624 81.990 138.5972
3761.385080 81.858 139.3110
3788.641627 81.730 140.1547
3816.095686 81.609 141.1560
3843.748688 81.500 142.3373
3871.602076 81.410 143.7108
3899.657300 81.344 145.2757
3927.915825 81.309 147.0148
3956.379122 81.310 148.8933
3985.048676 81.352 150.8587
4013.925981 81.435 152.8463
4043.012544 81.558 154.7920
4072.309879 81.715 156.6476
4101.819515 81.902 158.3889
4131.542990 82.115 160.0132
4161.481854 82.349 161.5284
4191.637667 82.604 162.9413
4222.012001 82.877 164.2482
4252.606441 83.167 165.4331
4283.422580 83.470 166.4720
4314.462026 83.782 167.3427
4345.726396 84.098 168.0355
4377.217321 84.413 168.5583
4408.936442 84.724 168.9350
4440.885413 85.031 169.1989
4473.065899 85.335 169.3821
4505.479579 85.641 169.5049
4538.128141 85.953 169.5681
4571.013288 86.274 169.5511
4604.136735 86.604 169.4143
4637.500207 86.940 169.1087
4671.105446 87.276 168.5871
4704.954201 87.603 167.8138
4739.048239 87.912 166.7703
4773.389336 88.193 165.4601
4807.979283 88.436 163.9106
4842.819883 88.635 162.1695
4877.912952 88.787 160.2978
4913.260320 88.893 158.3606
4948.863830 88.954 156.4175
4984.725337 88.976 154.5181
5020.846712 88.964 152.7001
5057.229836 88.923 150.9924
5093.876609 88.859 149.4169
5130.788938 88.776 147.9910
5167.968750 88.679 146.7286
5205.417982 88.572 145.6407
5243.138586 88.459 144.7357
5281.132530 88.346 144.0189
5319.401793 88.238 143.4927
5357.948371 88.138 143.1556
5396.774274 88.053 143.0019
5435.881525 87.987 143.0205
5475.272163 87.946 143.1926
5514.948243 87.933 143.4905
5554.911831 87.953 143.8771
5595.165012 88.006 144.3076
5635.709884 88.093 144.7324
5676.548561 88.209 145.1016
5717.683172 88.352 145.3698
5759.115861 88.514 145.5000
5800.848789 88.688 145.4648
5842.884130 88.868 145.2479
5885.224077 89.046 144.8434
5927.870837 89.215 144.2563
5970.826633 89.368 143.5002
6014.093704 89.501 142.5959
6057.674306 89.608 141.5696
6101.570711 89.685 140.4535
6145.785208 89.730 139.2843
6190.320101 89.742 138.1031
6235.177712 89.719 136.9519
6280.360380 89.664 135.8719
6325.870460 89.579 134.9006
6371.710325 89.468 134.0706
6417.882365 89.337 133.4066
6464.388986 89.189 132.9254
6511.232613 89.033 132.6346
6558.415689 88.872 132.5329
6605.940673 88.714 132.6106
6653.810042 88.564 132.8497
6702.026292 88.426 133.2255
6750.591937 88.306 133.7075
6799.509509 88.206 134.2606
6848.781558 88.129 134.8459
6898.410653 88.077 135.4228
6948.399380 88.051 135.9492
6998.750346 88.051 136.3822
7049.466176 88.076 136.6793
7100.549514 88.123 136.7990
7152.003023 88.188 136.7030
7203.829385 88.268 136.3576
7256.031302 88.355 135.7357
7308.611496 88.444 134.8175
7361.572708 88.527 133.5913
7414.917698 88.597 132.0529
7468.649249 88.648 130.2044
7522.770160 88.672 128.0530
7577.283253 88.665 125.6094
7632.191371 88.621 122.8868
7687.497376 88.536 119.8995
7743.204151 88.406 116.6614
7799.314600 88.230 113.1841
7855.831649 88.006 109.4753
7912.758244 87.736 105.5360
7970.097352 87.421 101.3562
8027.851962 87.067 96.9062
8086.025087 86.683 92.1208
8144.619758 86.282 86.8599
8203.639030 85.881 80.8136
8263.085980 85.502 73.2035
8322.963708 85.168 61.5687
8383.275334 84.903 34.3277
8444.024002 84.724 -42.2456
8505.212881 84.640 -82.3731
8566.845160 84.647 -96.4329
8628.924051 84.733 -104.5212
8691.452792 84.878 -110.4283
8754.434642 85.064 -115.2264
8817.872884 85.275 -119.3169
8881.770826 85.499 -122.8800
8946.131799 85.731 -126.0104
9010.959157 85.966 -128.7678
9076.256282 86.204 -131.1983
9142.026576 86.447 -133.3451
9208.273470 86.696 -135.2527
9275.000415 86.954 -136.9695
9342.210891 87.222 -138.5475
9409.908403 87.499 -140.0421
9478.096478 87.785 -141.5097
9546.778672 88.075 -143.0056
9615.958566 88.366 -144.5804
9685.639765 88.651 -146.2771
9755.825904 88.924 -148.1278
9826.520640 89.176 -150.1525
9897.727659 89.399 -152.3580
9969.450674 89.586 -154.7377
10041.693423 89.730 -157.2728
10114.459673 89.824 -159.9327
10187.753217 89.865 -162.6771
10261.577877 89.847 -165.4578
10335.937500 89.770 -168.2219
10410.835964 89.634 -170.9149
10486.277173 89.440 -173.4840
10562.265060 89.192 -175.8806
10638.803587 88.894 -178.0624
10715.896743 88.552 -179.9955
10793.548548 88.172 178.3455
10871.763050 87.762 176.9761
10950.544327 87.329 175.9019
11029.896485 86.880 175.1177
11109.823662 86.423 174.6084
11190.330024 85.964 174.3490
11271.419768 85.510 174.3066
11353.097122 85.068 174.4426
11435.366344 84.640 174.7134
11518.231722 84.232 175.0736
11601.697577 83.847 175.4756
11685.768261 83.486 175.8711
11770.448155 83.152 176.2109
11855.741674 82.844 176.4464
11941.653265 82.563 176.5305
12028.187408 82.306 176.4191
12115.348612 82.070 176.0741
12203.141422 81.849 175.4659
12291.570415 81.637 174.5765
12380.640201 81.425 173.4031
12470.355424 81.204 171.9622
12560.720760 80.961 170.2950
12651.740920 80.686 168.4750
12743.420650 80.366 166.6176
12835.764729 79.991 164.8938
12928.777972 79.552 163.5466
13022.465227 79.044 162.9116
13116.831378 78.469 163.4415
13211.881345 77.831 165.7274
13307.620084 77.142 170.4888
13404.052584 76.416 178.4104
13501.183875 75.673 -170.3931
13599.019019 74.937 -157.1600
13697.563116 74.234 -144.2733
13796.821305 73.591 -133.6014
13896.798760 73.035 -125.5992
13997.500692 72.586 -119.8873
14098.932352 72.254 -115.9329
14201.099028 72.033 -113.3036
14304.006046 71.902 -111.6874
14407.658770 71.832 -110.8533
14512.062604 71.791 -110.6134
14617.222992 71.748 -110.7981
14723.145416 71.678 -111.2440
14829.835397 71.567 -111.7903
14937.298497 71.405 -112.2787
15045.540320 71.194 -112.5565
15154.566507 70.940 -112.4789
15264.382743 70.657 -111.9138
15374.994752 70.367 -110.7510
15486.408302 70.096 -108.9211
15598.629201 69.876 -106.4244
15711.663298 69.740 -103.3635
15825.516487 69.715 -99.9603
15940.194703 69.817 -96.5380
16055.703925 70.048 -93.4572
16172.050174 70.390 -91.0361
16289.239516 70.818 -89.4923
16407.278061 71.300 -88.9287
16526.171961 71.806 -89.3563
16645.927415 72.312 -90.7268
16766.550667 72.797 -92.9624
16888.048005 73.245 -95.9744
17010.425762 73.647 -99.6744
17133.690320 73.996 -103.9797
17257.848103 74.289 -108.8174
17382.905584 74.524 -114.1252
17508.869284 74.703 -119.8533
17635.745768 74.826 -125.9626
17763.541652 74.896 -132.4248
17892.263597 74.917 -139.2222
18021.918315 74.894 -146.3514
18152.512564 74.833 -153.8259
18284.053153 74.740 -161.6774
18416.546939 74.620 -169.9561
18550.000830 74.480 -178.7303
18684.421783 74.325 171.9209
18819.816805 74.163 161.9236
18956.192956 74.002 151.2469
19093.557344 73.849 139.9777
19231.917131 73.711 128.4168
19371.279531 73.591 117.1379
19511.651807 73.492 106.9200
19653.041280 73.414 98.5575
19795.455318 73.361 92.6725
19938.901348 73.333 89.6459
