* Measurement data measured by REW V5.31.3
* Source: EXCL: Headset (USB-C to 3.5mm Headphone Jack Adapter), MICROPHONE (Master Volume), 0, volume: 0.200
* Format: 256k Log Swept Sine, 1 sweep at -12.0 dBFS with no timing reference
* Dated: Jun 13, 2025 2:29:42 PM
* REW Settings:
*  C-weighting compensation: Off
*  Target level: 75.0 dB
* Note: ; 
* Measurement: Arya Stealth 2 L5
* Smoothing: 1/6 octave
* Frequency Step: 96 ppo
* Start Frequency: 20.0 Hz
*
* Freq(Hz) SPL(dB) Phase(degrees)
20.187378 65.672 -97.3321
20.333664 65.696 -97.5329
20.481010 65.730 -97.8022
20.629424 65.771 -98.1321
20.778913 65.820 -98.5140
20.929486 65.876 -98.9388
21.081150 65.938 -99.3977
21.233912 66.005 -99.8821
21.387782 66.077 -100.3845
21.542767 66.153 -100.8978
21.698874 66.230 -101.4161
21.856113 66.310 -101.9345
22.014492 66.390 -102.4490
22.174018 66.470 -102.9573
22.334700 66.548 -103.4580
22.496546 66.626 -103.9512
22.659566 66.700 -104.4380
22.823766 66.771 -104.9205
22.989157 66.839 -105.4012
23.155745 66.902 -105.8830
23.323542 66.959 -106.3683
23.492554 67.011 -106.8593
23.662790 67.056 -107.3568
23.834261 67.095 -107.8608
24.006973 67.127 -108.3700
24.180938 67.152 -108.8821
24.356163 67.171 -109.3941
24.532658 67.185 -109.9025
24.710431 67.194 -110.4043
24.889493 67.199 -110.8968
25.069853 67.201 -111.3784
25.251519 67.201 -111.8489
25.434502 67.201 -112.3093
25.618811 67.200 -112.7615
25.804456 67.200 -113.2086
25.991445 67.200 -113.6537
26.179790 67.202 -114.0999
26.369500 67.204 -114.5494
26.560584 67.207 -115.0034
26.753053 67.211 -115.4619
26.946917 67.214 -115.9238
27.142185 67.218 -116.3867
27.338869 67.222 -116.8481
27.536977 67.227 -117.3051
27.736522 67.233 -117.7554
27.937512 67.239 -118.1974
28.139959 67.248 -118.6303
28.343872 67.258 -119.0547
28.549264 67.269 -119.4718
28.756143 67.283 -119.8834
28.964522 67.296 -120.2914
29.174411 67.311 -120.6977
29.385821 67.325 -121.1035
29.598763 67.338 -121.5097
29.813248 67.351 -121.9165
30.029287 67.362 -122.3240
30.246891 67.373 -122.7321
30.466073 67.384 -123.1407
30.686842 67.396 -123.5504
30.909212 67.410 -123.9616
31.133193 67.426 -124.3754
31.358797 67.447 -124.7923
31.586035 67.472 -125.2126
31.814921 67.502 -125.6358
32.045465 67.537 -126.0607
32.277680 67.578 -126.4850
32.511577 67.624 -126.9058
32.747169 67.675 -127.3201
32.984469 67.730 -127.7249
33.223488 67.788 -128.1183
33.464239 67.850 -128.4990
33.706735 67.914 -128.8673
33.950987 67.980 -129.2242
34.197010 68.048 -129.5721
34.444816 68.116 -129.9136
34.694417 68.186 -130.2514
34.945827 68.255 -130.5882
35.199059 68.324 -130.9256
35.454126 68.393 -131.2651
35.711041 68.462 -131.6068
35.969818 68.531 -131.9505
36.230470 68.600 -132.2950
36.493011 68.668 -132.6388
36.757455 68.736 -132.9801
37.023814 68.803 -133.3168
37.292104 68.868 -133.6471
37.562338 68.933 -133.9695
37.834530 68.995 -134.2832
38.108695 69.056 -134.5881
38.384846 69.114 -134.8849
38.662999 69.170 -135.1751
38.943167 69.223 -135.4609
39.225365 69.274 -135.7444
39.509608 69.323 -136.0279
39.795911 69.370 -136.3129
40.084289 69.414 -136.6006
40.374756 69.457 -136.8911
40.667328 69.498 -137.1842
40.962020 69.538 -137.4787
41.258848 69.576 -137.7737
41.557827 69.614 -138.0679
41.858972 69.650 -138.3601
42.162299 69.686 -138.6494
42.467824 69.721 -138.9350
42.775564 69.756 -139.2167
43.085533 69.790 -139.4945
43.397749 69.823 -139.7693
43.712227 69.856 -140.0427
44.028983 69.888 -140.3170
44.348036 69.919 -140.5954
44.669400 69.951 -140.8815
44.993093 69.982 -141.1790
45.319131 70.013 -141.4909
45.647532 70.044 -141.8194
45.978313 70.074 -142.1649
46.311491 70.104 -142.5259
46.647083 70.133 -142.8992
46.985107 70.162 -143.2801
47.325581 70.189 -143.6635
47.668521 70.214 -144.0444
48.013947 70.238 -144.4189
48.361876 70.260 -144.7848
48.712326 70.280 -145.1417
49.065315 70.297 -145.4911
49.420863 70.312 -145.8358
49.778987 70.323 -146.1792
50.139706 70.332 -146.5243
50.503039 70.337 -146.8725
50.869005 70.339 -147.2222
51.237623 70.339 -147.5691
51.608912 70.335 -147.9057
51.982891 70.330 -148.2241
52.359580 70.324 -148.5175
52.739000 70.318 -148.7829
53.121168 70.312 -149.0217
53.506106 70.309 -149.2401
53.893833 70.306 -149.4465
54.284370 70.306 -149.6502
54.677737 70.306 -149.8593
55.073955 70.307 -150.0805
55.473043 70.310 -150.3186
55.875024 70.313 -150.5771
56.279917 70.318 -150.8586
56.687745 70.325 -151.1637
57.098527 70.334 -151.4916
57.512287 70.347 -151.8389
57.929045 70.362 -152.1995
58.348822 70.379 -152.5651
58.771642 70.398 -152.9253
59.197525 70.418 -153.2685
59.626495 70.439 -153.5839
60.058573 70.460 -153.8633
60.493782 70.482 -154.1037
60.932145 70.505 -154.3076
61.373685 70.529 -154.4829
61.818424 70.555 -154.6406
62.266386 70.584 -154.7922
62.717593 70.616 -154.9477
63.172071 70.650 -155.1139
63.629842 70.687 -155.2947
64.090930 70.727 -155.4912
64.555359 70.769 -155.7031
65.023154 70.813 -155.9292
65.494339 70.858 -156.1683
65.968938 70.904 -156.4191
66.446976 70.951 -156.6804
66.928478 70.998 -156.9511
67.413469 71.045 -157.2301
67.901975 71.090 -157.5161
68.394021 71.135 -157.8084
68.889632 71.178 -158.1064
69.388835 71.220 -158.4095
69.891655 71.259 -158.7174
70.398118 71.296 -159.0297
70.908252 71.332 -159.3459
71.422083 71.364 -159.6655
71.939636 71.394 -159.9879
72.460941 71.421 -160.3129
72.986023 71.446 -160.6399
73.514909 71.468 -160.9688
74.047629 71.487 -161.2993
74.584208 71.503 -161.6312
75.124676 71.516 -161.9646
75.669061 71.527 -162.2995
76.217390 71.535 -162.6361
76.769692 71.541 -162.9745
77.325997 71.544 -163.3147
77.886333 71.545 -163.6566
78.450730 71.544 -164.0000
79.019216 71.541 -164.3445
79.591822 71.537 -164.6898
80.168577 71.530 -165.0352
80.749512 71.522 -165.3803
81.334656 71.513 -165.7246
81.924040 71.503 -166.0675
82.517696 71.493 -166.4088
83.115653 71.481 -166.7483
83.717943 71.469 -167.0856
84.324598 71.456 -167.4203
84.935649 71.443 -167.7517
85.551128 71.428 -168.0788
86.171066 71.414 -168.4007
86.795497 71.398 -168.7171
87.424453 71.382 -169.0276
88.057967 71.365 -169.3329
88.696071 71.347 -169.6334
89.338800 71.329 -169.9301
89.986185 71.309 -170.2236
90.638262 71.290 -170.5148
91.295065 71.270 -170.8038
91.956626 71.249 -171.0911
92.622982 71.228 -171.3766
93.294166 71.207 -171.6601
93.970214 71.186 -171.9412
94.651161 71.165 -172.2188
95.337042 71.143 -172.4919
96.027894 71.122 -172.7595
96.723752 71.102 -173.0206
97.424652 71.083 -173.2746
98.130631 71.064 -173.5215
98.841726 71.046 -173.7617
99.557974 71.028 -173.9962
100.279412 71.012 -174.2262
101.006078 70.996 -174.4533
101.738010 70.981 -174.6792
102.475245 70.967 -174.9056
103.217823 70.953 -175.1342
103.965782 70.941 -175.3662
104.719161 70.929 -175.6017
105.477999 70.918 -175.8396
106.242336 70.907 -176.0777
107.012212 70.897 -176.3134
107.787666 70.888 -176.5446
108.568740 70.879 -176.7700
109.355474 70.871 -176.9888
110.147909 70.864 -177.2010
110.946086 70.858 -177.4067
111.750047 70.853 -177.6063
112.559834 70.849 -177.8004
113.375489 70.846 -177.9900
114.197055 70.844 -178.1761
115.024574 70.844 -178.3602
115.858089 70.844 -178.5437
116.697645 70.845 -178.7279
117.543284 70.846 -178.9139
118.395051 70.848 -179.1025
119.252990 70.849 -179.2940
120.117147 70.851 -179.4884
120.987565 70.852 -179.6857
121.864291 70.852 -179.8856
122.747370 70.852 179.9122
123.636848 70.851 179.7079
124.532771 70.849 179.5021
125.435187 70.846 179.2952
126.344142 70.843 179.0875
127.259684 70.837 178.8790
128.181860 70.831 178.6697
129.110718 70.823 178.4593
130.046308 70.813 178.2473
130.988677 70.802 178.0331
131.937875 70.789 177.8160
132.893951 70.774 177.5954
133.856956 70.758 177.3704
134.826938 70.740 177.1401
135.803950 70.720 176.9042
136.788041 70.699 176.6624
137.779264 70.677 176.4150
138.777669 70.653 176.1630
139.783309 70.626 175.9074
140.796237 70.598 175.6499
141.816504 70.567 175.3920
142.844165 70.533 175.1357
143.879273 70.497 174.8831
144.921881 70.458 174.6370
145.972045 70.416 174.4000
147.029819 70.372 174.1747
148.095257 70.324 173.9635
149.168417 70.274 173.7681
150.249353 70.221 173.5903
151.338121 70.165 173.4323
152.434780 70.108 173.2965
153.539385 70.048 173.1863
154.651995 69.988 173.1046
155.772667 69.926 173.0536
156.901460 69.863 173.0342
158.038432 69.801 173.0455
159.183644 69.739 173.0858
160.337154 69.679 173.1524
161.499023 69.621 173.2426
162.669312 69.566 173.3536
163.848081 69.514 173.4828
165.035392 69.465 173.6274
166.231306 69.420 173.7848
167.435887 69.379 173.9528
168.649196 69.341 174.1289
169.871298 69.308 174.3112
171.102255 69.278 174.4973
172.342133 69.252 174.6853
173.590995 69.230 174.8730
174.848907 69.212 175.0591
176.115934 69.197 175.2420
177.392143 69.185 175.4208
178.677599 69.176 175.5947
179.972371 69.170 175.7629
181.276525 69.165 175.9247
182.590129 69.163 176.0796
183.913252 69.162 176.2269
185.245964 69.162 176.3657
186.588332 69.163 176.4944
187.940428 69.166 176.6113
189.302322 69.169 176.7142
190.674085 69.172 176.8010
192.055788 69.176 176.8706
193.447503 69.180 176.9230
194.849303 69.185 176.9596
196.261262 69.189 176.9825
197.683452 69.193 176.9940
199.115948 69.196 176.9961
200.558824 69.199 176.9902
202.012156 69.201 176.9767
203.476019 69.202 176.9554
204.950490 69.203 176.9261
206.435646 69.204 176.8884
207.931564 69.204 176.8426
209.438322 69.204 176.7896
210.955998 69.205 176.7307
212.484672 69.206 176.6672
214.024424 69.207 176.5998
215.575333 69.209 176.5290
217.137481 69.213 176.4545
218.710948 69.217 176.3762
220.295818 69.222 176.2937
221.892172 69.228 176.2067
223.500094 69.237 176.1153
225.119668 69.246 176.0198
226.750978 69.258 175.9211
228.394109 69.271 175.8206
230.049147 69.285 175.7196
231.716178 69.301 175.6191
233.395289 69.319 175.5195
235.086567 69.337 175.4203
236.790102 69.356 175.3199
238.505980 69.376 175.2163
240.234293 69.397 175.1074
241.975130 69.417 174.9914
243.728581 69.439 174.8669
245.494739 69.460 174.7332
247.273695 69.481 174.5901
249.065542 69.502 174.4383
250.870374 69.523 174.2794
252.688284 69.543 174.1156
254.519367 69.563 173.9499
256.363720 69.583 173.7848
258.221437 69.603 173.6220
260.092616 69.622 173.4620
261.977354 69.641 173.3041
263.875750 69.661 173.1466
265.787903 69.680 172.9874
267.713911 69.700 172.8239
269.653877 69.719 172.6532
271.607900 69.738 172.4726
273.576083 69.757 172.2796
275.558528 69.774 172.0723
277.555338 69.790 171.8493
279.566619 69.805 171.6100
281.592474 69.817 171.3541
283.633009 69.828 171.0822
285.688331 69.837 170.7951
287.758546 69.843 170.4941
289.843763 69.846 170.1808
291.944090 69.847 169.8574
294.059638 69.843 169.5262
296.190515 69.836 169.1906
298.336833 69.825 168.8544
300.498705 69.809 168.5225
302.676243 69.789 168.2002
304.869559 69.764 167.8926
307.078770 69.735 167.6046
309.303989 69.702 167.3406
311.545334 69.665 167.1041
313.802919 69.625 166.8984
316.076865 69.583 166.7263
318.367288 69.538 166.5903
320.674309 69.493 166.4925
322.998047 69.447 166.4338
325.338624 69.401 166.4147
327.696162 69.357 166.4341
330.070783 69.313 166.4901
332.462612 69.272 166.5799
334.871773 69.234 166.7000
337.298392 69.198 166.8463
339.742595 69.165 167.0148
342.204510 69.135 167.2014
344.684265 69.108 167.4026
347.181989 69.084 167.6150
349.697813 69.063 167.8358
352.231868 69.045 168.0627
354.784285 69.029 168.2935
357.355198 69.017 168.5259
359.944741 69.007 168.7574
362.553049 69.000 168.9854
365.180258 68.996 169.2073
367.826505 68.995 169.4210
370.491927 68.996 169.6250
373.176665 68.999 169.8181
375.880856 69.005 169.9998
378.604644 69.013 170.1697
381.348169 69.022 170.3278
384.111575 69.034 170.4734
386.895006 69.047 170.6061
389.698607 69.061 170.7248
392.522524 69.077 170.8285
395.366904 69.094 170.9161
398.231895 69.111 170.9868
401.117648 69.129 171.0402
404.024312 69.147 171.0765
406.952038 69.164 171.0964
409.900981 69.181 171.1011
412.871292 69.198 171.0921
415.863128 69.214 171.0705
418.876643 69.230 171.0372
421.911996 69.245 170.9921
424.969344 69.259 170.9347
428.048847 69.273 170.8633
431.150666 69.287 170.7762
434.274961 69.299 170.6707
437.421897 69.310 170.5446
440.591636 69.321 170.3954
443.784345 69.330 170.2215
447.000189 69.337 170.0213
450.239337 69.342 169.7941
453.501956 69.346 169.5392
456.788219 69.347 169.2564
460.098294 69.346 168.9455
463.432356 69.341 168.6061
466.790578 69.333 168.2383
470.173135 69.321 167.8422
473.580203 69.304 167.4188
477.011961 69.281 166.9702
480.468586 69.252 166.4999
483.950259 69.217 166.0128
487.457163 69.175 165.5154
490.989478 69.125 165.0153
494.547390 69.067 164.5212
498.131084 69.001 164.0423
501.740748 68.928 163.5883
505.376568 68.846 163.1687
509.038735 68.758 162.7923
512.727439 68.664 162.4669
516.442874 68.565 162.1991
520.185232 68.462 161.9937
523.954708 68.358 161.8544
527.751500 68.252 161.7832
531.575805 68.148 161.7810
535.427822 68.046 161.8475
539.307753 67.948 161.9816
543.215800 67.855 162.1808
547.152165 67.768 162.4421
551.117055 67.688 162.7615
555.110677 67.617 163.1342
559.133237 67.555 163.5547
563.184947 67.503 164.0171
567.266018 67.461 164.5143
571.376661 67.430 165.0391
575.517092 67.410 165.5834
579.687526 67.400 166.1391
583.888181 67.401 166.6981
588.119275 67.412 167.2528
592.381030 67.431 167.7964
596.673667 67.459 168.3228
600.997410 67.494 168.8276
605.352485 67.536 169.3075
609.739119 67.583 169.7602
614.157540 67.636 170.1838
618.607979 67.693 170.5762
623.090667 67.755 170.9341
627.605839 67.822 171.2531
632.153730 67.892 171.5277
636.734576 67.967 171.7513
641.348617 68.045 171.9167
645.996094 68.125 172.0165
650.677248 68.206 172.0446
655.392323 68.288 171.9961
660.141566 68.368 171.8687
664.925224 68.444 171.6625
669.743546 68.516 171.3801
674.596784 68.580 171.0258
679.485191 68.636 170.6054
684.409020 68.682 170.1258
689.368530 68.718 169.5948
694.363979 68.740 169.0215
699.395626 68.749 168.4166
704.463736 68.744 167.7919
709.568570 68.724 167.1609
714.710396 68.687 166.5379
719.889483 68.636 165.9380
725.106099 68.569 165.3765
730.360516 68.487 164.8688
735.653010 68.393 164.4291
740.983855 68.286 164.0709
746.353329 68.170 163.8055
751.761713 68.046 163.6420
757.209288 67.917 163.5864
762.696339 67.786 163.6407
768.223151 67.657 163.8030
773.790013 67.532 164.0670
779.397214 67.414 164.4225
785.045047 67.306 164.8559
790.733808 67.210 165.3511
796.463791 67.128 165.8911
802.235296 67.060 166.4581
808.048623 67.006 167.0359
813.904077 66.968 167.6099
819.801961 66.943 168.1677
825.742584 66.932 168.6990
831.726255 66.934 169.1942
837.753287 66.949 169.6432
843.823992 66.975 170.0352
849.938689 67.011 170.3587
856.097695 67.055 170.6037
862.301332 67.105 170.7624
868.549922 67.159 170.8306
874.843793 67.213 170.8079
881.183272 67.267 170.6974
887.568689 67.317 170.5056
894.000378 67.361 170.2412
900.478673 67.399 169.9140
907.003913 67.430 169.5340
913.576437 67.452 169.1117
920.196588 67.465 168.6580
926.864712 67.469 168.1845
933.581156 67.462 167.7039
940.346270 67.446 167.2292
947.160407 67.422 166.7737
954.023921 67.389 166.3499
960.937172 67.350 165.9689
967.900519 67.307 165.6393
974.914325 67.262 165.3662
981.978956 67.218 165.1497
989.094780 67.176 164.9854
996.262169 67.140 164.8641
1003.481495 67.109 164.7736
1010.753136 67.085 164.7000
1018.077470 67.068 164.6306
1025.454879 67.056 164.5547
1032.885748 67.048 164.4662
1040.370463 67.042 164.3631
1047.909417 67.037 164.2476
1055.503000 67.032 164.1251
1063.151610 67.026 164.0027
1070.855645 67.018 163.8880
1078.615506 67.010 163.7881
1086.431599 67.001 163.7085
1094.304330 66.993 163.6513
1102.234110 66.987 163.6150
1110.221353 66.984 163.5937
1118.266475 66.985 163.5776
1126.369895 66.989 163.5545
1134.532035 66.996 163.5120
1142.753322 67.004 163.4400
1151.034184 67.012 163.3318
1159.375052 67.017 163.1858
1167.776361 67.017 163.0054
1176.238550 67.010 162.7994
1184.762060 66.994 162.5815
1193.347334 66.968 162.3692
1201.994821 66.932 162.1819
1210.704971 66.887 162.0390
1219.478238 66.835 161.9579
1228.315080 66.778 161.9519
1237.215957 66.720 162.0282
1246.181334 66.662 162.1870
1255.211678 66.609 162.4216
1264.307459 66.563 162.7207
1273.469152 66.526 163.0695
1282.697235 66.498 163.4515
1291.992188 66.479 163.8502
1301.354495 66.471 164.2494
1310.784647 66.471 164.6342
1320.283132 66.479 164.9913
1329.850448 66.493 165.3094
1339.487093 66.510 165.5803
1349.193569 66.530 165.7989
1358.970381 66.548 165.9655
1368.818041 66.563 166.0857
1378.737061 66.573 166.1701
1388.727958 66.577 166.2328
1398.791253 66.575 166.2895
1408.927471 66.566 166.3550
1419.137140 66.552 166.4417
1429.420793 66.534 166.5585
1439.778965 66.513 166.7121
1450.212197 66.490 166.9071
1460.721033 66.466 167.1477
1471.306019 66.441 167.4383
1481.967709 66.418 167.7831
1492.706658 66.396 168.1859
1503.523426 66.377 168.6483
1514.418576 66.363 169.1696
1525.392678 66.354 169.7460
1536.446302 66.352 170.3704
1547.580025 66.357 171.0340
1558.794428 66.370 171.7267
1570.090095 66.391 172.4374
1581.467615 66.420 173.1532
1592.927581 66.456 173.8600
1604.470591 66.499 174.5420
1616.097246 66.548 175.1827
1627.808153 66.600 175.7662
1639.603922 66.652 176.2784
1651.485168 66.702 176.7109
1663.452510 66.745 177.0632
1675.506573 66.777 177.3456
1687.647984 66.796 177.5789
1699.877377 66.798 177.7933
1712.195390 66.783 178.0247
1724.602663 66.753 178.3109
1737.099845 66.709 178.6874
1749.687587 66.656 179.1820
1762.366544 66.600 179.8112
1775.137379 66.547 -179.4220
1788.000756 66.501 -178.5284
1800.957346 66.468 -177.5303
1814.007826 66.452 -176.4594
1827.152874 66.454 -175.3524
1840.393177 66.474 -174.2478
1853.729425 66.512 -173.1824
1867.162312 66.566 -172.1884
1880.692540 66.631 -171.2916
1894.320813 66.703 -170.5088
1908.047843 66.778 -169.8474
1921.874344 66.851 -169.3047
1935.801038 66.918 -168.8691
1949.828650 66.975 -168.5215
1963.957912 67.019 -168.2369
1978.189561 67.050 -167.9866
1992.524338 67.066 -167.7411
2006.962991 67.069 -167.4718
2021.506272 67.061 -167.1548
2036.154940 67.046 -166.7730
2050.909758 67.027 -166.3191
2065.771495 67.009 -165.7955
2080.740927 66.995 -165.2134
2095.818833 66.988 -164.5906
2111.006001 66.990 -163.9484
2126.303220 67.001 -163.3085
2141.711290 67.021 -162.6898
2157.231013 67.050 -162.1073
2172.863198 67.084 -161.5695
2188.608660 67.123 -161.0794
2204.468221 67.165 -160.6349
2220.442706 67.209 -160.2311
2236.532950 67.253 -159.8613
2252.739789 67.297 -159.5183
2269.064070 67.341 -159.1936
2285.506644 67.385 -158.8775
2302.068367 67.429 -158.5611
2318.750104 67.475 -158.2381
2335.552723 67.524 -157.9074
2352.477101 67.578 -157.5738
2369.524119 67.638 -157.2465
2386.694668 67.704 -156.9361
2403.989641 67.777 -156.6526
2421.409941 67.855 -156.4042
2438.956476 67.938 -156.1966
2456.630160 68.024 -156.0314
2474.431915 68.112 -155.9048
2492.362668 68.201 -155.8084
2510.423356 68.290 -155.7308
2528.614918 68.380 -155.6613
2546.938304 68.474 -155.5920
2565.394469 68.571 -155.5197
2583.984375 68.674 -155.4468
2602.708991 68.785 -155.3809
2621.569293 68.903 -155.3330
2640.566265 69.028 -155.3156
2659.700897 69.161 -155.3403
2678.974186 69.298 -155.4169
2698.387137 69.439 -155.5528
2717.940763 69.580 -155.7532
2737.636082 69.720 -156.0204
2757.474121 69.856 -156.3528
2777.455915 69.985 -156.7435
2797.582506 70.105 -157.1793
2817.854942 70.215 -157.6418
2838.274281 70.313 -158.1104
2858.841586 70.403 -158.5661
2879.557931 70.484 -158.9946
2900.424394 70.560 -159.3874
2921.442065 70.632 -159.7422
2942.612039 70.701 -160.0625
2963.935418 70.770 -160.3557
2985.413316 70.837 -160.6313
3007.046852 70.902 -160.8992
3028.837153 70.965 -161.1678
3050.785356 71.023 -161.4434
3072.892604 71.074 -161.7273
3095.160050 71.116 -162.0153
3117.588856 71.149 -162.2989
3140.180190 71.172 -162.5681
3162.935230 71.184 -162.8142
3185.855163 71.187 -163.0327
3208.941182 71.181 -163.2236
3232.194493 71.166 -163.3909
3255.616307 71.141 -163.5378
3279.207844 71.105 -163.6628
3302.970336 71.055 -163.7560
3326.905021 70.991 -163.7987
3351.013146 70.913 -163.7669
3375.295969 70.822 -163.6357
3399.754755 70.721 -163.3845
3424.390779 70.614 -163.0015
3449.205326 70.507 -162.4861
3474.199690 70.404 -161.8486
3499.375173 70.309 -161.1079
3524.733088 70.226 -160.2879
3550.274757 70.155 -159.4132
3576.001511 70.098 -158.5025
3601.914692 70.054 -157.5652
3628.015651 70.022 -156.6008
3654.305748 70.005 -155.6033
3680.786354 70.004 -154.5660
3707.458849 70.022 -153.4849
3734.324624 70.062 -152.3603
3761.385080 70.126 -151.1983
3788.641627 70.220 -150.0106
3816.095686 70.344 -148.8148
3843.748688 70.500 -147.6337
3871.602076 70.689 -146.4964
3899.657300 70.910 -145.4386
3927.915825 71.160 -144.5001
3956.379122 71.433 -143.7189
3985.048676 71.724 -143.1217
4013.925981 72.025 -142.7155
4043.012544 72.332 -142.4857
4072.309879 72.640 -142.4017
4101.819515 72.949 -142.4266
4131.542990 73.263 -142.5303
4161.481854 73.584 -142.7008
4191.637667 73.916 -142.9499
4222.012001 74.260 -143.3102
4252.606441 74.613 -143.8260
4283.422580 74.969 -144.5412
4314.462026 75.320 -145.4884
4345.726396 75.658 -146.6834
4377.217321 75.976 -148.1234
4408.936442 76.267 -149.7921
4440.885413 76.525 -151.6638
4473.065899 76.747 -153.7069
4505.479579 76.930 -155.8842
4538.128141 77.074 -158.1558
4571.013288 77.180 -160.4836
4604.136735 77.250 -162.8353
4637.500207 77.288 -165.1875
4671.105446 77.296 -167.5237
4704.954201 77.276 -169.8316
4739.048239 77.230 -172.1020
4773.389336 77.160 -174.3259
4807.979283 77.066 -176.4944
4842.819883 76.948 -178.5974
4877.912952 76.807 179.3764
4913.260320 76.644 177.4406
4948.863830 76.458 175.6100
4984.725337 76.252 173.9010
5020.846712 76.026 172.3302
5057.229836 75.783 170.9148
5093.876609 75.525 169.6721
5130.788938 75.254 168.6201
5167.968750 74.975 167.7764
5205.417982 74.690 167.1558
5243.138586 74.406 166.7686
5281.132530 74.129 166.6182
5319.401793 73.864 166.7011
5357.948371 73.618 167.0076
5396.774274 73.397 167.5216
5435.881525 73.206 168.2206
5475.272163 73.052 169.0744
5514.948243 72.937 170.0450
5554.911831 72.866 171.0864
5595.165012 72.838 172.1462
5635.709884 72.852 173.1695
5676.548561 72.906 174.1038
5717.683172 72.992 174.9033
5759.115861 73.104 175.5322
5800.848789 73.234 175.9662
5842.884130 73.375 176.1920
5885.224077 73.517 176.2079
5927.870837 73.654 176.0241
5970.826633 73.779 175.6609
6014.093704 73.887 175.1475
6057.674306 73.975 174.5172
6101.570711 74.041 173.8039
6145.785208 74.084 173.0385
6190.320101 74.106 172.2476
6235.177712 74.106 171.4548
6280.360380 74.085 170.6819
6325.870460 74.045 169.9502
6371.710325 73.986 169.2803
6417.882365 73.912 168.6909
6464.388986 73.826 168.1968
6511.232613 73.731 167.8069
6558.415689 73.632 167.5226
6605.940673 73.534 167.3370
6653.810042 73.442 167.2349
6702.026292 73.359 167.1926
6750.591937 73.288 167.1800
6799.509509 73.232 167.1627
6848.781558 73.192 167.1055
6898.410653 73.168 166.9753
6948.399380 73.159 166.7433
6998.750346 73.164 166.3837
7049.466176 73.181 165.8719
7100.549514 73.211 165.1834
7152.003023 73.250 164.2933
7203.829385 73.297 163.1768
7256.031302 73.348 161.8098
7308.611496 73.400 160.1698
7361.572708 73.449 158.2371
7414.917698 73.489 155.9955
7468.649249 73.516 153.4327
7522.770160 73.525 150.5389
7577.283253 73.513 147.3047
7632.191371 73.475 143.7190
7687.497376 73.411 139.7664
7743.204151 73.318 135.4230
7799.314600 73.197 130.6516
7855.831649 73.049 125.3928
7912.758244 72.879 119.5526
7970.097352 72.691 112.9788
8027.851962 72.494 105.4212
8086.025087 72.295 96.4596
8144.619758 72.106 85.3745
8203.639030 71.937 70.9647
8263.085980 71.800 51.5701
8322.963708 71.704 26.5259
8383.275334 71.657 -0.4810
8444.024002 71.661 -23.4452
8505.212881 71.718 -40.6000
8566.845160 71.826 -53.3276
8628.924051 71.980 -63.1705
8691.452792 72.175 -71.1364
8754.434642 72.408 -77.8281
8817.872884 72.673 -83.6130
8881.770826 72.967 -88.7284
8946.131799 73.285 -93.3390
9010.959157 73.624 -97.5681
9076.256282 73.979 -101.5138
9142.026576 74.347 -105.2574
9208.273470 74.723 -108.8689
9275.000415 75.102 -112.4093
9342.210891 75.480 -115.9326
9409.908403 75.851 -119.4858
9478.096478 76.210 -123.1097
9546.778672 76.548 -126.8372
9615.958566 76.861 -130.6925
9685.639765 77.139 -134.6898
9755.825904 77.376 -138.8326
9826.520640 77.565 -143.1121
9897.727659 77.697 -147.5081
9969.450674 77.767 -151.9884
10041.693423 77.771 -156.5109
10114.459673 77.705 -161.0250
10187.753217 77.568 -165.4763
10261.577877 77.361 -169.8086
10335.937500 77.086 -173.9685
10410.835964 76.748 -177.9089
10486.277173 76.353 178.4083
10562.265060 75.908 175.0096
10638.803587 75.422 171.9088
10715.896743 74.903 169.1052
10793.548548 74.361 166.5845
10871.763050 73.803 164.3201
10950.544327 73.238 162.2766
11029.896485 72.672 160.4146
11109.823662 72.108 158.6974
11190.330024 71.547 157.0964
11271.419768 70.990 155.5952
11353.097122 70.433 154.1901
11435.366344 69.876 152.8882
11518.231722 69.315 151.7030
11601.697577 68.751 150.6476
11685.768261 68.185 149.7286
11770.448155 67.618 148.9401
11855.741674 67.057 148.2605
11941.653265 66.506 147.6520
12028.187408 65.968 147.0652
12115.348612 65.447 146.4489
12203.141422 64.940 145.7616
12291.570415 64.444 144.9850
12380.640201 63.949 144.1353
12470.355424 63.446 143.2725
12560.720760 62.921 142.5080
12651.740920 62.366 142.0097
12743.420650 61.773 142.0044
12835.764729 61.141 142.7736
12928.777972 60.477 144.6423
13022.465227 59.796 147.9599
13116.831378 59.122 153.0554
13211.881345 58.487 160.1264
13307.620084 57.932 169.0113
13404.052584 57.496 178.9388
13501.183875 57.213 -171.3885
13599.019019 57.100 -163.2071
13697.563116 57.147 -157.1488
13796.821305 57.325 -153.2334
13896.798760 57.591 -151.1634
13997.500692 57.903 -150.5668
14098.932352 58.224 -151.1080
14201.099028 58.526 -152.5174
14304.006046 58.789 -154.5865
14407.658770 58.999 -157.1538
14512.062604 59.146 -160.0885
14617.222992 59.224 -163.2802
14723.145416 59.230 -166.6316
14829.835397 59.166 -170.0580
14937.298497 59.034 -173.4872
15045.540320 58.839 -176.8602
15154.566507 58.587 179.8689
15264.382743 58.285 176.7345
15374.994752 57.941 173.7609
15486.408302 57.563 170.9633
15598.629201 57.158 168.3479
15711.663298 56.736 165.9108
15825.516487 56.305 163.6373
15940.194703 55.876 161.5018
16055.703925 55.460 159.4674
16172.050174 55.066 157.4863
16289.239516 54.705 155.4983
16407.278061 54.386 153.4326
16526.171961 54.113 151.2131
16645.927415 53.888 148.7681
16766.550667 53.707 146.0389
16888.048005 53.564 142.9852
17010.425762 53.449 139.5867
17133.690320 53.353 135.8415
17257.848103 53.271 131.7636
17382.905584 53.200 127.3783
17508.869284 53.144 122.7122
17635.745768 53.114 117.7807
17763.541652 53.122 112.5753
17892.263597 53.183 107.0551
18021.918315 53.306 101.1487
18152.512564 53.491 94.7632
18284.053153 53.729 87.7922
18416.546939 54.009 80.1193
18550.000830 54.312 71.6098
18684.421783 54.622 62.0996
18819.816805 54.924 51.3879
18956.192956 55.202 39.2636
19093.557344 55.447 25.6164
19231.917131 55.650 10.6763
19371.279531 55.808 -4.6973
19511.651807 55.923 -19.0350
19653.041280 55.999 -30.8026
19795.455318 56.043 -38.9791
19938.901348 56.063 -43.1257
