* Measurement data measured by REW V5.31.3
* Source: EXCL: Headset (USB-C to 3.5mm Headphone Jack Adapter), MICROPHONE (Master Volume), 0, volume: 0.200
* Format: 256k Log Swept Sine, 1 sweep at -12.0 dBFS with no timing reference
* Dated: Jun 13, 2025 2:32:27 PM
* REW Settings:
*  C-weighting compensation: Off
*  Target level: 75.0 dB
* Note: ; 
* Measurement: Arya Stealth 2 R2
* Smoothing: 1/6 octave
* Frequency Step: 96 ppo
* Start Frequency: 20.0 Hz
*
* Freq(Hz) SPL(dB) Phase(degrees)
20.187378 65.931 -95.8370
20.333664 65.959 -96.0413
20.481010 65.996 -96.3137
20.629424 66.040 -96.6445
20.778913 66.092 -97.0230
20.929486 66.150 -97.4387
21.081150 66.213 -97.8815
21.233912 66.279 -98.3426
21.387782 66.347 -98.8142
21.542767 66.418 -99.2906
21.698874 66.490 -99.7673
21.856113 66.563 -100.2414
22.014492 66.636 -100.7117
22.174018 66.709 -101.1783
22.334700 66.781 -101.6425
22.496546 66.851 -102.1064
22.659566 66.920 -102.5728
22.823766 66.986 -103.0447
22.989157 67.050 -103.5248
23.155745 67.109 -104.0156
23.323542 67.164 -104.5186
23.492554 67.215 -105.0345
23.662790 67.260 -105.5629
23.834261 67.299 -106.1026
24.006973 67.333 -106.6515
24.180938 67.362 -107.2069
24.356163 67.386 -107.7661
24.532658 67.405 -108.3261
24.710431 67.419 -108.8841
24.889493 67.431 -109.4378
25.069853 67.439 -109.9855
25.251519 67.445 -110.5259
25.434502 67.449 -111.0582
25.618811 67.452 -111.5821
25.804456 67.454 -112.0975
25.991445 67.456 -112.6045
26.179790 67.457 -113.1034
26.369500 67.458 -113.5945
26.560584 67.460 -114.0782
26.753053 67.461 -114.5550
26.946917 67.464 -115.0255
27.142185 67.466 -115.4903
27.338869 67.470 -115.9503
27.536977 67.474 -116.4061
27.736522 67.479 -116.8586
27.937512 67.484 -117.3085
28.139959 67.490 -117.7562
28.343872 67.496 -118.2019
28.549264 67.503 -118.6459
28.756143 67.510 -119.0881
28.964522 67.518 -119.5284
29.174411 67.526 -119.9667
29.385821 67.534 -120.4030
29.598763 67.543 -120.8373
29.813248 67.552 -121.2698
30.029287 67.563 -121.7004
30.246891 67.574 -122.1291
30.466073 67.586 -122.5555
30.686842 67.600 -122.9792
30.909212 67.616 -123.3996
31.133193 67.634 -123.8161
31.358797 67.655 -124.2286
31.586035 67.680 -124.6375
31.814921 67.709 -125.0439
32.045465 67.744 -125.4492
32.277680 67.784 -125.8557
32.511577 67.829 -126.2653
32.747169 67.881 -126.6795
32.984469 67.937 -127.0987
33.223488 67.999 -127.5216
33.464239 68.064 -127.9455
33.706735 68.132 -128.3662
33.950987 68.202 -128.7787
34.197010 68.275 -129.1780
34.444816 68.349 -129.5598
34.694417 68.423 -129.9215
34.945827 68.499 -130.2627
35.199059 68.574 -130.5851
35.454126 68.650 -130.8923
35.711041 68.725 -131.1894
35.969818 68.798 -131.4817
36.230470 68.869 -131.7743
36.493011 68.938 -132.0713
36.757455 69.003 -132.3752
37.023814 69.066 -132.6869
37.292104 69.125 -133.0060
37.562338 69.181 -133.3304
37.834530 69.235 -133.6575
38.108695 69.286 -133.9840
38.384846 69.337 -134.3067
38.662999 69.387 -134.6228
38.943167 69.436 -134.9303
39.225365 69.486 -135.2285
39.509608 69.536 -135.5179
39.795911 69.587 -135.8005
40.084289 69.639 -136.0792
40.374756 69.690 -136.3577
40.667328 69.742 -136.6400
40.962020 69.792 -136.9295
41.258848 69.841 -137.2290
41.557827 69.888 -137.5401
41.858972 69.933 -137.8634
42.162299 69.975 -138.1981
42.467824 70.014 -138.5429
42.775564 70.050 -138.8957
43.085533 70.083 -139.2547
43.397749 70.113 -139.6179
43.712227 70.141 -139.9838
44.028983 70.168 -140.3513
44.348036 70.193 -140.7193
44.669400 70.217 -141.0867
44.993093 70.240 -141.4518
45.319131 70.264 -141.8127
45.647532 70.288 -142.1670
45.978313 70.312 -142.5126
46.311491 70.338 -142.8476
46.647083 70.363 -143.1714
46.985107 70.389 -143.4841
47.325581 70.415 -143.7864
47.668521 70.438 -144.0798
48.013947 70.460 -144.3657
48.361876 70.478 -144.6456
48.712326 70.492 -144.9216
49.065315 70.502 -145.1962
49.420863 70.508 -145.4725
49.778987 70.510 -145.7544
50.139706 70.510 -146.0452
50.503039 70.508 -146.3475
50.869005 70.505 -146.6621
51.237623 70.503 -146.9877
51.608912 70.501 -147.3214
51.982891 70.500 -147.6589
52.359580 70.502 -147.9954
52.739000 70.505 -148.3264
53.121168 70.510 -148.6482
53.506106 70.516 -148.9587
53.893833 70.522 -149.2574
54.284370 70.528 -149.5457
54.677737 70.533 -149.8267
55.073955 70.537 -150.1046
55.473043 70.540 -150.3840
55.875024 70.541 -150.6691
56.279917 70.541 -150.9633
56.687745 70.540 -151.2687
57.098527 70.537 -151.5863
57.512287 70.534 -151.9154
57.929045 70.531 -152.2539
58.348822 70.530 -152.5975
58.771642 70.532 -152.9402
59.197525 70.539 -153.2749
59.626495 70.551 -153.5956
60.058573 70.570 -153.8982
60.493782 70.597 -154.1820
60.932145 70.630 -154.4491
61.373685 70.669 -154.7036
61.818424 70.711 -154.9504
62.266386 70.757 -155.1947
62.717593 70.804 -155.4410
63.172071 70.851 -155.6931
63.629842 70.898 -155.9539
64.090930 70.944 -156.2245
64.555359 70.990 -156.5051
65.023154 71.036 -156.7950
65.494339 71.080 -157.0929
65.968938 71.124 -157.3974
66.446976 71.166 -157.7069
66.928478 71.208 -158.0197
67.413469 71.248 -158.3343
67.901975 71.287 -158.6494
68.394021 71.324 -158.9638
68.889632 71.359 -159.2772
69.388835 71.392 -159.5892
69.891655 71.423 -159.8998
70.398118 71.452 -160.2090
70.908252 71.478 -160.5164
71.422083 71.501 -160.8214
71.939636 71.521 -161.1233
72.460941 71.538 -161.4211
72.986023 71.552 -161.7145
73.514909 71.564 -162.0031
74.047629 71.573 -162.2869
74.584208 71.580 -162.5663
75.124676 71.585 -162.8418
75.669061 71.588 -163.1140
76.217390 71.590 -163.3832
76.769692 71.590 -163.6495
77.325997 71.589 -163.9126
77.886333 71.587 -164.1723
78.450730 71.585 -164.4281
79.019216 71.583 -164.6801
79.591822 71.581 -164.9285
80.168577 71.578 -165.1740
80.749512 71.576 -165.4176
81.334656 71.575 -165.6608
81.924040 71.573 -165.9052
82.517696 71.572 -166.1527
83.115653 71.571 -166.4044
83.717943 71.571 -166.6613
84.324598 71.572 -166.9236
84.935649 71.573 -167.1915
85.551128 71.575 -167.4654
86.171066 71.578 -167.7454
86.795497 71.581 -168.0320
87.424453 71.584 -168.3259
88.057967 71.587 -168.6279
88.696071 71.590 -168.9388
89.338800 71.593 -169.2597
89.986185 71.594 -169.5914
90.638262 71.595 -169.9343
91.295065 71.595 -170.2885
91.956626 71.594 -170.6536
92.622982 71.591 -171.0285
93.294166 71.586 -171.4122
93.970214 71.580 -171.8028
94.651161 71.572 -172.1988
95.337042 71.561 -172.5984
96.027894 71.549 -172.9996
96.723752 71.535 -173.4010
97.424652 71.519 -173.8013
98.130631 71.502 -174.1996
98.841726 71.484 -174.5948
99.557974 71.465 -174.9861
100.279412 71.445 -175.3725
101.006078 71.425 -175.7530
101.738010 71.405 -176.1265
102.475245 71.384 -176.4920
103.217823 71.364 -176.8487
103.965782 71.343 -177.1959
104.719161 71.323 -177.5334
105.477999 71.303 -177.8616
106.242336 71.283 -178.1809
107.012212 71.264 -178.4917
107.787666 71.244 -178.7943
108.568740 71.224 -179.0886
109.355474 71.205 -179.3742
110.147909 71.185 -179.6504
110.946086 71.165 -179.9169
111.750047 71.146 179.8271
112.559834 71.127 179.5818
113.375489 71.109 179.3466
114.197055 71.092 179.1202
115.024574 71.076 178.9008
115.858089 71.061 178.6861
116.697645 71.047 178.4740
117.543284 71.034 178.2628
118.395051 71.022 178.0509
119.252990 71.010 177.8369
120.117147 70.999 177.6193
120.987565 70.987 177.3969
121.864291 70.974 177.1690
122.747370 70.960 176.9353
123.636848 70.944 176.6962
124.532771 70.927 176.4524
125.435187 70.908 176.2052
126.344142 70.887 175.9559
127.259684 70.863 175.7060
128.181860 70.837 175.4571
129.110718 70.808 175.2109
130.046308 70.776 174.9691
130.988677 70.740 174.7336
131.937875 70.702 174.5065
132.893951 70.660 174.2901
133.856956 70.615 174.0872
134.826938 70.567 173.9006
135.803950 70.517 173.7331
136.788041 70.466 173.5869
137.779264 70.413 173.4641
138.777669 70.359 173.3661
139.783309 70.304 173.2938
140.796237 70.249 173.2472
141.816504 70.194 173.2256
142.844165 70.139 173.2274
143.879273 70.085 173.2508
144.921881 70.032 173.2936
145.972045 69.979 173.3539
147.029819 69.928 173.4301
148.095257 69.879 173.5204
149.168417 69.832 173.6237
150.249353 69.787 173.7386
151.338121 69.745 173.8643
152.434780 69.706 173.9998
153.539385 69.671 174.1445
154.651995 69.640 174.2976
155.772667 69.613 174.4576
156.901460 69.590 174.6221
158.038432 69.571 174.7881
159.183644 69.554 174.9526
160.337154 69.541 175.1132
161.499023 69.530 175.2680
162.669312 69.521 175.4158
163.848081 69.515 175.5559
165.035392 69.511 175.6878
166.231306 69.508 175.8112
167.435887 69.507 175.9258
168.649196 69.507 176.0313
169.871298 69.508 176.1271
171.102255 69.510 176.2124
172.342133 69.514 176.2866
173.590995 69.518 176.3488
174.848907 69.523 176.3987
176.115934 69.528 176.4368
177.392143 69.535 176.4639
178.677599 69.542 176.4813
179.972371 69.550 176.4904
181.276525 69.559 176.4922
182.590129 69.568 176.4872
183.913252 69.577 176.4755
185.245964 69.586 176.4562
186.588332 69.595 176.4282
187.940428 69.603 176.3904
189.302322 69.610 176.3419
190.674085 69.616 176.2823
192.055788 69.620 176.2118
193.447503 69.623 176.1309
194.849303 69.624 176.0402
196.261262 69.625 175.9408
197.683452 69.625 175.8338
199.115948 69.626 175.7209
200.558824 69.626 175.6039
202.012156 69.627 175.4848
203.476019 69.629 175.3656
204.950490 69.631 175.2476
206.435646 69.634 175.1313
207.931564 69.636 175.0160
209.438322 69.639 174.9002
210.955998 69.642 174.7819
212.484672 69.645 174.6594
214.024424 69.648 174.5317
215.575333 69.651 174.3982
217.137481 69.653 174.2584
218.710948 69.655 174.1122
220.295818 69.657 173.9598
221.892172 69.659 173.8019
223.500094 69.662 173.6390
225.119668 69.664 173.4720
226.750978 69.667 173.3015
228.394109 69.670 173.1279
230.049147 69.675 172.9510
231.716178 69.681 172.7700
233.395289 69.689 172.5841
235.086567 69.698 172.3924
236.790102 69.709 172.1944
238.505980 69.721 171.9899
240.234293 69.733 171.7788
241.975130 69.747 171.5610
243.728581 69.760 171.3358
245.494739 69.774 171.1022
247.273695 69.787 170.8590
249.065542 69.800 170.6052
250.870374 69.812 170.3406
252.688284 69.823 170.0655
254.519367 69.832 169.7815
256.363720 69.838 169.4906
258.221437 69.842 169.1950
260.092616 69.843 168.8961
261.977354 69.842 168.5942
263.875750 69.837 168.2888
265.787903 69.830 167.9789
267.713911 69.820 167.6642
269.653877 69.807 167.3456
271.607900 69.791 167.0247
273.576083 69.772 166.7042
275.558528 69.749 166.3874
277.555338 69.722 166.0775
279.566619 69.692 165.7778
281.592474 69.657 165.4921
283.633009 69.617 165.2241
285.688331 69.574 164.9785
287.758546 69.527 164.7601
289.843763 69.477 164.5740
291.944090 69.424 164.4253
294.059638 69.368 164.3186
296.190515 69.312 164.2583
298.336833 69.255 164.2474
300.498705 69.199 164.2882
302.676243 69.145 164.3810
304.869559 69.093 164.5250
307.078770 69.046 164.7172
309.303989 69.004 164.9536
311.545334 68.968 165.2283
313.802919 68.938 165.5349
316.076865 68.916 165.8658
318.367288 68.902 166.2134
320.674309 68.896 166.5698
322.998047 68.897 166.9272
325.338624 68.906 167.2784
327.696162 68.921 167.6169
330.070783 68.942 167.9366
332.462612 68.969 168.2324
334.871773 69.000 168.5000
337.298392 69.034 168.7363
339.742595 69.070 168.9391
342.204510 69.109 169.1076
344.684265 69.148 169.2417
347.181989 69.188 169.3419
349.697813 69.228 169.4094
352.231868 69.266 169.4454
354.784285 69.303 169.4512
357.355198 69.339 169.4288
359.944741 69.372 169.3807
362.553049 69.402 169.3103
365.180258 69.430 169.2212
367.826505 69.455 169.1174
370.491927 69.477 169.0026
373.176665 69.497 168.8801
375.880856 69.514 168.7526
378.604644 69.530 168.6225
381.348169 69.545 168.4915
384.111575 69.559 168.3605
386.895006 69.572 168.2296
389.698607 69.587 168.0979
392.522524 69.602 167.9630
395.366904 69.619 167.8210
398.231895 69.637 167.6672
401.117648 69.657 167.4956
404.024312 69.678 167.3001
406.952038 69.700 167.0742
409.900981 69.723 166.8116
412.871292 69.746 166.5069
415.863128 69.767 166.1556
418.876643 69.786 165.7547
421.911996 69.800 165.3026
424.969344 69.810 164.7995
428.048847 69.812 164.2473
431.150666 69.805 163.6497
434.274961 69.789 163.0121
437.421897 69.760 162.3419
440.591636 69.719 161.6478
443.784345 69.664 160.9407
447.000189 69.593 160.2331
450.239337 69.507 159.5393
453.501956 69.406 158.8752
456.788219 69.289 158.2581
460.098294 69.157 157.7061
463.432356 69.012 157.2375
466.790578 68.855 156.8696
470.173135 68.689 156.6177
473.580203 68.516 156.4937
477.011961 68.340 156.5054
480.468586 68.164 156.6553
483.950259 67.993 156.9405
487.457163 67.830 157.3521
490.989478 67.678 157.8758
494.547390 67.542 158.4931
498.131084 67.422 159.1823
501.740748 67.322 159.9200
505.376568 67.241 160.6836
509.038735 67.179 161.4518
512.727439 67.137 162.2064
516.442874 67.112 162.9319
520.185232 67.104 163.6166
523.954708 67.109 164.2517
527.751500 67.127 164.8314
531.575805 67.155 165.3527
535.427822 67.191 165.8145
539.307753 67.235 166.2169
543.215800 67.285 166.5613
547.152165 67.340 166.8494
551.117055 67.399 167.0828
555.110677 67.461 167.2635
559.133237 67.525 167.3940
563.184947 67.592 167.4769
567.266018 67.659 167.5151
571.376661 67.727 167.5108
575.517092 67.796 167.4650
579.687526 67.865 167.3772
583.888181 67.933 167.2451
588.119275 67.999 167.0654
592.381030 68.064 166.8345
596.673667 68.124 166.5490
600.997410 68.179 166.2072
605.352485 68.226 165.8089
609.739119 68.265 165.3567
614.157540 68.293 164.8558
618.607979 68.308 164.3141
623.090667 68.309 163.7426
627.605839 68.295 163.1549
632.153730 68.265 162.5675
636.734576 68.218 161.9987
641.348617 68.154 161.4680
645.996094 68.074 160.9954
650.677248 67.979 160.6013
655.392323 67.871 160.3052
660.141566 67.753 160.1250
664.925224 67.626 160.0747
669.743546 67.496 160.1625
674.596784 67.366 160.3889
679.485191 67.241 160.7460
684.409020 67.125 161.2189
689.368530 67.019 161.7878
694.363979 66.927 162.4318
699.395626 66.849 163.1306
704.463736 66.786 163.8665
709.568570 66.738 164.6238
714.710396 66.705 165.3885
719.889483 66.686 166.1476
725.106099 66.682 166.8876
730.360516 66.692 167.5948
735.653010 66.714 168.2549
740.983855 66.748 168.8552
746.353329 66.790 169.3855
751.761713 66.841 169.8388
757.209288 66.897 170.2108
762.696339 66.958 170.4982
768.223151 67.021 170.6979
773.790013 67.086 170.8065
779.397214 67.150 170.8212
785.045047 67.213 170.7408
790.733808 67.271 170.5668
796.463791 67.324 170.3040
802.235296 67.369 169.9604
808.048623 67.404 169.5458
813.904077 67.429 169.0716
819.801961 67.443 168.5491
825.742584 67.444 167.9903
831.726255 67.431 167.4080
837.753287 67.405 166.8170
843.823992 67.364 166.2339
849.938689 67.309 165.6772
856.097695 67.239 165.1662
862.301332 67.156 164.7196
868.549922 67.063 164.3541
874.843793 66.961 164.0835
881.183272 66.853 163.9173
887.568689 66.744 163.8602
894.000378 66.636 163.9113
900.478673 66.533 164.0650
907.003913 66.438 164.3110
913.576437 66.354 164.6354
920.196588 66.283 165.0223
926.864712 66.226 165.4547
933.581156 66.184 165.9161
940.346270 66.158 166.3909
947.160407 66.148 166.8646
954.023921 66.154 167.3230
960.937172 66.174 167.7510
967.900519 66.210 168.1323
974.914325 66.258 168.4506
981.978956 66.318 168.6916
989.094780 66.385 168.8443
996.262169 66.459 168.9034
1003.481495 66.535 168.8685
1010.753136 66.610 168.7435
1018.077470 66.683 168.5359
1025.454879 66.751 168.2554
1032.885748 66.812 167.9140
1040.370463 66.865 167.5242
1047.909417 66.910 167.0986
1055.503000 66.945 166.6486
1063.151610 66.972 166.1844
1070.855645 66.989 165.7156
1078.615506 66.997 165.2518
1086.431599 66.995 164.8031
1094.304330 66.983 164.3806
1102.234110 66.962 163.9962
1110.221353 66.933 163.6625
1118.266475 66.897 163.3912
1126.369895 66.856 163.1919
1134.532035 66.812 163.0712
1142.753322 66.768 163.0308
1151.034184 66.727 163.0672
1159.375052 66.692 163.1714
1167.776361 66.664 163.3303
1176.238550 66.644 163.5278
1184.762060 66.634 163.7469
1193.347334 66.633 163.9708
1201.994821 66.640 164.1843
1210.704971 66.654 164.3745
1219.478238 66.674 164.5310
1228.315080 66.697 164.6467
1237.215957 66.722 164.7187
1246.181334 66.747 164.7480
1255.211678 66.769 164.7395
1264.307459 66.788 164.7006
1273.469152 66.803 164.6396
1282.697235 66.813 164.5650
1291.992188 66.819 164.4850
1301.354495 66.820 164.4075
1310.784647 66.817 164.3394
1320.283132 66.811 164.2861
1329.850448 66.802 164.2512
1339.487093 66.791 164.2363
1349.193569 66.779 164.2419
1358.970381 66.766 164.2674
1368.818041 66.753 164.3110
1378.737061 66.741 164.3701
1388.727958 66.729 164.4419
1398.791253 66.719 164.5245
1408.927471 66.709 164.6166
1419.137140 66.700 164.7176
1429.420793 66.692 164.8271
1439.778965 66.685 164.9448
1450.212197 66.679 165.0709
1460.721033 66.672 165.2060
1471.306019 66.666 165.3518
1481.967709 66.658 165.5120
1492.706658 66.649 165.6927
1503.523426 66.639 165.9014
1514.418576 66.628 166.1455
1525.392678 66.617 166.4305
1536.446302 66.607 166.7591
1547.580025 66.598 167.1308
1558.794428 66.591 167.5408
1570.090095 66.588 167.9811
1581.467615 66.589 168.4415
1592.927581 66.592 168.9109
1604.470591 66.598 169.3791
1616.097246 66.606 169.8364
1627.808153 66.613 170.2752
1639.603922 66.620 170.6912
1651.485168 66.624 171.0832
1663.452510 66.624 171.4532
1675.506573 66.618 171.8066
1687.647984 66.606 172.1519
1699.877377 66.586 172.5014
1712.195390 66.558 172.8716
1724.602663 66.522 173.2816
1737.099845 66.480 173.7508
1749.687587 66.434 174.2944
1762.366544 66.388 174.9198
1775.137379 66.345 175.6241
1788.000756 66.309 176.3934
1800.957346 66.282 177.2054
1814.007826 66.266 178.0329
1827.152874 66.260 178.8493
1840.393177 66.261 179.6331
1853.729425 66.269 -179.6291
1867.162312 66.279 -178.9419
1880.692540 66.290 -178.3021
1894.320813 66.299 -177.7007
1908.047843 66.304 -177.1259
1921.874344 66.307 -176.5658
1935.801038 66.306 -176.0106
1949.828650 66.302 -175.4534
1963.957912 66.296 -174.8907
1978.189561 66.288 -174.3223
1992.524338 66.280 -173.7513
2006.962991 66.272 -173.1824
2021.506272 66.265 -172.6212
2036.154940 66.257 -172.0730
2050.909758 66.248 -171.5417
2065.771495 66.238 -171.0282
2080.740927 66.226 -170.5303
2095.818833 66.212 -170.0417
2111.006001 66.194 -169.5531
2126.303220 66.173 -169.0539
2141.711290 66.151 -168.5340
2157.231013 66.128 -167.9862
2172.863198 66.106 -167.4071
2188.608660 66.087 -166.7974
2204.468221 66.073 -166.1617
2220.442706 66.065 -165.5072
2236.532950 66.063 -164.8425
2252.739789 66.069 -164.1771
2269.064070 66.082 -163.5195
2285.506644 66.102 -162.8766
2302.068367 66.129 -162.2532
2318.750104 66.161 -161.6523
2335.552723 66.199 -161.0752
2352.477101 66.242 -160.5217
2369.524119 66.289 -159.9896
2386.694668 66.339 -159.4745
2403.989641 66.394 -158.9699
2421.409941 66.453 -158.4695
2438.956476 66.518 -157.9690
2456.630160 66.590 -157.4685
2474.431915 66.670 -156.9734
2492.362668 66.760 -156.4940
2510.423356 66.860 -156.0441
2528.614918 66.969 -155.6382
2546.938304 67.085 -155.2894
2565.394469 67.207 -155.0057
2583.984375 67.332 -154.7890
2602.708991 67.459 -154.6349
2621.569293 67.584 -154.5332
2640.566265 67.708 -154.4706
2659.700897 67.830 -154.4317
2678.974186 67.951 -154.4028
2698.387137 68.072 -154.3737
2717.940763 68.194 -154.3410
2737.636082 68.320 -154.3094
2757.474121 68.451 -154.2901
2777.455915 68.586 -154.2986
2797.582506 68.723 -154.3504
2817.854942 68.861 -154.4583
2838.274281 68.997 -154.6306
2858.841586 69.127 -154.8693
2879.557931 69.247 -155.1700
2900.424394 69.356 -155.5225
2921.442065 69.451 -155.9106
2942.612039 69.529 -156.3145
2963.935418 69.591 -156.7112
2985.413316 69.634 -157.0768
3007.046852 69.661 -157.3877
3028.837153 69.672 -157.6208
3050.785356 69.668 -157.7543
3072.892604 69.651 -157.7659
3095.160050 69.624 -157.6332
3117.588856 69.590 -157.3337
3140.180190 69.552 -156.8469
3162.935230 69.516 -156.1556
3185.855163 69.487 -155.2472
3208.941182 69.471 -154.1141
3232.194493 69.475 -152.7555
3255.616307 69.506 -151.1839
3279.207844 69.572 -149.4347
3302.970336 69.680 -147.5746
3326.905021 69.834 -145.7016
3351.013146 70.032 -143.9339
3375.295969 70.268 -142.3893
3399.754755 70.533 -141.1645
3424.390779 70.812 -140.3192
3449.205326 71.091 -139.8694
3474.199690 71.358 -139.7894
3499.375173 71.603 -140.0210
3524.733088 71.820 -140.4872
3550.274757 72.008 -141.1067
3576.001511 72.170 -141.8079
3601.914692 72.314 -142.5402
3628.015651 72.446 -143.2789
3654.305748 72.574 -144.0251
3680.786354 72.701 -144.7998
3707.458849 72.830 -145.6352
3734.324624 72.959 -146.5627
3761.385080 73.082 -147.6020
3788.641627 73.193 -148.7535
3816.095686 73.289 -149.9976
3843.748688 73.364 -151.3000
3871.602076 73.418 -152.6202
3899.657300 73.452 -153.9194
3927.915825 73.468 -155.1657
3956.379122 73.470 -156.3346
3985.048676 73.461 -157.4091
4013.925981 73.445 -158.3787
4043.012544 73.425 -159.2381
4072.309879 73.404 -159.9871
4101.819515 73.386 -160.6304
4131.542990 73.372 -161.1775
4161.481854 73.365 -161.6419
4191.637667 73.366 -162.0403
4222.012001 73.374 -162.3904
4252.606441 73.390 -162.7086
4283.422580 73.411 -163.0080
4314.462026 73.436 -163.2977
4345.726396 73.463 -163.5830
4377.217321 73.491 -163.8671
4408.936442 73.518 -164.1517
4440.885413 73.544 -164.4370
4473.065899 73.569 -164.7225
4505.479579 73.591 -165.0071
4538.128141 73.611 -165.2908
4571.013288 73.629 -165.5747
4604.136735 73.646 -165.8617
4637.500207 73.662 -166.1556
4671.105446 73.677 -166.4611
4704.954201 73.691 -166.7829
4739.048239 73.704 -167.1258
4773.389336 73.715 -167.4944
4807.979283 73.725 -167.8918
4842.819883 73.732 -168.3195
4877.912952 73.735 -168.7760
4913.260320 73.734 -169.2567
4948.863830 73.727 -169.7543
4984.725337 73.714 -170.2594
5020.846712 73.695 -170.7616
5057.229836 73.671 -171.2504
5093.876609 73.641 -171.7152
5130.788938 73.606 -172.1452
5167.968750 73.568 -172.5290
5205.417982 73.527 -172.8551
5243.138586 73.486 -173.1120
5281.132530 73.445 -173.2883
5319.401793 73.407 -173.3728
5357.948371 73.376 -173.3559
5396.774274 73.354 -173.2303
5435.881525 73.346 -172.9933
5475.272163 73.355 -172.6487
5514.948243 73.387 -172.2080
5554.911831 73.445 -171.6921
5595.165012 73.531 -171.1314
5635.709884 73.646 -170.5636
5676.548561 73.791 -170.0312
5717.683172 73.962 -169.5768
5759.115861 74.155 -169.2395
5800.848789 74.365 -169.0508
5842.884130 74.585 -169.0327
5885.224077 74.810 -169.1970
5927.870837 75.033 -169.5457
5970.826633 75.249 -170.0725
6014.093704 75.453 -170.7646
6057.674306 75.642 -171.6049
6101.570711 75.813 -172.5738
6145.785208 75.964 -173.6501
6190.320101 76.092 -174.8118
6235.177712 76.198 -176.0370
6280.360380 76.280 -177.3043
6325.870460 76.340 -178.5936
6371.710325 76.377 -179.8868
6417.882365 76.393 178.8321
6464.388986 76.390 177.5765
6511.232613 76.368 176.3578
6558.415689 76.331 175.1851
6605.940673 76.279 174.0655
6653.810042 76.216 173.0039
6702.026292 76.143 172.0024
6750.591937 76.064 171.0599
6799.509509 75.982 170.1709
6848.781558 75.899 169.3256
6898.410653 75.818 168.5099
6948.399380 75.743 167.7056
6998.750346 75.674 166.8910
7049.466176 75.614 166.0433
7100.549514 75.562 165.1391
7152.003023 75.521 164.1552
7203.829385 75.489 163.0679
7256.031302 75.466 161.8523
7308.611496 75.451 160.4824
7361.572708 75.443 158.9318
7414.917698 75.437 157.1753
7468.649249 75.430 155.1909
7522.770160 75.417 152.9605
7577.283253 75.392 150.4719
7632.191371 75.349 147.7183
7687.497376 75.281 144.6990
7743.204151 75.182 141.4181
7799.314600 75.047 137.8833
7855.831649 74.871 134.1038
7912.758244 74.650 130.0881
7970.097352 74.382 125.8417
8027.851962 74.065 121.3635
8086.025087 73.698 116.6414
8144.619758 73.283 111.6446
8203.639030 72.822 106.3103
8263.085980 72.323 100.5180
8322.963708 71.794 94.0370
8383.275334 71.251 86.4053
8444.024002 70.715 76.6280
8505.212881 70.213 62.3495
8566.845160 69.780 37.9250
8628.924051 69.450 -2.1923
8691.452792 69.257 -39.3689
8754.434642 69.219 -60.6146
8817.872884 69.339 -73.0286
8881.770826 69.601 -81.4344
8946.131799 69.977 -87.8365
9010.959157 70.435 -93.1290
9076.256282 70.947 -97.7646
9142.026576 71.489 -101.9998
9208.273470 72.043 -105.9948
9275.000415 72.596 -109.8590
9342.210891 73.139 -113.6725
9409.908403 73.663 -117.4963
9478.096478 74.164 -121.3795
9546.778672 74.636 -125.3604
9615.958566 75.073 -129.4685
9685.639765 75.471 -133.7246
9755.825904 75.823 -138.1406
9826.520640 76.124 -142.7186
9897.727659 76.367 -147.4512
9969.450674 76.548 -152.3207
10041.693423 76.662 -157.2996
10114.459673 76.703 -162.3510
10187.753217 76.669 -167.4299
10261.577877 76.557 -172.4857
10335.937500 76.369 -177.4658
10410.835964 76.106 177.6804
10486.277173 75.772 172.9981
10562.265060 75.371 168.5240
10638.803587 74.910 164.2866
10715.896743 74.393 160.3080
10793.548548 73.827 156.6084
10871.763050 73.213 153.2100
10950.544327 72.557 150.1402
11029.896485 71.860 147.4316
11109.823662 71.125 145.1194
11190.330024 70.357 143.2347
11271.419768 69.560 141.7964
11353.097122 68.740 140.8039
11435.366344 67.906 140.2336
11518.231722 67.064 140.0395
11601.697577 66.224 140.1555
11685.768261 65.394 140.5010
11770.448155 64.582 140.9860
11855.741674 63.794 141.5197
11941.653265 63.034 142.0187
12028.187408 62.305 142.4130
12115.348612 61.610 142.6484
12203.141422 60.946 142.6837
12291.570415 60.315 142.4867
12380.640201 59.717 142.0287
12470.355424 59.152 141.2812
12560.720760 58.626 140.2151
12651.740920 58.143 138.8002
12743.420650 57.712 137.0065
12835.764729 57.345 134.8035
12928.777972 57.056 132.1549
13022.465227 56.863 128.9990
13116.831378 56.778 125.1761
13211.881345 56.812 120.0535
13307.620084 56.965 106.9714
13404.052584 57.224 -54.1120
13501.183875 57.567 -64.5240
13599.019019 57.966 -70.4342
13697.563116 58.393 -75.7474
13796.821305 58.819 -80.9384
13896.798760 59.224 -86.1171
13997.500692 59.590 -91.3019
14098.932352 59.908 -96.4778
14201.099028 60.173 -101.6188
14304.006046 60.388 -106.6995
14407.658770 60.554 -111.7031
14512.062604 60.677 -116.6213
14617.222992 60.759 -121.4530
14723.145416 60.805 -126.2004
14829.835397 60.815 -130.8672
14937.298497 60.792 -135.4553
15045.540320 60.736 -139.9653
15154.566507 60.650 -144.3940
15264.382743 60.536 -148.7378
15374.994752 60.400 -152.9956
15486.408302 60.248 -157.1741
15598.629201 60.090 -161.2925
15711.663298 59.936 -165.3846
15825.516487 59.792 -169.4976
15940.194703 59.666 -173.6863
16055.703925 59.558 -178.0071
16172.050174 59.467 177.4893
16289.239516 59.385 172.7635
16407.278061 59.305 167.7896
16526.171961 59.217 162.5549
16645.927415 59.112 157.0608
16766.550667 58.982 151.3201
16888.048005 58.818 145.3569
17010.425762 58.617 139.2032
17133.690320 58.378 132.8962
17257.848103 58.103 126.4717
17382.905584 57.800 119.9563
17508.869284 57.480 113.3567
17635.745768 57.160 106.6509
17763.541652 56.854 99.7839
17892.263597 56.572 92.6724
18021.918315 56.318 85.2222
18152.512564 56.086 77.3481
18284.053153 55.861 68.9893
18416.546939 55.630 60.1096
18550.000830 55.381 50.6793
18684.421783 55.110 40.6490
18819.816805 54.817 29.9171
18956.192956 54.511 18.3142
19093.557344 54.201 5.6245
19231.917131 53.897 -8.3000
19371.279531 53.609 -23.2571
19511.651807 53.351 -38.3043
19653.041280 53.135 -51.7061
19795.455318 52.978 -61.6079
19938.901348 52.895 -66.7986
