* Measurement data measured by REW V5.31.3
* Source: EXCL: Headset (USB-C to 3.5mm Headphone Jack Adapter), MICROPHONE (Master Volume), 0, volume: 0.200
* Format: 256k Log Swept Sine, 1 sweep at -12.0 dBFS with no timing reference
* Dated: Jun 13, 2025 2:34:12 PM
* REW Settings:
*  C-weighting compensation: Off
*  Target level: 75.0 dB
* Note: ; 
* Measurement: Arya Stealth 2 R5
* Smoothing: 1/6 octave
* Frequency Step: 96 ppo
* Start Frequency: 20.0 Hz
*
* Freq(Hz) SPL(dB) Phase(degrees)
20.187378 65.818 -95.7768
20.333664 65.838 -95.9733
20.481010 65.865 -96.2359
20.629424 65.899 -96.5560
20.778913 65.939 -96.9241
20.929486 65.985 -97.3309
21.081150 66.037 -97.7680
21.233912 66.095 -98.2280
21.387782 66.157 -98.7050
21.542767 66.225 -99.1944
21.698874 66.298 -99.6934
21.856113 66.376 -100.2002
22.014492 66.457 -100.7142
22.174018 66.542 -101.2356
22.334700 66.629 -101.7651
22.496546 66.718 -102.3034
22.659566 66.807 -102.8511
22.823766 66.894 -103.4084
22.989157 66.979 -103.9746
23.155745 67.059 -104.5481
23.323542 67.133 -105.1264
23.492554 67.201 -105.7059
23.662790 67.260 -106.2826
23.834261 67.311 -106.8519
24.006973 67.353 -107.4092
24.180938 67.386 -107.9502
24.356163 67.410 -108.4713
24.532658 67.427 -108.9701
24.710431 67.436 -109.4453
24.889493 67.439 -109.8973
25.069853 67.437 -110.3280
25.251519 67.432 -110.7406
25.434502 67.424 -111.1393
25.618811 67.415 -111.5293
25.804456 67.406 -111.9160
25.991445 67.397 -112.3045
26.179790 67.389 -112.6997
26.369500 67.383 -113.1055
26.560584 67.377 -113.5248
26.753053 67.374 -113.9591
26.946917 67.372 -114.4089
27.142185 67.371 -114.8736
27.338869 67.371 -115.3513
27.536977 67.372 -115.8399
27.736522 67.374 -116.3362
27.937512 67.376 -116.8371
28.139959 67.379 -117.3395
28.343872 67.382 -117.8405
28.549264 67.386 -118.3375
28.756143 67.391 -118.8289
28.964522 67.397 -119.3134
29.174411 67.405 -119.7904
29.385821 67.414 -120.2598
29.598763 67.426 -120.7214
29.813248 67.439 -121.1752
30.029287 67.455 -121.6207
30.246891 67.473 -122.0571
30.466073 67.495 -122.4831
30.686842 67.519 -122.8976
30.909212 67.548 -123.2997
31.133193 67.581 -123.6895
31.358797 67.619 -124.0680
31.586035 67.663 -124.4378
31.814921 67.713 -124.8028
32.045465 67.769 -125.1676
32.277680 67.830 -125.5370
32.511577 67.897 -125.9151
32.747169 67.967 -126.3044
32.984469 68.040 -126.7056
33.223488 68.114 -127.1171
33.464239 68.188 -127.5356
33.706735 68.261 -127.9566
33.950987 68.333 -128.3756
34.197010 68.403 -128.7888
34.444816 68.471 -129.1938
34.694417 68.538 -129.5902
34.945827 68.604 -129.9790
35.199059 68.668 -130.3624
35.454126 68.732 -130.7431
35.711041 68.794 -131.1229
35.969818 68.856 -131.5028
36.230470 68.917 -131.8820
36.493011 68.978 -132.2586
36.757455 69.040 -132.6299
37.023814 69.101 -132.9930
37.292104 69.163 -133.3460
37.562338 69.226 -133.6881
37.834530 69.289 -134.0202
38.108695 69.352 -134.3449
38.384846 69.414 -134.6653
38.662999 69.475 -134.9853
38.943167 69.532 -135.3080
39.225365 69.586 -135.6354
39.509608 69.635 -135.9681
39.795911 69.678 -136.3049
40.084289 69.717 -136.6434
40.374756 69.750 -136.9799
40.667328 69.780 -137.3105
40.962020 69.807 -137.6317
41.258848 69.832 -137.9413
41.557827 69.856 -138.2385
41.858972 69.880 -138.5246
42.162299 69.905 -138.8029
42.467824 69.932 -139.0778
42.775564 69.960 -139.3547
43.085533 69.989 -139.6386
43.397749 70.020 -139.9333
43.712227 70.051 -140.2403
44.028983 70.083 -140.5587
44.348036 70.114 -140.8851
44.669400 70.144 -141.2143
44.993093 70.172 -141.5400
45.319131 70.199 -141.8566
45.647532 70.223 -142.1602
45.978313 70.247 -142.4489
46.311491 70.269 -142.7232
46.647083 70.289 -142.9859
46.985107 70.309 -143.2410
47.325581 70.329 -143.4930
47.668521 70.349 -143.7464
48.013947 70.369 -144.0050
48.361876 70.389 -144.2709
48.712326 70.409 -144.5448
49.065315 70.427 -144.8260
49.420863 70.444 -145.1125
49.778987 70.459 -145.4024
50.139706 70.471 -145.6950
50.503039 70.481 -145.9912
50.869005 70.488 -146.2940
51.237623 70.493 -146.6073
51.608912 70.497 -146.9345
51.982891 70.499 -147.2770
52.359580 70.500 -147.6333
52.739000 70.500 -147.9993
53.121168 70.498 -148.3693
53.506106 70.496 -148.7373
53.893833 70.493 -149.0985
54.284370 70.489 -149.4498
54.677737 70.485 -149.7899
55.073955 70.481 -150.1192
55.473043 70.478 -150.4388
55.875024 70.475 -150.7504
56.279917 70.473 -151.0557
56.687745 70.472 -151.3562
57.098527 70.472 -151.6528
57.512287 70.473 -151.9459
57.929045 70.475 -152.2355
58.348822 70.479 -152.5210
58.771642 70.486 -152.8020
59.197525 70.496 -153.0782
59.626495 70.512 -153.3505
60.058573 70.533 -153.6208
60.493782 70.560 -153.8916
60.932145 70.593 -154.1656
61.373685 70.630 -154.4449
61.818424 70.671 -154.7311
62.266386 70.714 -155.0251
62.717593 70.759 -155.3275
63.172071 70.804 -155.6384
63.629842 70.849 -155.9570
64.090930 70.894 -156.2821
64.555359 70.939 -156.6114
65.023154 70.983 -156.9427
65.494339 71.027 -157.2741
65.968938 71.069 -157.6042
66.446976 71.110 -157.9326
66.928478 71.150 -158.2593
67.413469 71.188 -158.5845
67.901975 71.225 -158.9086
68.394021 71.261 -159.2316
68.889632 71.294 -159.5532
69.388835 71.326 -159.8730
69.891655 71.354 -160.1903
70.398118 71.381 -160.5041
70.908252 71.404 -160.8133
71.422083 71.425 -161.1166
71.939636 71.442 -161.4129
72.460941 71.457 -161.7015
72.986023 71.469 -161.9823
73.514909 71.479 -162.2559
74.047629 71.486 -162.5235
74.584208 71.492 -162.7864
75.124676 71.495 -163.0459
75.669061 71.497 -163.3028
76.217390 71.498 -163.5575
76.769692 71.498 -163.8101
77.325997 71.497 -164.0602
77.886333 71.496 -164.3079
78.450730 71.495 -164.5531
79.019216 71.494 -164.7963
79.591822 71.493 -165.0381
80.168577 71.491 -165.2794
80.749512 71.490 -165.5209
81.334656 71.489 -165.7635
81.924040 71.488 -166.0078
82.517696 71.487 -166.2544
83.115653 71.486 -166.5039
83.717943 71.485 -166.7570
84.324598 71.485 -167.0144
84.935649 71.485 -167.2768
85.551128 71.486 -167.5449
86.171066 71.487 -167.8194
86.795497 71.488 -168.1011
87.424453 71.490 -168.3906
88.057967 71.492 -168.6891
88.696071 71.495 -168.9974
89.338800 71.497 -169.3163
89.986185 71.498 -169.6464
90.638262 71.499 -169.9877
91.295065 71.499 -170.3397
91.956626 71.498 -170.7016
92.622982 71.496 -171.0721
93.294166 71.492 -171.4493
93.970214 71.486 -171.8313
94.651161 71.478 -172.2160
95.337042 71.468 -172.6014
96.027894 71.457 -172.9860
96.723752 71.443 -173.3687
97.424652 71.428 -173.7487
98.130631 71.411 -174.1257
98.841726 71.392 -174.4992
99.557974 71.373 -174.8690
100.279412 71.352 -175.2350
101.006078 71.332 -175.5972
101.738010 71.311 -175.9556
102.475245 71.291 -176.3105
103.217823 71.271 -176.6622
103.965782 71.252 -177.0106
104.719161 71.233 -177.3556
105.477999 71.215 -177.6964
106.242336 71.198 -178.0319
107.012212 71.181 -178.3603
107.787666 71.163 -178.6800
108.568740 71.146 -178.9897
109.355474 71.128 -179.2883
110.147909 71.109 -179.5751
110.946086 71.090 -179.8498
111.750047 71.071 179.8875
112.559834 71.052 179.6362
113.375489 71.034 179.3953
114.197055 71.015 179.1637
115.024574 70.997 178.9398
115.858089 70.979 178.7219
116.697645 70.961 178.5088
117.543284 70.944 178.2988
118.395051 70.928 178.0909
119.252990 70.913 177.8841
120.117147 70.898 177.6774
120.987565 70.884 177.4702
121.864291 70.870 177.2621
122.747370 70.856 177.0531
123.636848 70.842 176.8427
124.532771 70.827 176.6306
125.435187 70.811 176.4161
126.344142 70.793 176.1981
127.259684 70.773 175.9756
128.181860 70.751 175.7481
129.110718 70.725 175.5154
130.046308 70.696 175.2788
130.988677 70.664 175.0405
131.937875 70.628 174.8039
132.893951 70.588 174.5732
133.856956 70.545 174.3531
134.826938 70.500 174.1484
135.803950 70.452 173.9633
136.788041 70.403 173.8011
137.779264 70.353 173.6639
138.777669 70.302 173.5526
139.783309 70.250 173.4674
140.796237 70.198 173.4080
141.816504 70.145 173.3739
142.844165 70.093 173.3641
143.879273 70.040 173.3779
144.921881 69.988 173.4138
145.972045 69.937 173.4703
147.029819 69.886 173.5455
148.095257 69.836 173.6374
149.168417 69.788 173.7435
150.249353 69.742 173.8616
151.338121 69.698 173.9894
152.434780 69.657 174.1248
153.539385 69.619 174.2657
154.651995 69.584 174.4099
155.772667 69.553 174.5554
156.901460 69.525 174.7000
158.038432 69.501 174.8421
159.183644 69.480 174.9809
160.337154 69.462 175.1162
161.499023 69.447 175.2484
162.669312 69.436 175.3780
163.848081 69.428 175.5050
165.035392 69.422 175.6289
166.231306 69.420 175.7485
167.435887 69.421 175.8626
168.649196 69.424 175.9695
169.871298 69.428 176.0681
171.102255 69.434 176.1573
172.342133 69.440 176.2362
173.590995 69.447 176.3039
174.848907 69.454 176.3596
176.115934 69.461 176.4029
177.392143 69.468 176.4333
178.677599 69.474 176.4510
179.972371 69.480 176.4564
181.276525 69.486 176.4504
182.590129 69.492 176.4338
183.913252 69.498 176.4075
185.245964 69.505 176.3723
186.588332 69.511 176.3288
187.940428 69.517 176.2780
189.302322 69.523 176.2205
190.674085 69.529 176.1568
192.055788 69.533 176.0869
193.447503 69.537 176.0103
194.849303 69.541 175.9263
196.261262 69.543 175.8345
197.683452 69.546 175.7345
199.115948 69.548 175.6262
200.558824 69.551 175.5099
202.012156 69.553 175.3864
203.476019 69.556 175.2570
204.950490 69.559 175.1232
206.435646 69.561 174.9861
207.931564 69.562 174.8465
209.438322 69.562 174.7054
210.955998 69.561 174.5635
212.484672 69.561 174.4215
214.024424 69.560 174.2802
215.575333 69.560 174.1397
217.137481 69.560 173.9998
218.710948 69.562 173.8596
220.295818 69.565 173.7176
221.892172 69.569 173.5722
223.500094 69.574 173.4218
225.119668 69.580 173.2656
226.750978 69.587 173.1033
228.394109 69.595 172.9352
230.049147 69.604 172.7621
231.716178 69.613 172.5848
233.395289 69.624 172.4034
235.086567 69.634 172.2180
236.790102 69.645 172.0287
238.505980 69.657 171.8356
240.234293 69.668 171.6391
241.975130 69.680 171.4398
243.728581 69.692 171.2383
245.494739 69.704 171.0347
247.273695 69.715 170.8292
249.065542 69.726 170.6215
250.870374 69.736 170.4110
252.688284 69.744 170.1966
254.519367 69.752 169.9771
256.363720 69.757 169.7507
258.221437 69.762 169.5155
260.092616 69.764 169.2692
261.977354 69.766 169.0094
263.875750 69.765 168.7340
265.787903 69.763 168.4418
267.713911 69.758 168.1325
269.653877 69.749 167.8075
271.607900 69.738 167.4693
273.576083 69.723 167.1220
275.558528 69.703 166.7705
277.555338 69.679 166.4203
279.566619 69.650 166.0773
281.592474 69.617 165.7470
283.633009 69.578 165.4356
285.688331 69.536 165.1489
287.758546 69.488 164.8926
289.843763 69.437 164.6725
291.944090 69.383 164.4937
294.059638 69.326 164.3607
296.190515 69.266 164.2777
298.336833 69.207 164.2478
300.498705 69.147 164.2734
302.676243 69.089 164.3555
304.869559 69.035 164.4932
307.078770 68.985 164.6839
309.303989 68.940 164.9231
311.545334 68.903 165.2044
313.802919 68.873 165.5200
316.076865 68.852 165.8608
318.367288 68.839 166.2172
320.674309 68.834 166.5800
322.998047 68.837 166.9406
325.338624 68.847 167.2915
327.696162 68.863 167.6265
330.070783 68.885 167.9403
332.462612 68.913 168.2282
334.871773 68.944 168.4868
337.298392 68.979 168.7131
339.742595 69.016 168.9058
342.204510 69.055 169.0643
344.684265 69.094 169.1891
347.181989 69.134 169.2817
349.697813 69.173 169.3434
352.231868 69.211 169.3764
354.784285 69.246 169.3825
357.355198 69.280 169.3641
359.944741 69.311 169.3242
362.553049 69.339 169.2661
365.180258 69.365 169.1931
367.826505 69.388 169.1089
370.491927 69.408 169.0164
373.176665 69.427 168.9180
375.880856 69.444 168.8156
378.604644 69.460 168.7103
381.348169 69.475 168.6027
384.111575 69.491 168.4926
386.895006 69.507 168.3790
389.698607 69.525 168.2598
392.522524 69.544 168.1321
395.366904 69.565 167.9922
398.231895 69.588 167.8352
401.117648 69.613 167.6558
404.024312 69.638 167.4481
406.952038 69.663 167.2067
409.900981 69.688 166.9265
412.871292 69.712 166.6033
415.863128 69.734 166.2339
418.876643 69.753 165.8162
421.911996 69.767 165.3491
424.969344 69.776 164.8333
428.048847 69.777 164.2706
431.150666 69.770 163.6642
434.274961 69.753 163.0193
437.421897 69.725 162.3424
440.591636 69.685 161.6419
443.784345 69.631 160.9280
447.000189 69.563 160.2131
450.239337 69.479 159.5110
453.501956 69.381 158.8376
456.788219 69.267 158.2098
460.098294 69.138 157.6454
463.432356 68.996 157.1620
466.790578 68.841 156.7762
470.173135 68.678 156.5029
473.580203 68.507 156.3540
477.011961 68.333 156.3372
480.468586 68.159 156.4559
483.950259 67.989 156.7076
487.457163 67.827 157.0848
490.989478 67.676 157.5746
494.547390 67.538 158.1598
498.131084 67.417 158.8201
501.740748 67.313 159.5334
505.376568 67.228 160.2772
509.038735 67.162 161.0300
512.727439 67.114 161.7727
516.442874 67.083 162.4890
520.185232 67.069 163.1659
523.954708 67.068 163.7941
527.751500 67.080 164.3674
531.575805 67.103 164.8827
535.427822 67.134 165.3393
539.307753 67.173 165.7379
543.215800 67.218 166.0802
547.152165 67.269 166.3681
551.117055 67.324 166.6037
555.110677 67.382 166.7894
559.133237 67.444 166.9277
563.184947 67.507 167.0213
567.266018 67.571 167.0727
571.376661 67.637 167.0829
575.517092 67.703 167.0515
579.687526 67.770 166.9766
583.888181 67.836 166.8552
588.119275 67.900 166.6841
592.381030 67.962 166.4603
596.673667 68.021 166.1816
600.997410 68.074 165.8473
605.352485 68.120 165.4584
609.739119 68.158 165.0182
614.157540 68.186 164.5322
618.607979 68.202 164.0086
623.090667 68.205 163.4577
627.605839 68.194 162.8921
632.153730 68.168 162.3262
636.734576 68.125 161.7762
641.348617 68.066 161.2594
645.996094 67.992 160.7944
650.677248 67.903 160.4006
655.392323 67.800 160.0975
660.141566 67.686 159.9030
664.925224 67.564 159.8315
669.743546 67.438 159.8914
674.596784 67.311 160.0840
679.485191 67.189 160.4023
684.409020 67.073 160.8328
689.368530 66.967 161.3575
694.363979 66.872 161.9577
699.395626 66.791 162.6155
704.463736 66.722 163.3154
709.568570 66.668 164.0435
714.710396 66.627 164.7870
719.889483 66.602 165.5329
725.106099 66.591 166.2677
730.360516 66.593 166.9766
735.653010 66.610 167.6451
740.983855 66.638 168.2596
746.353329 66.677 168.8087
751.761713 66.725 169.2829
757.209288 66.780 169.6746
762.696339 66.841 169.9769
768.223151 66.906 170.1837
773.790013 66.973 170.2901
779.397214 67.039 170.2936
785.045047 67.103 170.1948
790.733808 67.162 169.9984
796.463791 67.213 169.7123
802.235296 67.256 169.3478
808.048623 67.288 168.9173
813.904077 67.309 168.4333
819.801961 67.319 167.9081
825.742584 67.316 167.3531
831.726255 67.301 166.7806
837.753287 67.273 166.2037
843.823992 67.231 165.6371
849.938689 67.175 165.0974
856.097695 67.106 164.6017
862.301332 67.024 164.1672
868.549922 66.932 163.8105
874.843793 66.832 163.5457
881.183272 66.726 163.3831
887.568689 66.619 163.3282
894.000378 66.512 163.3807
900.478673 66.410 163.5345
907.003913 66.316 163.7784
913.576437 66.233 164.0971
920.196588 66.162 164.4732
926.864712 66.105 164.8893
933.581156 66.062 165.3293
940.346270 66.034 165.7789
947.160407 66.020 166.2253
954.023921 66.022 166.6558
960.937172 66.037 167.0562
967.900519 66.067 167.4115
974.914325 66.109 167.7065
981.978956 66.161 167.9280
989.094780 66.221 168.0669
996.262169 66.285 168.1191
1003.481495 66.352 168.0848
1010.753136 66.418 167.9680
1018.077470 66.482 167.7753
1025.454879 66.541 167.5158
1032.885748 66.594 167.2006
1040.370463 66.640 166.8411
1047.909417 66.678 166.4487
1055.503000 66.708 166.0337
1063.151610 66.729 165.6059
1070.855645 66.742 165.1751
1078.615506 66.745 164.7520
1086.431599 66.739 164.3485
1094.304330 66.724 163.9769
1102.234110 66.702 163.6492
1110.221353 66.672 163.3762
1118.266475 66.638 163.1663
1126.369895 66.601 163.0252
1134.532035 66.564 162.9550
1142.753322 66.528 162.9531
1151.034184 66.497 163.0115
1159.375052 66.471 163.1177
1167.776361 66.453 163.2557
1176.238550 66.442 163.4092
1184.762060 66.438 163.5634
1193.347334 66.440 163.7066
1201.994821 66.447 163.8306
1210.704971 66.457 163.9307
1219.478238 66.468 164.0045
1228.315080 66.481 164.0518
1237.215957 66.493 164.0737
1246.181334 66.503 164.0724
1255.211678 66.512 164.0517
1264.307459 66.517 164.0160
1273.469152 66.519 163.9709
1282.697235 66.517 163.9227
1291.992188 66.510 163.8784
1301.354495 66.500 163.8459
1310.784647 66.486 163.8322
1320.283132 66.470 163.8440
1329.850448 66.451 163.8853
1339.487093 66.432 163.9576
1349.193569 66.414 164.0594
1358.970381 66.397 164.1862
1368.818041 66.383 164.3317
1378.737061 66.372 164.4890
1388.727958 66.363 164.6518
1398.791253 66.356 164.8149
1408.927471 66.352 164.9744
1419.137140 66.350 165.1277
1429.420793 66.348 165.2736
1439.778965 66.346 165.4133
1450.212197 66.344 165.5503
1460.721033 66.340 165.6898
1471.306019 66.333 165.8391
1481.967709 66.324 166.0073
1492.706658 66.313 166.2050
1503.523426 66.299 166.4422
1514.418576 66.284 166.7266
1525.392678 66.270 167.0620
1536.446302 66.258 167.4482
1547.580025 66.248 167.8812
1558.794428 66.242 168.3532
1570.090095 66.241 168.8534
1581.467615 66.244 169.3701
1592.927581 66.251 169.8920
1604.470591 66.260 170.4091
1616.097246 66.271 170.9133
1627.808153 66.283 171.3986
1639.603922 66.293 171.8617
1651.485168 66.301 172.3021
1663.452510 66.305 172.7225
1675.506573 66.305 173.1276
1687.647984 66.299 173.5244
1699.877377 66.287 173.9219
1712.195390 66.270 174.3315
1724.602663 66.246 174.7661
1737.099845 66.218 175.2388
1749.687587 66.186 175.7606
1762.366544 66.154 176.3367
1775.137379 66.124 176.9658
1788.000756 66.098 177.6389
1800.957346 66.077 178.3417
1814.007826 66.061 179.0582
1827.152874 66.051 179.7736
1840.393177 66.046 -179.5229
1853.729425 66.043 -178.8363
1867.162312 66.041 -178.1665
1880.692540 66.040 -177.5105
1894.320813 66.040 -176.8642
1908.047843 66.039 -176.2250
1921.874344 66.039 -175.5928
1935.801038 66.039 -174.9698
1949.828650 66.040 -174.3594
1963.957912 66.042 -173.7664
1978.189561 66.043 -173.1956
1992.524338 66.043 -172.6507
2006.962991 66.041 -172.1330
2021.506272 66.036 -171.6403
2036.154940 66.027 -171.1668
2050.909758 66.012 -170.7039
2065.771495 65.993 -170.2412
2080.740927 65.969 -169.7684
2095.818833 65.942 -169.2760
2111.006001 65.911 -168.7568
2126.303220 65.880 -168.2057
2141.711290 65.849 -167.6210
2157.231013 65.820 -167.0031
2172.863198 65.794 -166.3550
2188.608660 65.773 -165.6815
2204.468221 65.758 -164.9890
2220.442706 65.750 -164.2847
2236.532950 65.749 -163.5774
2252.739789 65.755 -162.8757
2269.064070 65.768 -162.1872
2285.506644 65.787 -161.5180
2302.068367 65.812 -160.8708
2318.750104 65.842 -160.2462
2335.552723 65.877 -159.6430
2352.477101 65.916 -159.0589
2369.524119 65.959 -158.4902
2386.694668 66.006 -157.9326
2403.989641 66.058 -157.3818
2421.409941 66.116 -156.8348
2438.956476 66.180 -156.2911
2456.630160 66.252 -155.7533
2474.431915 66.333 -155.2279
2492.362668 66.422 -154.7249
2510.423356 66.521 -154.2559
2528.614918 66.627 -153.8323
2546.938304 66.739 -153.4626
2565.394469 66.856 -153.1497
2583.984375 66.975 -152.8909
2602.708991 67.095 -152.6781
2621.569293 67.215 -152.5000
2640.566265 67.334 -152.3439
2659.700897 67.455 -152.1986
2678.974186 67.578 -152.0567
2698.387137 67.704 -151.9162
2717.940763 67.834 -151.7808
2737.636082 67.969 -151.6594
2757.474121 68.109 -151.5643
2777.455915 68.253 -151.5084
2797.582506 68.399 -151.5026
2817.854942 68.545 -151.5547
2838.274281 68.688 -151.6679
2858.841586 68.826 -151.8416
2879.557931 68.956 -152.0708
2900.424394 69.076 -152.3478
2921.442065 69.184 -152.6614
2942.612039 69.279 -152.9975
2963.935418 69.358 -153.3389
2985.413316 69.422 -153.6662
3007.046852 69.469 -153.9589
3028.837153 69.501 -154.1955
3050.785356 69.517 -154.3541
3072.892604 69.519 -154.4117
3095.160050 69.509 -154.3441
3117.588856 69.490 -154.1265
3140.180190 69.464 -153.7364
3162.935230 69.437 -153.1552
3185.855163 69.415 -152.3705
3208.941182 69.402 -151.3759
3232.194493 69.406 -150.1720
3255.616307 69.433 -148.7707
3279.207844 69.490 -147.2020
3302.970336 69.585 -145.5221
3326.905021 69.721 -143.8144
3351.013146 69.898 -142.1812
3375.295969 70.114 -140.7273
3399.754755 70.358 -139.5426
3424.390779 70.620 -138.6879
3449.205326 70.887 -138.1884
3474.199690 71.147 -138.0332
3499.375173 71.389 -138.1813
3524.733088 71.608 -138.5710
3550.274757 71.800 -139.1311
3576.001511 71.967 -139.7943
3601.914692 72.115 -140.5085
3628.015651 72.249 -141.2447
3654.305748 72.377 -141.9970
3680.786354 72.502 -142.7793
3707.458849 72.626 -143.6183
3734.324624 72.749 -144.5435
3761.385080 72.867 -145.5763
3788.641627 72.973 -146.7213
3816.095686 73.061 -147.9627
3843.748688 73.128 -149.2670
3871.602076 73.172 -150.5916
3899.657300 73.194 -151.8932
3927.915825 73.196 -153.1348
3956.379122 73.184 -154.2885
3985.048676 73.160 -155.3359
4013.925981 73.130 -156.2668
4043.012544 73.096 -157.0767
4072.309879 73.063 -157.7659
4101.819515 73.032 -158.3385
4131.542990 73.008 -158.8037
4161.481854 72.992 -159.1756
4191.637667 72.985 -159.4730
4222.012001 72.988 -159.7172
4252.606441 73.000 -159.9284
4283.422580 73.019 -160.1236
4314.462026 73.043 -160.3141
4345.726396 73.070 -160.5061
4377.217321 73.098 -160.7016
4408.936442 73.125 -160.8999
4440.885413 73.151 -161.0990
4473.065899 73.174 -161.2964
4505.479579 73.196 -161.4899
4538.128141 73.215 -161.6785
4571.013288 73.233 -161.8624
4604.136735 73.249 -162.0439
4637.500207 73.265 -162.2264
4671.105446 73.281 -162.4137
4704.954201 73.297 -162.6105
4739.048239 73.314 -162.8218
4773.389336 73.330 -163.0525
4807.979283 73.347 -163.3070
4842.819883 73.363 -163.5884
4877.912952 73.379 -163.8974
4913.260320 73.392 -164.2323
4948.863830 73.403 -164.5888
4984.725337 73.411 -164.9610
5020.846712 73.415 -165.3416
5057.229836 73.416 -165.7227
5093.876609 73.414 -166.0957
5130.788938 73.409 -166.4514
5167.968750 73.402 -166.7793
5205.417982 73.393 -167.0683
5243.138586 73.384 -167.3072
5281.132530 73.376 -167.4852
5319.401793 73.372 -167.5922
5357.948371 73.374 -167.6199
5396.774274 73.385 -167.5629
5435.881525 73.409 -167.4200
5475.272163 73.450 -167.1957
5514.948243 73.511 -166.9022
5554.911831 73.595 -166.5598
5595.165012 73.703 -166.1964
5635.709884 73.837 -165.8456
5676.548561 73.995 -165.5442
5717.683172 74.175 -165.3283
5759.115861 74.372 -165.2302
5800.848789 74.580 -165.2754
5842.884130 74.796 -165.4810
5885.224077 75.012 -165.8555
5927.870837 75.223 -166.3986
5970.826633 75.425 -167.1024
6014.093704 75.613 -167.9534
6057.674306 75.784 -168.9339
6101.570711 75.936 -170.0239
6145.785208 76.066 -171.2018
6190.320101 76.174 -172.4458
6235.177712 76.260 -173.7349
6280.360380 76.322 -175.0490
6325.870460 76.363 -176.3697
6371.710325 76.382 -177.6809
6417.882365 76.381 -178.9686
6464.388986 76.363 179.7784
6511.232613 76.328 178.5692
6558.415689 76.278 177.4102
6605.940673 76.216 176.3060
6653.810042 76.143 175.2591
6702.026292 76.062 174.2691
6750.591937 75.976 173.3326
6799.509509 75.886 172.4431
6848.781558 75.796 171.5903
6898.410653 75.708 170.7612
6948.399380 75.623 169.9393
6998.750346 75.543 169.1059
7049.466176 75.469 168.2409
7100.549514 75.403 167.3238
7152.003023 75.344 166.3342
7203.829385 75.293 165.2511
7256.031302 75.249 164.0524
7308.611496 75.212 162.7142
7361.572708 75.180 161.2118
7414.917698 75.150 159.5207
7468.649249 75.120 157.6184
7522.770160 75.083 155.4863
7577.283253 75.035 153.1107
7632.191371 74.970 150.4836
7687.497376 74.881 147.6038
7743.204151 74.761 144.4758
7799.314600 74.605 141.1092
7855.831649 74.407 137.5170
7912.758244 74.164 133.7141
7970.097352 73.871 129.7152
8027.851962 73.528 125.5321
8086.025087 73.132 121.1711
8144.619758 72.687 116.6276
8203.639030 72.195 111.8774
8263.085980 71.663 106.8594
8322.963708 71.102 101.4352
8383.275334 70.526 95.2835
8444.024002 69.960 87.5708
8505.212881 69.430 75.5614
8566.845160 68.971 45.8013
8628.924051 68.619 -32.2949
8691.452792 68.405 -67.7629
8754.434642 68.348 -80.3716
8817.872884 68.448 -87.5840
8881.770826 68.690 -92.7938
8946.131799 69.047 -97.0280
9010.959157 69.489 -100.7113
9076.256282 69.988 -104.0626
9142.026576 70.522 -107.2146
9208.273470 71.073 -110.2585
9275.000415 71.629 -113.2637
9342.210891 72.181 -116.2853
9409.908403 72.722 -119.3693
9478.096478 73.248 -122.5547
9546.778672 73.754 -125.8746
9615.958566 74.236 -129.3567
9685.639765 74.688 -133.0228
9755.825904 75.107 -136.8895
9826.520640 75.485 -140.9667
9897.727659 75.819 -145.2574
9969.450674 76.100 -149.7568
10041.693423 76.324 -154.4506
10114.459673 76.482 -159.3138
10187.753217 76.569 -164.3109
10261.577877 76.580 -169.3959
10335.937500 76.512 -174.5146
10410.835964 76.365 -179.6092
10486.277173 76.139 175.3780
10562.265060 75.837 170.4991
10638.803587 75.465 165.7990
10715.896743 75.027 161.3147
10793.548548 74.529 157.0785
10871.763050 73.975 153.1199
10950.544327 73.370 149.4690
11029.896485 72.718 146.1567
11109.823662 72.023 143.2147
11190.330024 71.289 140.6712
11271.419768 70.523 138.5458
11353.097122 69.731 136.8434
11435.366344 68.921 135.5496
11518.231722 68.104 134.6282
11601.697577 67.289 134.0202
11685.768261 66.490 133.6440
11770.448155 65.718 133.3983
11855.741674 64.987 133.1685
11941.653265 64.307 132.8361
12028.187408 63.687 132.2883
12115.348612 63.132 131.4253
12203.141422 62.641 130.1642
12291.570415 62.210 128.4409
12380.640201 61.827 126.2109
12470.355424 61.477 123.4480
12560.720760 61.142 120.1443
12651.740920 60.802 116.3073
12743.420650 60.438 111.9551
12835.764729 60.036 107.1088
12928.777972 59.583 101.7803
13022.465227 59.071 95.9548
13116.831378 58.497 89.5645
13211.881345 57.862 82.4492
13307.620084 57.170 74.2905
13404.052584 56.429 64.4963
13501.183875 55.652 52.0163
13599.019019 54.855 35.2163
13697.563116 54.057 12.7159
13796.821305 53.281 -13.2999
13896.798760 52.555 -36.5156
13997.500692 51.905 -53.6559
14098.932352 51.357 -65.7390
14201.099028 50.929 -74.5217
14304.006046 50.630 -81.2369
14407.658770 50.457 -86.6389
14512.062604 50.394 -91.1888
14617.222992 50.420 -95.1747
14723.145416 50.509 -98.7784
14829.835397 50.640 -102.1129
14937.298497 50.796 -105.2471
15045.540320 50.967 -108.2212
15154.566507 51.151 -111.0598
15264.382743 51.347 -113.7828
15374.994752 51.562 -116.4167
15486.408302 51.800 -119.0050
15598.629201 52.067 -121.6141
15711.663298 52.361 -124.3325
15825.516487 52.677 -127.2603
15940.194703 53.001 -130.4926
16055.703925 53.317 -134.1018
16172.050174 53.607 -138.1265
16289.239516 53.857 -142.5675
16407.278061 54.053 -147.3939
16526.171961 54.189 -152.5522
16645.927415 54.263 -157.9766
16766.550667 54.278 -163.5984
16888.048005 54.240 -169.3540
17010.425762 54.163 -175.1913
17133.690320 54.064 178.9225
17257.848103 53.964 172.9934
17382.905584 53.883 166.9946
17508.869284 53.838 160.8640
17635.745768 53.840 154.5092
17763.541652 53.884 147.8223
17892.263597 53.956 140.6997
18021.918315 54.036 133.0625
18152.512564 54.100 124.8647
18284.053153 54.126 116.0920
18416.546939 54.099 106.7488
18550.000830 54.012 96.8350
18684.421783 53.863 86.3259
18819.816805 53.658 75.1506
18956.192956 53.406 63.1847
19093.557344 53.120 50.2864
19231.917131 52.816 36.4153
19371.279531 52.509 21.8818
19511.651807 52.220 7.6219
19653.041280 51.972 -4.8475
19795.455318 51.787 -13.9827
19938.901348 51.688 -18.7634
