* Measurement data measured by REW V5.31.3
* Source: EXCL: Headset (USB-C to 3.5mm Headphone Jack Adapter), MICROPHONE (Master Volume), 0, volume: 0.750
* Format: 256k Log Swept Sine, 1 sweep at -12.0 dBFS with no timing reference
* Dated: May 28, 2025 2:27:45 PM
* REW Settings:
*  C-weighting compensation: Off
*  Target level: 75.0 dB
* Note: ; 
* Measurement: Arya Stealth L3
* Smoothing: 1/6 octave
* Frequency Step: 96 ppo
* Start Frequency: 20.0 Hz
*
* Freq(Hz) SPL(dB) Phase(degrees)
20.187378 80.254 -147.1745
20.333664 80.273 -147.3304
20.481010 80.299 -147.5372
20.629424 80.330 -147.7854
20.778913 80.368 -148.0645
20.929486 80.410 -148.3638
21.081150 80.456 -148.6727
21.233912 80.506 -148.9818
21.387782 80.559 -149.2831
21.542767 80.615 -149.5707
21.698874 80.672 -149.8403
21.856113 80.730 -150.0899
22.014492 80.788 -150.3190
22.174018 80.846 -150.5289
22.334700 80.902 -150.7222
22.496546 80.955 -150.9021
22.659566 81.005 -151.0725
22.823766 81.050 -151.2371
22.989157 81.090 -151.3998
23.155745 81.124 -151.5641
23.323542 81.152 -151.7332
23.492554 81.173 -151.9100
23.662790 81.189 -152.0970
23.834261 81.198 -152.2964
24.006973 81.201 -152.5103
24.180938 81.199 -152.7401
24.356163 81.192 -152.9863
24.532658 81.179 -153.2489
24.710431 81.163 -153.5265
24.889493 81.142 -153.8169
25.069853 81.117 -154.1164
25.251519 81.088 -154.4208
25.434502 81.056 -154.7253
25.618811 81.022 -155.0255
25.804456 80.985 -155.3175
25.991445 80.947 -155.5990
26.179790 80.910 -155.8695
26.369500 80.874 -156.1301
26.560584 80.840 -156.3841
26.753053 80.809 -156.6358
26.946917 80.782 -156.8900
27.142185 80.759 -157.1512
27.338869 80.739 -157.4226
27.536977 80.722 -157.7056
27.736522 80.708 -157.9994
27.937512 80.697 -158.3012
28.139959 80.688 -158.6068
28.343872 80.680 -158.9107
28.549264 80.674 -159.2080
28.756143 80.669 -159.4942
28.964522 80.666 -159.7662
29.174411 80.665 -160.0228
29.385821 80.666 -160.2639
29.598763 80.669 -160.4911
29.813248 80.673 -160.7067
30.029287 80.679 -160.9135
30.246891 80.686 -161.1143
30.466073 80.695 -161.3117
30.686842 80.706 -161.5080
30.909212 80.717 -161.7054
31.133193 80.731 -161.9054
31.358797 80.747 -162.1092
31.586035 80.766 -162.3168
31.814921 80.786 -162.5275
32.045465 80.810 -162.7391
32.277680 80.837 -162.9487
32.511577 80.866 -163.1527
32.747169 80.900 -163.3477
32.984469 80.938 -163.5316
33.223488 80.980 -163.7042
33.464239 81.027 -163.8677
33.706735 81.079 -164.0265
33.950987 81.136 -164.1868
34.197010 81.197 -164.3547
34.444816 81.260 -164.5357
34.694417 81.324 -164.7327
34.945827 81.388 -164.9459
35.199059 81.450 -165.1728
35.454126 81.510 -165.4087
35.711041 81.568 -165.6479
35.969818 81.622 -165.8848
36.230470 81.675 -166.1149
36.493011 81.726 -166.3350
36.757455 81.775 -166.5435
37.023814 81.824 -166.7395
37.292104 81.871 -166.9229
37.562338 81.918 -167.0934
37.834530 81.964 -167.2513
38.108695 82.009 -167.3969
38.384846 82.054 -167.5315
38.662999 82.099 -167.6575
38.943167 82.144 -167.7782
39.225365 82.188 -167.8974
39.509608 82.233 -168.0192
39.795911 82.277 -168.1469
40.084289 82.320 -168.2825
40.374756 82.362 -168.4272
40.667328 82.401 -168.5804
40.962020 82.439 -168.7409
41.258848 82.475 -168.9066
41.557827 82.509 -169.0752
41.858972 82.540 -169.2440
42.162299 82.568 -169.4106
42.467824 82.595 -169.5727
42.775564 82.619 -169.7288
43.085533 82.641 -169.8784
43.397749 82.661 -170.0220
43.712227 82.680 -170.1609
44.028983 82.698 -170.2972
44.348036 82.715 -170.4333
44.669400 82.731 -170.5715
44.993093 82.747 -170.7139
45.319131 82.762 -170.8621
45.647532 82.777 -171.0176
45.978313 82.792 -171.1815
46.311491 82.806 -171.3546
46.647083 82.820 -171.5371
46.985107 82.833 -171.7285
47.325581 82.846 -171.9274
47.668521 82.857 -172.1320
48.013947 82.867 -172.3405
48.361876 82.877 -172.5510
48.712326 82.887 -172.7623
49.065315 82.896 -172.9737
49.420863 82.904 -173.1848
49.778987 82.913 -173.3954
50.139706 82.920 -173.6051
50.503039 82.926 -173.8130
50.869005 82.930 -174.0177
51.237623 82.931 -174.2171
51.608912 82.930 -174.4085
51.982891 82.927 -174.5896
52.359580 82.922 -174.7588
52.739000 82.917 -174.9156
53.121168 82.912 -175.0614
53.506106 82.909 -175.1987
53.893833 82.909 -175.3311
54.284370 82.910 -175.4624
54.677737 82.914 -175.5959
55.073955 82.920 -175.7334
55.473043 82.928 -175.8757
55.875024 82.937 -176.0218
56.279917 82.949 -176.1694
56.687745 82.963 -176.3154
57.098527 82.979 -176.4563
57.512287 82.999 -176.5894
57.929045 83.021 -176.7142
58.348822 83.046 -176.8334
58.771642 83.072 -176.9533
59.197525 83.099 -177.0825
59.626495 83.124 -177.2301
60.058573 83.147 -177.4030
60.493782 83.167 -177.6041
60.932145 83.185 -177.8324
61.373685 83.201 -178.0837
61.818424 83.217 -178.3516
62.266386 83.233 -178.6295
62.717593 83.252 -178.9111
63.172071 83.272 -179.1912
63.629842 83.295 -179.4661
64.090930 83.320 -179.7337
64.555359 83.346 -179.9938
65.023154 83.375 179.7531
65.494339 83.404 179.5058
65.968938 83.434 179.2636
66.446976 83.465 179.0260
66.928478 83.495 178.7928
67.413469 83.524 178.5640
67.901975 83.553 178.3389
68.394021 83.580 178.1167
68.889632 83.607 177.8961
69.388835 83.632 177.6759
69.891655 83.656 177.4550
70.398118 83.678 177.2328
70.908252 83.700 177.0093
71.422083 83.720 176.7846
71.939636 83.739 176.5586
72.460941 83.757 176.3312
72.986023 83.773 176.1021
73.514909 83.787 175.8706
74.047629 83.799 175.6364
74.584208 83.809 175.3993
75.124676 83.817 175.1594
75.669061 83.822 174.9169
76.217390 83.825 174.6722
76.769692 83.825 174.4257
77.325997 83.823 174.1773
77.886333 83.819 173.9270
78.450730 83.814 173.6749
79.019216 83.806 173.4214
79.591822 83.798 173.1672
80.168577 83.788 172.9130
80.749512 83.777 172.6594
81.334656 83.766 172.4071
81.924040 83.755 172.1567
82.517696 83.744 171.9088
83.115653 83.732 171.6641
83.717943 83.721 171.4229
84.324598 83.709 171.1852
84.935649 83.697 170.9508
85.551128 83.684 170.7193
86.171066 83.671 170.4902
86.795497 83.657 170.2631
87.424453 83.642 170.0377
88.057967 83.627 169.8141
88.696071 83.611 169.5920
89.338800 83.594 169.3714
89.986185 83.577 169.1517
90.638262 83.560 168.9326
91.295065 83.542 168.7136
91.956626 83.525 168.4942
92.622982 83.507 168.2741
93.294166 83.490 168.0531
93.970214 83.473 167.8312
94.651161 83.457 167.6088
95.337042 83.441 167.3862
96.027894 83.426 167.1639
96.723752 83.411 166.9423
97.424652 83.395 166.7217
98.130631 83.379 166.5029
98.841726 83.363 166.2862
99.557974 83.346 166.0725
100.279412 83.329 165.8624
101.006078 83.311 165.6564
101.738010 83.293 165.4544
102.475245 83.276 165.2565
103.217823 83.260 165.0623
103.965782 83.245 164.8715
104.719161 83.232 164.6837
105.477999 83.222 164.4980
106.242336 83.213 164.3134
107.012212 83.207 164.1288
107.787666 83.202 163.9435
108.568740 83.199 163.7569
109.355474 83.197 163.5691
110.147909 83.196 163.3798
110.946086 83.195 163.1892
111.750047 83.195 162.9972
112.559834 83.195 162.8041
113.375489 83.196 162.6107
114.197055 83.197 162.4179
115.024574 83.199 162.2269
115.858089 83.201 162.0384
116.697645 83.203 161.8530
117.543284 83.205 161.6706
118.395051 83.207 161.4907
119.252990 83.210 161.3126
120.117147 83.213 161.1355
120.987565 83.217 160.9586
121.864291 83.220 160.7810
122.747370 83.224 160.6021
123.636848 83.227 160.4211
124.532771 83.230 160.2379
125.435187 83.233 160.0522
126.344142 83.234 159.8636
127.259684 83.235 159.6718
128.181860 83.235 159.4762
129.110718 83.234 159.2769
130.046308 83.233 159.0737
130.988677 83.230 158.8668
131.937875 83.226 158.6561
132.893951 83.220 158.4415
133.856956 83.213 158.2233
134.826938 83.205 158.0015
135.803950 83.195 157.7764
136.788041 83.183 157.5485
137.779264 83.170 157.3178
138.777669 83.155 157.0847
139.783309 83.138 156.8489
140.796237 83.119 156.6100
141.816504 83.098 156.3672
142.844165 83.075 156.1200
143.879273 83.050 155.8682
144.921881 83.024 155.6123
145.972045 82.995 155.3531
147.029819 82.965 155.0919
148.095257 82.933 154.8302
149.168417 82.899 154.5695
150.249353 82.864 154.3111
151.338121 82.827 154.0561
152.434780 82.789 153.8055
153.539385 82.749 153.5599
154.651995 82.708 153.3198
155.772667 82.666 153.0853
156.901460 82.622 152.8564
158.038432 82.576 152.6335
159.183644 82.529 152.4166
160.337154 82.480 152.2065
161.499023 82.431 152.0041
162.669312 82.379 151.8106
163.848081 82.327 151.6280
165.035392 82.273 151.4586
166.231306 82.218 151.3052
167.435887 82.162 151.1707
168.649196 82.105 151.0579
169.871298 82.047 150.9689
171.102255 81.988 150.9054
172.342133 81.929 150.8688
173.590995 81.870 150.8596
174.848907 81.811 150.8781
176.115934 81.754 150.9237
177.392143 81.698 150.9958
178.677599 81.644 151.0933
179.972371 81.593 151.2148
181.276525 81.544 151.3586
182.590129 81.498 151.5225
183.913252 81.455 151.7040
185.245964 81.416 151.8998
186.588332 81.380 152.1063
187.940428 81.347 152.3192
189.302322 81.316 152.5336
190.674085 81.289 152.7449
192.055788 81.265 152.9490
193.447503 81.245 153.1427
194.849303 81.227 153.3240
196.261262 81.213 153.4917
197.683452 81.202 153.6457
199.115948 81.195 153.7862
200.558824 81.190 153.9138
202.012156 81.189 154.0286
203.476019 81.191 154.1306
204.950490 81.195 154.2194
206.435646 81.201 154.2947
207.931564 81.209 154.3564
209.438322 81.219 154.4050
210.955998 81.230 154.4412
212.484672 81.243 154.4659
214.024424 81.256 154.4804
215.575333 81.271 154.4854
217.137481 81.286 154.4817
218.710948 81.301 154.4695
220.295818 81.318 154.4492
221.892172 81.335 154.4202
223.500094 81.353 154.3821
225.119668 81.372 154.3340
226.750978 81.393 154.2748
228.394109 81.414 154.2037
230.049147 81.435 154.1201
231.716178 81.458 154.0240
233.395289 81.481 153.9153
235.086567 81.504 153.7946
236.790102 81.527 153.6624
238.505980 81.551 153.5196
240.234293 81.574 153.3669
241.975130 81.597 153.2054
243.728581 81.620 153.0359
245.494739 81.643 152.8596
247.273695 81.667 152.6776
249.065542 81.690 152.4911
250.870374 81.713 152.3009
252.688284 81.735 152.1078
254.519367 81.756 151.9125
256.363720 81.776 151.7153
258.221437 81.795 151.5163
260.092616 81.812 151.3159
261.977354 81.828 151.1145
263.875750 81.844 150.9134
265.787903 81.858 150.7146
267.713911 81.873 150.5202
269.653877 81.888 150.3324
271.607900 81.903 150.1525
273.576083 81.919 149.9800
275.558528 81.936 149.8134
277.555338 81.954 149.6503
279.566619 81.973 149.4881
281.592474 81.994 149.3248
283.633009 82.015 149.1583
285.688331 82.037 148.9869
287.758546 82.060 148.8083
289.843763 82.084 148.6201
291.944090 82.109 148.4199
294.059638 82.135 148.2053
296.190515 82.161 147.9749
298.336833 82.188 147.7275
300.498705 82.216 147.4630
302.676243 82.244 147.1813
304.869559 82.271 146.8824
307.078770 82.299 146.5662
309.303989 82.325 146.2323
311.545334 82.350 145.8801
313.802919 82.373 145.5092
316.076865 82.394 145.1192
318.367288 82.412 144.7104
320.674309 82.426 144.2836
322.998047 82.436 143.8406
325.338624 82.442 143.3839
327.696162 82.442 142.9171
330.070783 82.435 142.4446
332.462612 82.422 141.9715
334.871773 82.402 141.5033
337.298392 82.373 141.0462
339.742595 82.337 140.6064
342.204510 82.294 140.1904
344.684265 82.243 139.8043
347.181989 82.186 139.4544
349.697813 82.123 139.1462
352.231868 82.055 138.8849
354.784285 81.984 138.6746
357.355198 81.910 138.5182
359.944741 81.835 138.4171
362.553049 81.760 138.3712
365.180258 81.685 138.3792
367.826505 81.612 138.4384
370.491927 81.542 138.5451
373.176665 81.476 138.6950
375.880856 81.416 138.8832
378.604644 81.361 139.1041
381.348169 81.312 139.3520
384.111575 81.270 139.6205
386.895006 81.235 139.9030
389.698607 81.208 140.1919
392.522524 81.187 140.4797
395.366904 81.173 140.7595
398.231895 81.166 141.0250
401.117648 81.164 141.2716
404.024312 81.167 141.4959
406.952038 81.174 141.6957
409.900981 81.185 141.8699
412.871292 81.198 142.0178
415.863128 81.212 142.1394
418.876643 81.227 142.2347
421.911996 81.242 142.3046
424.969344 81.256 142.3501
428.048847 81.269 142.3735
431.150666 81.280 142.3779
434.274961 81.289 142.3667
437.421897 81.296 142.3438
440.591636 81.303 142.3123
443.784345 81.309 142.2749
447.000189 81.315 142.2329
450.239337 81.323 142.1863
453.501956 81.332 142.1335
456.788219 81.343 142.0714
460.098294 81.358 141.9956
463.432356 81.375 141.9009
466.790578 81.395 141.7812
470.173135 81.419 141.6310
473.580203 81.444 141.4447
477.011961 81.472 141.2182
480.468586 81.501 140.9485
483.950259 81.530 140.6341
487.457163 81.559 140.2743
490.989478 81.588 139.8698
494.547390 81.614 139.4221
498.131084 81.639 138.9331
501.740748 81.660 138.4053
505.376568 81.678 137.8413
509.038735 81.692 137.2435
512.727439 81.702 136.6143
516.442874 81.708 135.9556
520.185232 81.709 135.2690
523.954708 81.704 134.5563
527.751500 81.693 133.8195
531.575805 81.674 133.0618
535.427822 81.648 132.2882
539.307753 81.613 131.5057
543.215800 81.567 130.7231
547.152165 81.509 129.9518
551.117055 81.439 129.2052
555.110677 81.357 128.4988
559.133237 81.262 127.8499
563.184947 81.156 127.2766
567.266018 81.039 126.7963
571.376661 80.915 126.4241
575.517092 80.786 126.1716
579.687526 80.654 126.0450
583.888181 80.525 126.0452
588.119275 80.399 126.1668
592.381030 80.282 126.4000
596.673667 80.174 126.7308
600.997410 80.078 127.1437
605.352485 79.995 127.6223
609.739119 79.924 128.1506
614.157540 79.868 128.7132
618.607979 79.824 129.2963
623.090667 79.793 129.8875
627.605839 79.774 130.4756
632.153730 79.766 131.0514
636.734576 79.769 131.6066
641.348617 79.781 132.1345
645.996094 79.802 132.6291
650.677248 79.831 133.0860
655.392323 79.866 133.5021
660.141566 79.907 133.8758
664.925224 79.953 134.2068
669.743546 80.002 134.4953
674.596784 80.055 134.7419
679.485191 80.111 134.9467
684.409020 80.169 135.1091
689.368530 80.229 135.2280
694.363979 80.292 135.3017
699.395626 80.357 135.3275
704.463736 80.423 135.3022
709.568570 80.490 135.2217
714.710396 80.559 135.0817
719.889483 80.627 134.8776
725.106099 80.695 134.6050
730.360516 80.761 134.2596
735.653010 80.824 133.8380
740.983855 80.881 133.3384
746.353329 80.932 132.7617
751.761713 80.973 132.1115
757.209288 81.002 131.3952
762.696339 81.019 130.6226
768.223151 81.021 129.8061
773.790013 81.007 128.9589
779.397214 80.977 128.0951
785.045047 80.930 127.2291
790.733808 80.866 126.3760
796.463791 80.785 125.5523
802.235296 80.687 124.7763
808.048623 80.573 124.0682
813.904077 80.444 123.4492
819.801961 80.302 122.9405
825.742584 80.150 122.5602
831.726255 79.993 122.3216
837.753287 79.835 122.2306
843.823992 79.680 122.2847
849.938689 79.534 122.4732
856.097695 79.401 122.7780
862.301332 79.283 123.1754
868.549922 79.184 123.6382
874.843793 79.104 124.1388
881.183272 79.043 124.6517
887.568689 79.001 125.1558
894.000378 78.976 125.6355
900.478673 78.966 126.0802
907.003913 78.970 126.4830
913.576437 78.987 126.8389
920.196588 79.016 127.1432
926.864712 79.057 127.3900
933.581156 79.108 127.5719
940.346270 79.169 127.6802
947.160407 79.238 127.7063
954.023921 79.313 127.6425
960.937172 79.392 127.4834
967.900519 79.471 127.2270
974.914325 79.550 126.8753
981.978956 79.624 126.4342
989.094780 79.692 125.9131
996.262169 79.751 125.3240
1003.481495 79.801 124.6807
1010.753136 79.840 123.9979
1018.077470 79.869 123.2907
1025.454879 79.886 122.5741
1032.885748 79.893 121.8616
1040.370463 79.890 121.1647
1047.909417 79.880 120.4925
1055.503000 79.862 119.8513
1063.151610 79.838 119.2448
1070.855645 79.809 118.6750
1078.615506 79.776 118.1432
1086.431599 79.739 117.6502
1094.304330 79.699 117.1968
1102.234110 79.656 116.7835
1110.221353 79.611 116.4103
1118.266475 79.564 116.0764
1126.369895 79.515 115.7804
1134.532035 79.466 115.5212
1142.753322 79.415 115.2995
1151.034184 79.362 115.1182
1159.375052 79.308 114.9827
1167.776361 79.254 114.8996
1176.238550 79.201 114.8747
1184.762060 79.151 114.9109
1193.347334 79.106 115.0063
1201.994821 79.070 115.1519
1210.704971 79.044 115.3319
1219.478238 79.029 115.5244
1228.315080 79.025 115.7045
1237.215957 79.030 115.8486
1246.181334 79.043 115.9394
1255.211678 79.059 115.9683
1264.307459 79.076 115.9354
1273.469152 79.090 115.8478
1282.697235 79.101 115.7163
1291.992188 79.106 115.5527
1301.354495 79.105 115.3674
1310.784647 79.097 115.1694
1320.283132 79.083 114.9667
1329.850448 79.062 114.7673
1339.487093 79.033 114.5798
1349.193569 78.998 114.4139
1358.970381 78.956 114.2797
1368.818041 78.908 114.1872
1378.737061 78.856 114.1451
1388.727958 78.800 114.1602
1398.791253 78.743 114.2368
1408.927471 78.687 114.3772
1419.137140 78.632 114.5827
1429.420793 78.581 114.8537
1439.778965 78.535 115.1897
1450.212197 78.497 115.5892
1460.721033 78.467 116.0489
1471.306019 78.447 116.5627
1481.967709 78.439 117.1206
1492.706658 78.444 117.7086
1503.523426 78.462 118.3085
1514.418576 78.492 118.8997
1525.392678 78.534 119.4609
1536.446302 78.584 119.9729
1547.580025 78.639 120.4199
1558.794428 78.696 120.7917
1570.090095 78.750 121.0855
1581.467615 78.796 121.3074
1592.927581 78.831 121.4735
1604.470591 78.853 121.6096
1616.097246 78.858 121.7485
1627.808153 78.849 121.9253
1639.603922 78.826 122.1724
1651.485168 78.795 122.5149
1663.452510 78.759 122.9673
1675.506573 78.723 123.5320
1687.647984 78.694 124.1994
1699.877377 78.674 124.9505
1712.195390 78.667 125.7588
1724.602663 78.674 126.5928
1737.099845 78.697 127.4191
1749.687587 78.735 128.2051
1762.366544 78.785 128.9224
1775.137379 78.845 129.5473
1788.000756 78.910 130.0625
1800.957346 78.975 130.4584
1814.007826 79.036 130.7358
1827.152874 79.087 130.9074
1840.393177 79.124 130.9971
1853.729425 79.142 131.0385
1867.162312 79.141 131.0712
1880.692540 79.121 131.1361
1894.320813 79.082 131.2719
1908.047843 79.030 131.5112
1921.874344 78.967 131.8784
1935.801038 78.900 132.3867
1949.828650 78.835 133.0378
1963.957912 78.775 133.8211
1978.189561 78.728 134.7148
1992.524338 78.697 135.6870
2006.962991 78.684 136.6990
2021.506272 78.690 137.7077
2036.154940 78.716 138.6711
2050.909758 78.759 139.5524
2065.771495 78.814 140.3243
2080.740927 78.878 140.9706
2095.818833 78.945 141.4871
2111.006001 79.011 141.8810
2126.303220 79.071 142.1694
2141.711290 79.122 142.3778
2157.231013 79.161 142.5379
2172.863198 79.188 142.6842
2188.608660 79.205 142.8502
2204.468221 79.214 143.0639
2220.442706 79.218 143.3445
2236.532950 79.223 143.7000
2252.739789 79.233 144.1259
2269.064070 79.252 144.6066
2285.506644 79.283 145.1180
2302.068367 79.327 145.6319
2318.750104 79.384 146.1206
2335.552723 79.452 146.5621
2352.477101 79.529 146.9426
2369.524119 79.611 147.2586
2386.694668 79.696 147.5151
2403.989641 79.783 147.7227
2421.409941 79.871 147.8945
2438.956476 79.961 148.0419
2456.630160 80.053 148.1725
2474.431915 80.148 148.2893
2492.362668 80.248 148.3911
2510.423356 80.353 148.4739
2528.614918 80.463 148.5328
2546.938304 80.579 148.5629
2565.394469 80.699 148.5598
2583.984375 80.823 148.5201
2602.708991 80.950 148.4417
2621.569293 81.079 148.3248
2640.566265 81.209 148.1722
2659.700897 81.339 147.9902
2678.974186 81.468 147.7877
2698.387137 81.598 147.5742
2717.940763 81.728 147.3585
2737.636082 81.860 147.1457
2757.474121 81.996 146.9352
2777.455915 82.137 146.7195
2797.582506 82.285 146.4838
2817.854942 82.437 146.2093
2838.274281 82.593 145.8776
2858.841586 82.750 145.4744
2879.557931 82.903 144.9933
2900.424394 83.049 144.4357
2921.442065 83.185 143.8105
2942.612039 83.308 143.1318
2963.935418 83.418 142.4164
2985.413316 83.513 141.6809
3007.046852 83.593 140.9414
3028.837153 83.660 140.2118
3050.785356 83.714 139.5027
3072.892604 83.756 138.8204
3095.160050 83.787 138.1659
3117.588856 83.808 137.5375
3140.180190 83.819 136.9323
3162.935230 83.818 136.3480
3185.855163 83.805 135.7849
3208.941182 83.778 135.2477
3232.194493 83.737 134.7453
3255.616307 83.681 134.2895
3279.207844 83.611 133.8920
3302.970336 83.527 133.5628
3326.905021 83.432 133.3082
3351.013146 83.326 133.1309
3375.295969 83.211 133.0315
3399.754755 83.088 133.0118
3424.390779 82.957 133.0768
3449.205326 82.819 133.2340
3474.199690 82.676 133.4922
3499.375173 82.530 133.8581
3524.733088 82.384 134.3330
3550.274757 82.241 134.9109
3576.001511 82.104 135.5797
3601.914692 81.974 136.3268
3628.015651 81.852 137.1436
3654.305748 81.740 138.0285
3680.786354 81.637 138.9865
3707.458849 81.547 140.0251
3734.324624 81.471 141.1494
3761.385080 81.413 142.3591
3788.641627 81.375 143.6474
3816.095686 81.362 145.0010
3843.748688 81.375 146.4029
3871.602076 81.415 147.8348
3899.657300 81.483 149.2808
3927.915825 81.578 150.7283
3956.379122 81.701 152.1672
3985.048676 81.851 153.5865
4013.925981 82.027 154.9725
4043.012544 82.228 156.3110
4072.309879 82.452 157.5934
4101.819515 82.697 158.8199
4131.542990 82.962 159.9974
4161.481854 83.248 161.1306
4191.637667 83.553 162.2134
4222.012001 83.878 163.2223
4252.606441 84.222 164.1151
4283.422580 84.580 164.8381
4314.462026 84.946 165.3424
4345.726396 85.313 165.5995
4377.217321 85.675 165.6099
4408.936442 86.027 165.3983
4440.885413 86.368 165.0018
4473.065899 86.699 164.4578
4505.479579 87.024 163.7941
4538.128141 87.345 163.0233
4571.013288 87.664 162.1411
4604.136735 87.982 161.1286
4637.500207 88.296 159.9578
4671.105446 88.601 158.5997
4704.954201 88.891 157.0318
4739.048239 89.158 155.2424
4773.389336 89.391 153.2344
4807.979283 89.583 151.0287
4842.819883 89.727 148.6654
4877.912952 89.817 146.1995
4913.260320 89.852 143.6942
4948.863830 89.835 141.2124
4984.725337 89.769 138.8099
5020.846712 89.660 136.5325
5057.229836 89.512 134.4176
5093.876609 89.333 132.4952
5130.788938 89.129 130.7907
5167.968750 88.904 129.3241
5205.417982 88.667 128.1097
5243.138586 88.424 127.1552
5281.132530 88.182 126.4619
5319.401793 87.948 126.0248
5357.948371 87.728 125.8338
5396.774274 87.529 125.8740
5435.881525 87.356 126.1255
5475.272163 87.216 126.5618
5514.948243 87.112 127.1475
5554.911831 87.049 127.8384
5595.165012 87.028 128.5819
5635.709884 87.048 129.3199
5676.548561 87.106 129.9934
5717.683172 87.197 130.5492
5759.115861 87.313 130.9455
5800.848789 87.446 131.1543
5842.884130 87.588 131.1614
5885.224077 87.730 130.9654
5927.870837 87.865 130.5760
5970.826633 87.986 130.0119
6014.093704 88.089 129.2982
6057.674306 88.169 128.4635
6101.570711 88.222 127.5392
6145.785208 88.247 126.5587
6190.320101 88.242 125.5575
6235.177712 88.206 124.5728
6280.360380 88.140 123.6412
6325.870460 88.046 122.7979
6371.710325 87.926 122.0742
6417.882365 87.786 121.4965
6464.388986 87.628 121.0835
6511.232613 87.460 120.8464
6558.415689 87.285 120.7881
6605.940673 87.111 120.9026
6653.810042 86.942 121.1760
6702.026292 86.784 121.5865
6750.591937 86.641 122.1059
6799.509509 86.517 122.7012
6848.781558 86.416 123.3356
6898.410653 86.339 123.9706
6948.399380 86.289 124.5660
6998.750346 86.267 125.0803
7049.466176 86.273 125.4697
7100.549514 86.307 125.6898
7152.003023 86.365 125.6960
7203.829385 86.445 125.4460
7256.031302 86.542 124.9018
7308.611496 86.649 124.0316
7361.572708 86.759 122.8113
7414.917698 86.866 121.2249
7468.649249 86.962 119.2632
7522.770160 87.040 116.9230
7577.283253 87.094 114.2042
7632.191371 87.118 111.1077
7687.497376 87.110 107.6330
7743.204151 87.065 103.7747
7799.314600 86.983 99.5188
7855.831649 86.863 94.8376
7912.758244 86.707 89.6826
7970.097352 86.516 83.9755
8027.851962 86.293 77.5925
8086.025087 86.043 70.3398
8144.619758 85.773 61.9123
8203.639030 85.490 51.8318
8263.085980 85.205 39.3822
8322.963708 84.928 23.6642
8383.275334 84.674 4.1641
8444.024002 84.457 -17.8668
8505.212881 84.287 -39.0835
8566.845160 84.176 -56.7568
8628.924051 84.130 -70.4865
8691.452792 84.151 -81.0742
8754.434642 84.238 -89.4044
8817.872884 84.387 -96.1318
8881.770826 84.592 -101.7012
8946.131799 84.846 -106.4172
9010.959157 85.141 -110.4979
9076.256282 85.468 -114.1086
9142.026576 85.821 -117.3812
9208.273470 86.188 -120.4244
9275.000415 86.563 -123.3291
9342.210891 86.935 -126.1697
9409.908403 87.297 -129.0056
9478.096478 87.639 -131.8812
9546.778672 87.956 -134.8268
9615.958566 88.238 -137.8596
9685.639765 88.481 -140.9839
9755.825904 88.678 -144.1927
9826.520640 88.824 -147.4680
9897.727659 88.915 -150.7832
9969.450674 88.950 -154.1041
10041.693423 88.926 -157.3914
10114.459673 88.843 -160.6031
10187.753217 88.703 -163.6964
10261.577877 88.507 -166.6290
10335.937500 88.259 -169.3617
10410.835964 87.964 -171.8594
10486.277173 87.625 -174.0926
10562.265060 87.250 -176.0395
10638.803587 86.846 -177.6874
10715.896743 86.418 -179.0339
10793.548548 85.975 179.9114
10871.763050 85.525 179.1275
10950.544327 85.073 178.5827
11029.896485 84.625 178.2379
11109.823662 84.186 178.0511
11190.330024 83.756 177.9824
11271.419768 83.337 177.9984
11353.097122 82.928 178.0748
11435.366344 82.527 178.1956
11518.231722 82.134 178.3493
11601.697577 81.747 178.5250
11685.768261 81.366 178.7085
11770.448155 80.992 178.8799
11855.741674 80.624 179.0137
11941.653265 80.262 179.0807
12028.187408 79.906 179.0499
12115.348612 79.553 178.8925
12203.141422 79.198 178.5846
12291.570415 78.839 178.1105
12380.640201 78.468 177.4651
12470.355424 78.079 176.6553
12560.720760 77.668 175.7011
12651.740920 77.226 174.6382
12743.420650 76.749 173.5193
12835.764729 76.233 172.4190
12928.777972 75.679 171.4393
13022.465227 75.091 170.7218
13116.831378 74.478 170.4755
13211.881345 73.857 171.0383
13307.620084 73.254 173.0155
13404.052584 72.700 177.5862
13501.183875 72.234 -172.8992
13599.019019 71.892 -154.7396
13697.563116 71.696 -128.6119
13796.821305 71.650 -106.6099
13896.798760 71.732 -94.5778
13997.500692 71.902 -89.2760
14098.932352 72.117 -87.6385
14201.099028 72.336 -88.0342
14304.006046 72.524 -89.6126
14407.658770 72.657 -91.8906
14512.062604 72.716 -94.5605
14617.222992 72.690 -97.3990
14723.145416 72.571 -100.2220
14829.835397 72.358 -102.8635
14937.298497 72.052 -105.1648
15045.540320 71.662 -106.9701
15154.566507 71.196 -108.1227
15264.382743 70.672 -108.4651
15374.994752 70.109 -107.8451
15486.408302 69.534 -106.1358
15598.629201 68.982 -103.2783
15711.663298 68.491 -99.3451
15825.516487 68.106 -94.6022
15940.194703 67.863 -89.5135
16055.703925 67.785 -84.6445
16172.050174 67.875 -80.5035
16289.239516 68.112 -77.4232
16407.278061 68.460 -75.5427
16526.171961 68.880 -74.8577
16645.927415 69.333 -75.2839
16766.550667 69.791 -76.7032
16888.048005 70.228 -78.9908
17010.425762 70.632 -82.0283
17133.690320 70.992 -85.7087
17257.848103 71.304 -89.9395
17382.905584 71.571 -94.6434
17508.869284 71.796 -99.7618
17635.745768 71.986 -105.2556
17763.541652 72.147 -111.1067
17892.263597 72.285 -117.3177
18021.918315 72.404 -123.9081
18152.512564 72.505 -130.9099
18284.053153 72.586 -138.3632
18416.546939 72.644 -146.3145
18550.000830 72.677 -154.8174
18684.421783 72.682 -163.9301
18819.816805 72.657 -173.7073
18956.192956 72.601 175.8248
19093.557344 72.516 164.7267
19231.917131 72.404 153.2335
19371.279531 72.273 141.8423
19511.651807 72.133 131.3098
19653.041280 72.002 122.5105
19795.455318 71.899 116.2158
19938.901348 71.842 112.9459
