* Measurement data measured by REW V5.31.3
* Source: EXCL: Headset (USB-C to 3.5mm Headphone Jack Adapter), MICROPHONE (Master Volume), 0, volume: 0.750
* Format: 256k Log Swept Sine, 1 sweep at -12.0 dBFS with no timing reference
* Dated: May 15, 2025 10:58:20 PM
* REW Settings:
*  C-weighting compensation: Off
*  Target level: 75.0 dB
* Note: ; 
* Measurement: HD560s (worn) R9
* Smoothing: 1/6 octave
* Frequency Step: 96 ppo
* Start Frequency: 20.0 Hz
*
* Freq(Hz) SPL(dB) Phase(degrees)
20.187378 77.072 -103.9766
20.333664 77.105 -104.1099
20.481010 77.151 -104.2867
20.629424 77.207 -104.4997
20.778913 77.272 -104.7414
20.929486 77.345 -105.0043
21.081150 77.425 -105.2822
21.233912 77.510 -105.5701
21.387782 77.601 -105.8645
21.542767 77.695 -106.1635
21.698874 77.792 -106.4667
21.856113 77.891 -106.7747
22.014492 77.992 -107.0889
22.174018 78.093 -107.4109
22.334700 78.192 -107.7423
22.496546 78.290 -108.0841
22.659566 78.385 -108.4363
22.823766 78.476 -108.7982
22.989157 78.562 -109.1679
23.155745 78.643 -109.5423
23.323542 78.717 -109.9181
23.492554 78.785 -110.2911
23.662790 78.846 -110.6576
23.834261 78.900 -111.0140
24.006973 78.947 -111.3576
24.180938 78.989 -111.6866
24.356163 79.025 -112.0005
24.532658 79.055 -112.2997
24.710431 79.081 -112.5860
24.889493 79.103 -112.8618
25.069853 79.121 -113.1305
25.251519 79.137 -113.3956
25.434502 79.150 -113.6610
25.618811 79.161 -113.9306
25.804456 79.171 -114.2079
25.991445 79.180 -114.4966
26.179790 79.190 -114.7994
26.369500 79.200 -115.1190
26.560584 79.211 -115.4574
26.753053 79.223 -115.8155
26.946917 79.236 -116.1939
27.142185 79.251 -116.5918
27.338869 79.268 -117.0074
27.536977 79.285 -117.4381
27.736522 79.303 -117.8798
27.937512 79.321 -118.3281
28.139959 79.338 -118.7777
28.343872 79.355 -119.2232
28.549264 79.372 -119.6594
28.756143 79.388 -120.0819
28.964522 79.403 -120.4871
29.174411 79.419 -120.8728
29.385821 79.436 -121.2382
29.598763 79.454 -121.5838
29.813248 79.475 -121.9114
30.029287 79.499 -122.2234
30.246891 79.527 -122.5231
30.466073 79.560 -122.8134
30.686842 79.597 -123.0974
30.909212 79.640 -123.3775
31.133193 79.688 -123.6560
31.358797 79.741 -123.9348
31.586035 79.799 -124.2157
31.814921 79.862 -124.5002
32.045465 79.928 -124.7903
32.277680 79.998 -125.0874
32.511577 80.071 -125.3928
32.747169 80.145 -125.7074
32.984469 80.221 -126.0310
33.223488 80.297 -126.3624
33.464239 80.373 -126.6999
33.706735 80.450 -127.0408
33.950987 80.527 -127.3821
34.197010 80.604 -127.7210
34.444816 80.682 -128.0550
34.694417 80.762 -128.3823
34.945827 80.844 -128.7018
35.199059 80.926 -129.0128
35.454126 81.010 -129.3152
35.711041 81.096 -129.6091
35.969818 81.182 -129.8953
36.230470 81.268 -130.1750
36.493011 81.354 -130.4502
36.757455 81.440 -130.7241
37.023814 81.525 -131.0004
37.292104 81.608 -131.2834
37.562338 81.689 -131.5772
37.834530 81.768 -131.8847
38.108695 81.844 -132.2074
38.384846 81.916 -132.5450
38.662999 81.985 -132.8952
38.943167 82.049 -133.2548
39.225365 82.108 -133.6199
39.509608 82.164 -133.9869
39.795911 82.217 -134.3526
40.084289 82.266 -134.7143
40.374756 82.311 -135.0696
40.667328 82.354 -135.4160
40.962020 82.393 -135.7508
41.258848 82.430 -136.0712
41.557827 82.465 -136.3750
41.858972 82.499 -136.6607
42.162299 82.532 -136.9284
42.467824 82.564 -137.1798
42.775564 82.595 -137.4175
43.085533 82.627 -137.6445
43.397749 82.657 -137.8640
43.712227 82.687 -138.0782
44.028983 82.715 -138.2890
44.348036 82.741 -138.4976
44.669400 82.765 -138.7053
44.993093 82.787 -138.9136
45.319131 82.808 -139.1241
45.647532 82.828 -139.3387
45.978313 82.846 -139.5590
46.311491 82.863 -139.7865
46.647083 82.880 -140.0217
46.985107 82.896 -140.2644
47.325581 82.912 -140.5132
47.668521 82.929 -140.7657
48.013947 82.945 -141.0182
48.361876 82.962 -141.2668
48.712326 82.980 -141.5076
49.065315 82.999 -141.7376
49.420863 83.018 -141.9551
49.778987 83.039 -142.1605
50.139706 83.060 -142.3554
50.503039 83.081 -142.5432
50.869005 83.102 -142.7278
51.237623 83.121 -142.9136
51.608912 83.139 -143.1047
51.982891 83.156 -143.3038
52.359580 83.172 -143.5125
52.739000 83.187 -143.7302
53.121168 83.201 -143.9548
53.506106 83.215 -144.1829
53.893833 83.230 -144.4104
54.284370 83.244 -144.6335
54.677737 83.260 -144.8484
55.073955 83.276 -145.0514
55.473043 83.292 -145.2390
55.875024 83.310 -145.4078
56.279917 83.329 -145.5550
56.687745 83.349 -145.6793
57.098527 83.371 -145.7815
57.512287 83.393 -145.8658
57.929045 83.416 -145.9404
58.348822 83.439 -146.0180
58.771642 83.462 -146.1163
59.197525 83.486 -146.2551
59.626495 83.510 -146.4528
60.058573 83.535 -146.7218
60.493782 83.561 -147.0638
60.932145 83.587 -147.4696
61.373685 83.614 -147.9212
61.818424 83.644 -148.3968
62.266386 83.675 -148.8757
62.717593 83.709 -149.3427
63.172071 83.745 -149.7886
63.629842 83.783 -150.2100
64.090930 83.823 -150.6074
64.555359 83.864 -150.9834
65.023154 83.906 -151.3412
65.494339 83.947 -151.6834
65.968938 83.989 -152.0114
66.446976 84.029 -152.3263
66.928478 84.067 -152.6291
67.413469 84.103 -152.9213
67.901975 84.137 -153.2054
68.394021 84.170 -153.4839
68.889632 84.200 -153.7592
69.388835 84.230 -154.0331
69.891655 84.258 -154.3061
70.398118 84.285 -154.5786
70.908252 84.310 -154.8506
71.422083 84.335 -155.1219
71.939636 84.358 -155.3928
72.460941 84.379 -155.6639
72.986023 84.399 -155.9356
73.514909 84.418 -156.2085
74.047629 84.434 -156.4828
74.584208 84.449 -156.7585
75.124676 84.460 -157.0350
75.669061 84.469 -157.3116
76.217390 84.475 -157.5871
76.769692 84.479 -157.8598
77.325997 84.479 -158.1283
77.886333 84.477 -158.3912
78.450730 84.474 -158.6481
79.019216 84.468 -158.8994
79.591822 84.461 -159.1462
80.168577 84.453 -159.3898
80.749512 84.443 -159.6315
81.334656 84.432 -159.8722
81.924040 84.420 -160.1125
82.517696 84.408 -160.3526
83.115653 84.395 -160.5923
83.717943 84.382 -160.8313
84.324598 84.369 -161.0691
84.935649 84.356 -161.3052
85.551128 84.343 -161.5395
86.171066 84.331 -161.7718
86.795497 84.318 -162.0022
87.424453 84.305 -162.2309
88.057967 84.292 -162.4579
88.696071 84.279 -162.6832
89.338800 84.266 -162.9068
89.986185 84.252 -163.1285
90.638262 84.237 -163.3483
91.295065 84.222 -163.5660
91.956626 84.206 -163.7820
92.622982 84.190 -163.9964
93.294166 84.174 -164.2097
93.970214 84.157 -164.4219
94.651161 84.140 -164.6327
95.337042 84.122 -164.8416
96.027894 84.105 -165.0475
96.723752 84.088 -165.2492
97.424652 84.070 -165.4457
98.130631 84.053 -165.6364
98.841726 84.037 -165.8211
99.557974 84.020 -166.0002
100.279412 84.004 -166.1744
101.006078 83.989 -166.3445
101.738010 83.974 -166.5109
102.475245 83.959 -166.6739
103.217823 83.946 -166.8332
103.965782 83.935 -166.9885
104.719161 83.925 -167.1394
105.477999 83.916 -167.2856
106.242336 83.910 -167.4270
107.012212 83.904 -167.5635
107.787666 83.901 -167.6955
108.568740 83.898 -167.8238
109.355474 83.896 -167.9496
110.147909 83.896 -168.0742
110.946086 83.896 -168.1990
111.750047 83.897 -168.3250
112.559834 83.900 -168.4526
113.375489 83.903 -168.5817
114.197055 83.906 -168.7118
115.024574 83.909 -168.8420
115.858089 83.912 -168.9719
116.697645 83.915 -169.1011
117.543284 83.917 -169.2292
118.395051 83.919 -169.3559
119.252990 83.919 -169.4807
120.117147 83.918 -169.6031
120.987565 83.916 -169.7228
121.864291 83.914 -169.8392
122.747370 83.910 -169.9522
123.636848 83.907 -170.0618
124.532771 83.903 -170.1680
125.435187 83.899 -170.2710
126.344142 83.895 -170.3705
127.259684 83.891 -170.4662
128.181860 83.886 -170.5574
129.110718 83.881 -170.6438
130.046308 83.876 -170.7250
130.988677 83.870 -170.8012
131.937875 83.863 -170.8730
132.893951 83.855 -170.9412
133.856956 83.847 -171.0076
134.826938 83.838 -171.0737
135.803950 83.828 -171.1410
136.788041 83.817 -171.2103
137.779264 83.805 -171.2814
138.777669 83.792 -171.3535
139.783309 83.779 -171.4258
140.796237 83.764 -171.4975
141.816504 83.749 -171.5678
142.844165 83.733 -171.6364
143.879273 83.717 -171.7029
144.921881 83.700 -171.7674
145.972045 83.682 -171.8297
147.029819 83.663 -171.8899
148.095257 83.644 -171.9477
149.168417 83.624 -172.0032
150.249353 83.604 -172.0563
151.338121 83.583 -172.1074
152.434780 83.561 -172.1570
153.539385 83.539 -172.2056
154.651995 83.517 -172.2542
155.772667 83.494 -172.3035
156.901460 83.472 -172.3542
158.038432 83.449 -172.4069
159.183644 83.428 -172.4616
160.337154 83.406 -172.5177
161.499023 83.386 -172.5744
162.669312 83.366 -172.6305
163.848081 83.347 -172.6851
165.035392 83.328 -172.7376
166.231306 83.310 -172.7873
167.435887 83.292 -172.8338
168.649196 83.274 -172.8766
169.871298 83.257 -172.9156
171.102255 83.239 -172.9508
172.342133 83.221 -172.9828
173.590995 83.203 -173.0119
174.848907 83.184 -173.0384
176.115934 83.166 -173.0621
177.392143 83.147 -173.0826
178.677599 83.127 -173.0988
179.972371 83.107 -173.1102
181.276525 83.085 -173.1161
182.590129 83.063 -173.1167
183.913252 83.040 -173.1127
185.245964 83.016 -173.1046
186.588332 82.991 -173.0932
187.940428 82.965 -173.0789
189.302322 82.939 -173.0620
190.674085 82.912 -173.0426
192.055788 82.885 -173.0204
193.447503 82.858 -172.9950
194.849303 82.831 -172.9655
196.261262 82.805 -172.9308
197.683452 82.779 -172.8896
199.115948 82.753 -172.8407
200.558824 82.729 -172.7835
202.012156 82.706 -172.7178
203.476019 82.684 -172.6444
204.950490 82.663 -172.5649
206.435646 82.643 -172.4815
207.931564 82.625 -172.3964
209.438322 82.608 -172.3118
210.955998 82.593 -172.2293
212.484672 82.578 -172.1495
214.024424 82.565 -172.0724
215.575333 82.552 -171.9978
217.137481 82.540 -171.9254
218.710948 82.530 -171.8552
220.295818 82.520 -171.7873
221.892172 82.511 -171.7220
223.500094 82.502 -171.6592
225.119668 82.495 -171.5990
226.750978 82.489 -171.5413
228.394109 82.484 -171.4857
230.049147 82.481 -171.4319
231.716178 82.478 -171.3793
233.395289 82.477 -171.3269
235.086567 82.477 -171.2735
236.790102 82.478 -171.2180
238.505980 82.481 -171.1597
240.234293 82.484 -171.0984
241.975130 82.488 -171.0344
243.728581 82.493 -170.9682
245.494739 82.498 -170.9003
247.273695 82.504 -170.8315
249.065542 82.510 -170.7624
250.870374 82.517 -170.6935
252.688284 82.523 -170.6251
254.519367 82.530 -170.5577
256.363720 82.537 -170.4912
258.221437 82.544 -170.4256
260.092616 82.551 -170.3608
261.977354 82.558 -170.2964
263.875750 82.565 -170.2324
265.787903 82.572 -170.1690
267.713911 82.578 -170.1064
269.653877 82.585 -170.0448
271.607900 82.591 -169.9845
273.576083 82.598 -169.9254
275.558528 82.605 -169.8677
277.555338 82.612 -169.8117
279.566619 82.620 -169.7574
281.592474 82.628 -169.7046
283.633009 82.637 -169.6532
285.688331 82.646 -169.6027
287.758546 82.655 -169.5524
289.843763 82.665 -169.5016
291.944090 82.674 -169.4495
294.059638 82.684 -169.3952
296.190515 82.694 -169.3381
298.336833 82.704 -169.2777
300.498705 82.715 -169.2137
302.676243 82.726 -169.1459
304.869559 82.738 -169.0740
307.078770 82.751 -168.9979
309.303989 82.764 -168.9178
311.545334 82.778 -168.8341
313.802919 82.792 -168.7473
316.076865 82.807 -168.6580
318.367288 82.823 -168.5667
320.674309 82.838 -168.4741
322.998047 82.855 -168.3808
325.338624 82.871 -168.2873
327.696162 82.888 -168.1942
330.070783 82.904 -168.1019
332.462612 82.921 -168.0108
334.871773 82.937 -167.9209
337.298392 82.953 -167.8323
339.742595 82.968 -167.7448
342.204510 82.982 -167.6582
344.684265 82.996 -167.5725
347.181989 83.008 -167.4872
349.697813 83.020 -167.4020
352.231868 83.030 -167.3162
354.784285 83.038 -167.2290
357.355198 83.046 -167.1397
359.944741 83.051 -167.0480
362.553049 83.056 -166.9541
365.180258 83.059 -166.8590
367.826505 83.062 -166.7639
370.491927 83.063 -166.6704
373.176665 83.064 -166.5797
375.880856 83.065 -166.4923
378.604644 83.065 -166.4084
381.348169 83.064 -166.3274
384.111575 83.064 -166.2483
386.895006 83.064 -166.1703
389.698607 83.063 -166.0925
392.522524 83.063 -166.0148
395.366904 83.063 -165.9368
398.231895 83.063 -165.8586
401.117648 83.062 -165.7800
404.024312 83.060 -165.7007
406.952038 83.058 -165.6206
409.900981 83.055 -165.5399
412.871292 83.052 -165.4590
415.863128 83.047 -165.3785
418.876643 83.041 -165.2988
421.911996 83.034 -165.2201
424.969344 83.026 -165.1424
428.048847 83.016 -165.0654
431.150666 83.005 -164.9889
434.274961 82.992 -164.9125
437.421897 82.977 -164.8359
440.591636 82.962 -164.7590
443.784345 82.945 -164.6814
447.000189 82.926 -164.6031
450.239337 82.907 -164.5244
453.501956 82.886 -164.4459
456.788219 82.865 -164.3683
460.098294 82.843 -164.2921
463.432356 82.821 -164.2177
466.790578 82.799 -164.1451
470.173135 82.777 -164.0742
473.580203 82.756 -164.0042
477.011961 82.735 -163.9345
480.468586 82.715 -163.8647
483.950259 82.695 -163.7945
487.457163 82.676 -163.7241
490.989478 82.658 -163.6538
494.547390 82.641 -163.5844
498.131084 82.624 -163.5165
501.740748 82.608 -163.4503
505.376568 82.592 -163.3858
509.038735 82.577 -163.3227
512.727439 82.564 -163.2603
516.442874 82.551 -163.1978
520.185232 82.540 -163.1343
523.954708 82.530 -163.0687
527.751500 82.521 -163.0000
531.575805 82.514 -162.9274
535.427822 82.509 -162.8500
539.307753 82.505 -162.7672
543.215800 82.503 -162.6786
547.152165 82.503 -162.5836
551.117055 82.505 -162.4818
555.110677 82.510 -162.3730
559.133237 82.516 -162.2573
563.184947 82.524 -162.1354
567.266018 82.535 -162.0080
571.376661 82.548 -161.8765
575.517092 82.562 -161.7425
579.687526 82.579 -161.6076
583.888181 82.597 -161.4738
588.119275 82.616 -161.3429
592.381030 82.635 -161.2167
596.673667 82.656 -161.0968
600.997410 82.675 -160.9846
605.352485 82.695 -160.8809
609.739119 82.713 -160.7862
614.157540 82.729 -160.7003
618.607979 82.744 -160.6227
623.090667 82.756 -160.5525
627.605839 82.766 -160.4885
632.153730 82.773 -160.4297
636.734576 82.777 -160.3747
641.348617 82.777 -160.3222
645.996094 82.774 -160.2702
650.677248 82.767 -160.2164
655.392323 82.757 -160.1573
660.141566 82.742 -160.0892
664.925224 82.723 -160.0077
669.743546 82.701 -159.9083
674.596784 82.675 -159.7865
679.485191 82.646 -159.6380
684.409020 82.616 -159.4598
689.368530 82.584 -159.2500
694.363979 82.552 -159.0084
699.395626 82.521 -158.7367
704.463736 82.491 -158.4382
709.568570 82.464 -158.1181
714.710396 82.439 -157.7821
719.889483 82.417 -157.4362
725.106099 82.398 -157.0861
730.360516 82.381 -156.7361
735.653010 82.366 -156.3895
740.983855 82.352 -156.0483
746.353329 82.339 -155.7134
751.761713 82.326 -155.3852
757.209288 82.313 -155.0633
762.696339 82.301 -154.7476
768.223151 82.288 -154.4382
773.790013 82.276 -154.1354
779.397214 82.264 -153.8401
785.045047 82.254 -153.5536
790.733808 82.244 -153.2774
796.463791 82.235 -153.0127
802.235296 82.228 -152.7604
808.048623 82.221 -152.5208
813.904077 82.215 -152.2935
819.801961 82.210 -152.0772
825.742584 82.205 -151.8701
831.726255 82.202 -151.6703
837.753287 82.199 -151.4760
843.823992 82.197 -151.2854
849.938689 82.196 -151.0976
856.097695 82.196 -150.9119
862.301332 82.198 -150.7279
868.549922 82.201 -150.5460
874.843793 82.205 -150.3667
881.183272 82.210 -150.1910
887.568689 82.217 -150.0199
894.000378 82.226 -149.8544
900.478673 82.236 -149.6955
907.003913 82.247 -149.5435
913.576437 82.260 -149.3986
920.196588 82.274 -149.2608
926.864712 82.289 -149.1299
933.581156 82.307 -149.0055
940.346270 82.326 -148.8873
947.160407 82.346 -148.7745
954.023921 82.368 -148.6663
960.937172 82.392 -148.5617
967.900519 82.417 -148.4599
974.914325 82.445 -148.3600
981.978956 82.474 -148.2616
989.094780 82.506 -148.1640
996.262169 82.540 -148.0672
1003.481495 82.577 -147.9713
1010.753136 82.616 -147.8764
1018.077470 82.657 -147.7832
1025.454879 82.701 -147.6922
1032.885748 82.748 -147.6039
1040.370463 82.796 -147.5187
1047.909417 82.846 -147.4372
1055.503000 82.898 -147.3598
1063.151610 82.951 -147.2870
1070.855645 83.005 -147.2189
1078.615506 83.061 -147.1554
1086.431599 83.116 -147.0962
1094.304330 83.173 -147.0403
1102.234110 83.229 -146.9870
1110.221353 83.285 -146.9353
1118.266475 83.342 -146.8845
1126.369895 83.398 -146.8342
1134.532035 83.455 -146.7842
1142.753322 83.511 -146.7348
1151.034184 83.567 -146.6865
1159.375052 83.623 -146.6398
1167.776361 83.680 -146.5957
1176.238550 83.736 -146.5551
1184.762060 83.792 -146.5186
1193.347334 83.847 -146.4869
1201.994821 83.903 -146.4605
1210.704971 83.957 -146.4393
1219.478238 84.012 -146.4236
1228.315080 84.065 -146.4131
1237.215957 84.118 -146.4079
1246.181334 84.170 -146.4079
1255.211678 84.221 -146.4127
1264.307459 84.271 -146.4217
1273.469152 84.320 -146.4338
1282.697235 84.369 -146.4478
1291.992188 84.416 -146.4619
1301.354495 84.462 -146.4748
1310.784647 84.508 -146.4852
1320.283132 84.552 -146.4924
1329.850448 84.596 -146.4957
1339.487093 84.639 -146.4949
1349.193569 84.682 -146.4893
1358.970381 84.724 -146.4790
1368.818041 84.766 -146.4637
1378.737061 84.807 -146.4440
1388.727958 84.849 -146.4200
1398.791253 84.892 -146.3922
1408.927471 84.934 -146.3610
1419.137140 84.977 -146.3265
1429.420793 85.021 -146.2882
1439.778965 85.064 -146.2455
1450.212197 85.108 -146.1971
1460.721033 85.153 -146.1416
1471.306019 85.197 -146.0773
1481.967709 85.242 -146.0024
1492.706658 85.288 -145.9154
1503.523426 85.333 -145.8149
1514.418576 85.379 -145.7003
1525.392678 85.424 -145.5713
1536.446302 85.469 -145.4283
1547.580025 85.513 -145.2716
1558.794428 85.555 -145.1010
1570.090095 85.597 -144.9165
1581.467615 85.636 -144.7175
1592.927581 85.673 -144.5035
1604.470591 85.709 -144.2740
1616.097246 85.742 -144.0296
1627.808153 85.774 -143.7713
1639.603922 85.804 -143.5009
1651.485168 85.834 -143.2204
1663.452510 85.862 -142.9318
1675.506573 85.890 -142.6371
1687.647984 85.918 -142.3378
1699.877377 85.946 -142.0349
1712.195390 85.973 -141.7285
1724.602663 86.001 -141.4179
1737.099845 86.029 -141.1020
1749.687587 86.058 -140.7802
1762.366544 86.087 -140.4523
1775.137379 86.116 -140.1191
1788.000756 86.147 -139.7819
1800.957346 86.179 -139.4425
1814.007826 86.212 -139.1025
1827.152874 86.248 -138.7643
1840.393177 86.286 -138.4311
1853.729425 86.326 -138.1066
1867.162312 86.368 -137.7953
1880.692540 86.413 -137.5019
1894.320813 86.460 -137.2306
1908.047843 86.507 -136.9848
1921.874344 86.556 -136.7672
1935.801038 86.604 -136.5795
1949.828650 86.652 -136.4235
1963.957912 86.700 -136.3012
1978.189561 86.746 -136.2148
1992.524338 86.790 -136.1663
2006.962991 86.833 -136.1570
2021.506272 86.872 -136.1875
2036.154940 86.908 -136.2570
2050.909758 86.940 -136.3637
2065.771495 86.968 -136.5045
2080.740927 86.991 -136.6759
2095.818833 87.011 -136.8737
2111.006001 87.026 -137.0947
2126.303220 87.038 -137.3363
2141.711290 87.046 -137.5973
2157.231013 87.051 -137.8770
2172.863198 87.053 -138.1754
2188.608660 87.053 -138.4923
2204.468221 87.049 -138.8271
2220.442706 87.043 -139.1786
2236.532950 87.033 -139.5455
2252.739789 87.019 -139.9258
2269.064070 87.002 -140.3173
2285.506644 86.981 -140.7171
2302.068367 86.957 -141.1220
2318.750104 86.928 -141.5285
2335.552723 86.896 -141.9331
2352.477101 86.861 -142.3328
2369.524119 86.823 -142.7250
2386.694668 86.782 -143.1080
2403.989641 86.740 -143.4806
2421.409941 86.697 -143.8421
2438.956476 86.652 -144.1927
2456.630160 86.608 -144.5324
2474.431915 86.563 -144.8614
2492.362668 86.518 -145.1794
2510.423356 86.473 -145.4858
2528.614918 86.429 -145.7797
2546.938304 86.385 -146.0600
2565.394469 86.343 -146.3258
2583.984375 86.301 -146.5761
2602.708991 86.260 -146.8107
2621.569293 86.221 -147.0297
2640.566265 86.184 -147.2343
2659.700897 86.148 -147.4264
2678.974186 86.113 -147.6078
2698.387137 86.080 -147.7799
2717.940763 86.047 -147.9430
2737.636082 86.013 -148.0956
2757.474121 85.979 -148.2343
2777.455915 85.942 -148.3540
2797.582506 85.903 -148.4484
2817.854942 85.862 -148.5104
2838.274281 85.818 -148.5332
2858.841586 85.774 -148.5108
2879.557931 85.728 -148.4382
2900.424394 85.682 -148.3117
2921.442065 85.636 -148.1296
2942.612039 85.592 -147.8913
2963.935418 85.549 -147.5978
2985.413316 85.509 -147.2511
3007.046852 85.471 -146.8542
3028.837153 85.435 -146.4110
3050.785356 85.402 -145.9250
3072.892604 85.372 -145.3999
3095.160050 85.344 -144.8392
3117.588856 85.319 -144.2471
3140.180190 85.297 -143.6289
3162.935230 85.276 -142.9918
3185.855163 85.258 -142.3439
3208.941182 85.242 -141.6940
3232.194493 85.226 -141.0496
3255.616307 85.210 -140.4165
3279.207844 85.193 -139.7971
3302.970336 85.172 -139.1910
3326.905021 85.148 -138.5946
3351.013146 85.120 -138.0020
3375.295969 85.088 -137.4059
3399.754755 85.051 -136.7982
3424.390779 85.010 -136.1713
3449.205326 84.967 -135.5184
3474.199690 84.924 -134.8341
3499.375173 84.880 -134.1137
3524.733088 84.839 -133.3536
3550.274757 84.802 -132.5507
3576.001511 84.772 -131.7035
3601.914692 84.752 -130.8129
3628.015651 84.743 -129.8827
3654.305748 84.751 -128.9214
3680.786354 84.776 -127.9415
3707.458849 84.822 -126.9596
3734.324624 84.890 -125.9958
3761.385080 84.982 -125.0722
3788.641627 85.097 -124.2117
3816.095686 85.235 -123.4369
3843.748688 85.394 -122.7686
3871.602076 85.571 -122.2243
3899.657300 85.763 -121.8174
3927.915825 85.967 -121.5562
3956.379122 86.179 -121.4440
3985.048676 86.395 -121.4801
4013.925981 86.612 -121.6599
4043.012544 86.827 -121.9767
4072.309879 87.036 -122.4221
4101.819515 87.238 -122.9866
4131.542990 87.429 -123.6596
4161.481854 87.608 -124.4292
4191.637667 87.773 -125.2820
4222.012001 87.920 -126.2030
4252.606441 88.051 -127.1760
4283.422580 88.162 -128.1839
4314.462026 88.254 -129.2095
4345.726396 88.328 -130.2355
4377.217321 88.383 -131.2455
4408.936442 88.420 -132.2245
4440.885413 88.441 -133.1594
4473.065899 88.449 -134.0397
4505.479579 88.444 -134.8578
4538.128141 88.430 -135.6095
4571.013288 88.408 -136.2939
4604.136735 88.382 -136.9130
4637.500207 88.353 -137.4719
4671.105446 88.323 -137.9778
4704.954201 88.295 -138.4403
4739.048239 88.270 -138.8701
4773.389336 88.250 -139.2790
4807.979283 88.234 -139.6792
4842.819883 88.224 -140.0823
4877.912952 88.219 -140.4990
4913.260320 88.220 -140.9385
4948.863830 88.225 -141.4079
4984.725337 88.235 -141.9121
5020.846712 88.247 -142.4536
5057.229836 88.262 -143.0327
5093.876609 88.278 -143.6479
5130.788938 88.296 -144.2961
5167.968750 88.314 -144.9737
5205.417982 88.333 -145.6770
5243.138586 88.354 -146.4036
5281.132530 88.375 -147.1527
5319.401793 88.399 -147.9258
5357.948371 88.425 -148.7269
5396.774274 88.453 -149.5619
5435.881525 88.482 -150.4378
5475.272163 88.511 -151.3615
5514.948243 88.537 -152.3383
5554.911831 88.559 -153.3712
5595.165012 88.574 -154.4592
5635.709884 88.578 -155.5972
5676.548561 88.569 -156.7759
5717.683172 88.543 -157.9817
5759.115861 88.500 -159.1969
5800.848789 88.436 -160.4013
5842.884130 88.351 -161.5716
5885.224077 88.244 -162.6830
5927.870837 88.115 -163.7090
5970.826633 87.966 -164.6223
6014.093704 87.797 -165.3947
6057.674306 87.611 -165.9984
6101.570711 87.410 -166.4054
6145.785208 87.199 -166.5894
6190.320101 86.983 -166.5266
6235.177712 86.768 -166.1979
6280.360380 86.561 -165.5911
6325.870460 86.370 -164.7043
6371.710325 86.204 -163.5490
6417.882365 86.070 -162.1526
6464.388986 85.978 -160.5609
6511.232613 85.934 -158.8383
6558.415689 85.942 -157.0649
6605.940673 86.002 -155.3302
6653.810042 86.113 -153.7240
6702.026292 86.269 -152.3264
6750.591937 86.461 -151.1994
6799.509509 86.681 -150.3828
6848.781558 86.920 -149.8938
6898.410653 87.168 -149.7307
6948.399380 87.419 -149.8783
6998.750346 87.667 -150.3136
7049.466176 87.908 -151.0104
7100.549514 88.139 -151.9427
7152.003023 88.360 -153.0879
7203.829385 88.570 -154.4273
7256.031302 88.767 -155.9473
7308.611496 88.952 -157.6393
7361.572708 89.125 -159.4988
7414.917698 89.285 -161.5249
7468.649249 89.429 -163.7183
7522.770160 89.556 -166.0800
7577.283253 89.662 -168.6094
7632.191371 89.743 -171.3021
7687.497376 89.795 -174.1491
7743.204151 89.814 -177.1352
7799.314600 89.794 179.7612
7855.831649 89.732 176.5678
7912.758244 89.624 173.3180
7970.097352 89.468 170.0484
8027.851962 89.264 166.7977
8086.025087 89.011 163.6038
8144.619758 88.711 160.5027
8203.639030 88.365 157.5276
8263.085980 87.978 154.7092
8322.963708 87.550 152.0779
8383.275334 87.084 149.6667
8444.024002 86.584 147.5161
8505.212881 86.051 145.6789
8566.845160 85.487 144.2250
8628.924051 84.897 143.2458
8691.452792 84.287 142.8549
8754.434642 83.668 143.1830
8817.872884 83.058 144.3613
8881.770826 82.479 146.4861
8946.131799 81.962 149.5625
9010.959157 81.542 153.4382
9076.256282 81.252 157.7715
9142.026576 81.111 162.0817
9208.273470 81.123 165.8823
9275.000415 81.272 168.8165
9342.210891 81.526 170.7128
9409.908403 81.849 171.5562
9478.096478 82.208 171.4268
9546.778672 82.574 170.4457
9615.958566 82.925 168.7415
9685.639765 83.247 166.4352
9755.825904 83.528 163.6343
9826.520640 83.762 160.4325
9897.727659 83.945 156.9100
9969.450674 84.078 153.1351
10041.693423 84.159 149.1650
10114.459673 84.191 145.0472
10187.753217 84.176 140.8200
10261.577877 84.115 136.5143
10335.937500 84.013 132.1545
10410.835964 83.870 127.7603
10486.277173 83.689 123.3480
10562.265060 83.471 118.9319
10638.803587 83.218 114.5254
10715.896743 82.930 110.1417
10793.548548 82.609 105.7942
10871.763050 82.255 101.4963
10950.544327 81.869 97.2610
11029.896485 81.454 93.1001
11109.823662 81.010 89.0245
11190.330024 80.541 85.0424
11271.419768 80.049 81.1598
11353.097122 79.537 77.3798
11435.366344 79.007 73.7028
11518.231722 78.464 70.1266
11601.697577 77.911 66.6457
11685.768261 77.353 63.2520
11770.448155 76.792 59.9335
11855.741674 76.235 56.6744
11941.653265 75.687 53.4539
12028.187408 75.154 50.2464
12115.348612 74.642 47.0213
12203.141422 74.158 43.7436
12291.570415 73.708 40.3748
12380.640201 73.299 36.8738
12470.355424 72.938 33.1982
12560.720760 72.628 29.3044
12651.740920 72.374 25.1481
12743.420650 72.178 20.6851
12835.764729 72.039 15.8711
12928.777972 71.955 10.6635
13022.465227 71.918 5.0224
13116.831378 71.922 -1.0878
13211.881345 71.956 -7.6965
13307.620084 72.010 -14.8256
13404.052584 72.072 -22.4886
13501.183875 72.134 -30.6906
13599.019019 72.187 -39.4286
13697.563116 72.226 -48.6916
13796.821305 72.248 -58.4601
13896.798760 72.250 -68.7068
13997.500692 72.235 -79.3948
14098.932352 72.207 -90.4783
14201.099028 72.172 -101.9017
14304.006046 72.139 -113.6026
14407.658770 72.117 -125.5131
14512.062604 72.118 -137.5645
14617.222992 72.150 -149.6934
14723.145416 72.224 -161.8462
14829.835397 72.344 -173.9835
14937.298497 72.513 173.9168
15045.540320 72.728 161.8597
15154.566507 72.982 149.8344
15264.382743 73.267 137.8182
15374.994752 73.570 125.7805
15486.408302 73.876 113.6868
15598.629201 74.172 101.5035
15711.663298 74.442 89.2023
15825.516487 74.672 76.7631
15940.194703 74.851 64.1774
16055.703925 74.966 51.4493
16172.050174 75.008 38.5971
16289.239516 74.969 25.6509
16407.278061 74.845 12.6516
16526.171961 74.631 -0.3536
16645.927415 74.328 -13.3154
16766.550667 73.938 -26.1910
16888.048005 73.469 -38.9497
17010.425762 72.930 -51.5812
17133.690320 72.336 -64.0981
17257.848103 71.709 -76.5382
17382.905584 71.076 -88.9601
17508.869284 70.473 -101.4434
17635.745768 69.941 -114.0846
17763.541652 69.527 -126.9940
17892.263597 69.268 -140.2910
18021.918315 69.185 -154.0902
18152.512564 69.274 -168.4790
18284.053153 69.504 176.5217
18416.546939 69.832 161.0115
18550.000830 70.210 145.2671
18684.421783 70.598 129.7937
18819.816805 70.964 115.3594
18956.192956 71.288 103.0637
19093.557344 71.558 94.5536
19231.917131 71.770 92.4683
19371.279531 71.928 100.1404
19511.651807 72.037 115.9823
19653.041280 72.108 129.5425
19795.455318 72.149 136.2896
19938.901348 72.167 138.6729
