* Measurement data measured by REW V5.31.3
* Source: EXCL: Headset (USB-C to 3.5mm Headphone Jack Adapter), MICROPHONE (Master Volume), 0, volume: 0.260
* Format: 256k Log Swept Sine, 1 sweep at -12.0 dBFS with no timing reference
* Dated: Mar 17, 2025 12:31:39 PM
* REW Settings:
*  C-weighting compensation: Off
*  Target level: 75.0 dB
* Note: ; 
* Measurement: HD650 (Mystery) L1
* Smoothing: 1/6 octave
* Frequency Step: 96 ppo
* Start Frequency: 20.0 Hz
*
* Freq(Hz) SPL(dB) Phase(degrees)
20.187378 91.764 -61.6486
20.333664 91.778 -61.9889
20.481010 91.795 -62.4395
20.629424 91.816 -62.9812
20.778913 91.841 -63.5928
20.929486 91.867 -64.2524
21.081150 91.895 -64.9388
21.233912 91.925 -65.6327
21.387782 91.956 -66.3177
21.542767 91.989 -66.9805
21.698874 92.024 -67.6114
21.856113 92.062 -68.2046
22.014492 92.103 -68.7582
22.174018 92.148 -69.2737
22.334700 92.196 -69.7559
22.496546 92.249 -70.2121
22.659566 92.305 -70.6514
22.823766 92.365 -71.0839
22.989157 92.427 -71.5194
23.155745 92.492 -71.9669
23.323542 92.557 -72.4335
23.492554 92.623 -72.9238
23.662790 92.688 -73.4399
23.834261 92.751 -73.9804
24.006973 92.812 -74.5417
24.180938 92.870 -75.1174
24.356163 92.925 -75.6998
24.532658 92.977 -76.2803
24.710431 93.027 -76.8504
24.889493 93.074 -77.4027
25.069853 93.120 -77.9318
25.251519 93.166 -78.4345
25.434502 93.211 -78.9104
25.618811 93.256 -79.3615
25.804456 93.302 -79.7924
25.991445 93.348 -80.2091
26.179790 93.395 -80.6186
26.369500 93.442 -81.0282
26.560584 93.490 -81.4446
26.753053 93.538 -81.8738
26.946917 93.587 -82.3205
27.142185 93.637 -82.7882
27.338869 93.690 -83.2793
27.536977 93.745 -83.7953
27.736522 93.804 -84.3365
27.937512 93.866 -84.9027
28.139959 93.932 -85.4924
28.343872 94.002 -86.1027
28.549264 94.073 -86.7294
28.756143 94.144 -87.3668
28.964522 94.214 -88.0074
29.174411 94.280 -88.6429
29.385821 94.341 -89.2642
29.598763 94.395 -89.8628
29.813248 94.442 -90.4309
30.029287 94.482 -90.9630
30.246891 94.515 -91.4557
30.466073 94.542 -91.9087
30.686842 94.566 -92.3247
30.909212 94.590 -92.7089
31.133193 94.615 -93.0686
31.358797 94.644 -93.4128
31.586035 94.680 -93.7511
31.814921 94.725 -94.0931
32.045465 94.780 -94.4478
32.277680 94.846 -94.8230
32.511577 94.922 -95.2245
32.747169 95.008 -95.6561
32.984469 95.100 -96.1187
33.223488 95.198 -96.6109
33.464239 95.297 -97.1287
33.706735 95.395 -97.6661
33.950987 95.490 -98.2161
34.197010 95.580 -98.7715
34.444816 95.664 -99.3257
34.694417 95.741 -99.8737
34.945827 95.812 -100.4126
35.199059 95.876 -100.9414
35.454126 95.933 -101.4607
35.711041 95.985 -101.9722
35.969818 96.032 -102.4773
36.230470 96.074 -102.9770
36.493011 96.111 -103.4711
36.757455 96.143 -103.9582
37.023814 96.171 -104.4363
37.292104 96.195 -104.9034
37.562338 96.215 -105.3580
37.834530 96.231 -105.7999
38.108695 96.245 -106.2300
38.384846 96.255 -106.6500
38.662999 96.263 -107.0622
38.943167 96.268 -107.4686
39.225365 96.269 -107.8704
39.509608 96.267 -108.2683
39.795911 96.262 -108.6627
40.084289 96.254 -109.0540
40.374756 96.245 -109.4439
40.667328 96.234 -109.8352
40.962020 96.225 -110.2322
41.258848 96.216 -110.6394
41.557827 96.210 -111.0614
41.858972 96.207 -111.5009
42.162299 96.207 -111.9587
42.467824 96.212 -112.4333
42.775564 96.220 -112.9213
43.085533 96.234 -113.4187
43.397749 96.253 -113.9217
43.712227 96.278 -114.4272
44.028983 96.308 -114.9332
44.348036 96.342 -115.4386
44.669400 96.380 -115.9421
44.993093 96.420 -116.4424
45.319131 96.461 -116.9375
45.647532 96.502 -117.4256
45.978313 96.541 -117.9050
46.311491 96.579 -118.3751
46.647083 96.616 -118.8363
46.985107 96.650 -119.2903
47.325581 96.684 -119.7396
47.668521 96.716 -120.1867
48.013947 96.748 -120.6335
48.361876 96.780 -121.0810
48.712326 96.813 -121.5284
49.065315 96.846 -121.9740
49.420863 96.881 -122.4151
49.778987 96.917 -122.8489
50.139706 96.955 -123.2731
50.503039 96.994 -123.6862
50.869005 97.034 -124.0879
51.237623 97.074 -124.4786
51.608912 97.113 -124.8594
51.982891 97.151 -125.2315
52.359580 97.187 -125.5966
52.739000 97.221 -125.9572
53.121168 97.253 -126.3169
53.506106 97.283 -126.6803
53.893833 97.310 -127.0526
54.284370 97.335 -127.4385
54.677737 97.357 -127.8409
55.073955 97.376 -128.2604
55.473043 97.392 -128.6955
55.875024 97.406 -129.1436
56.279917 97.417 -129.6017
56.687745 97.426 -130.0678
57.098527 97.434 -130.5409
57.512287 97.441 -131.0202
57.929045 97.449 -131.5042
58.348822 97.458 -131.9903
58.771642 97.471 -132.4743
59.197525 97.488 -132.9509
59.626495 97.512 -133.4148
60.058573 97.543 -133.8617
60.493782 97.581 -134.2888
60.932145 97.626 -134.6959
61.373685 97.677 -135.0845
61.818424 97.730 -135.4584
62.266386 97.785 -135.8228
62.717593 97.838 -136.1835
63.172071 97.888 -136.5458
63.629842 97.935 -136.9139
64.090930 97.977 -137.2899
64.555359 98.014 -137.6743
65.023154 98.047 -138.0657
65.494339 98.077 -138.4626
65.968938 98.103 -138.8636
66.446976 98.127 -139.2679
66.928478 98.149 -139.6751
67.413469 98.169 -140.0851
67.901975 98.189 -140.4972
68.394021 98.209 -140.9108
68.889632 98.229 -141.3246
69.388835 98.248 -141.7380
69.891655 98.268 -142.1501
70.398118 98.289 -142.5605
70.908252 98.310 -142.9690
71.422083 98.331 -143.3759
71.939636 98.351 -143.7816
72.460941 98.371 -144.1873
72.986023 98.390 -144.5941
73.514909 98.408 -145.0036
74.047629 98.426 -145.4168
74.584208 98.443 -145.8342
75.124676 98.460 -146.2554
75.669061 98.476 -146.6791
76.217390 98.493 -147.1037
76.769692 98.509 -147.5275
77.325997 98.525 -147.9495
77.886333 98.540 -148.3692
78.450730 98.555 -148.7868
79.019216 98.569 -149.2026
79.591822 98.582 -149.6177
80.168577 98.593 -150.0327
80.749512 98.604 -150.4483
81.334656 98.615 -150.8647
81.924040 98.625 -151.2818
82.517696 98.635 -151.6994
83.115653 98.645 -152.1167
83.717943 98.655 -152.5331
84.324598 98.665 -152.9479
84.935649 98.675 -153.3604
85.551128 98.686 -153.7702
86.171066 98.697 -154.1768
86.795497 98.708 -154.5798
87.424453 98.719 -154.9787
88.057967 98.731 -155.3732
88.696071 98.744 -155.7629
89.338800 98.757 -156.1478
89.986185 98.771 -156.5283
90.638262 98.786 -156.9048
91.295065 98.801 -157.2782
91.956626 98.816 -157.6490
92.622982 98.831 -158.0181
93.294166 98.846 -158.3860
93.970214 98.860 -158.7530
94.651161 98.873 -159.1196
95.337042 98.885 -159.4860
96.027894 98.894 -159.8526
96.723752 98.902 -160.2197
97.424652 98.907 -160.5868
98.130631 98.911 -160.9533
98.841726 98.912 -161.3178
99.557974 98.912 -161.6789
100.279412 98.910 -162.0352
101.006078 98.907 -162.3861
101.738010 98.903 -162.7317
102.475245 98.899 -163.0725
103.217823 98.894 -163.4098
103.965782 98.891 -163.7446
104.719161 98.888 -164.0780
105.477999 98.887 -164.4107
106.242336 98.887 -164.7427
107.012212 98.887 -165.0738
107.787666 98.889 -165.4034
108.568740 98.892 -165.7309
109.355474 98.896 -166.0555
110.147909 98.901 -166.3773
110.946086 98.906 -166.6969
111.750047 98.912 -167.0150
112.559834 98.917 -167.3332
113.375489 98.922 -167.6529
114.197055 98.926 -167.9755
115.024574 98.929 -168.3018
115.858089 98.932 -168.6319
116.697645 98.934 -168.9654
117.543284 98.935 -169.3013
118.395051 98.936 -169.6385
119.252990 98.936 -169.9753
120.117147 98.936 -170.3105
120.987565 98.935 -170.6429
121.864291 98.935 -170.9719
122.747370 98.934 -171.2978
123.636848 98.934 -171.6207
124.532771 98.934 -171.9414
125.435187 98.935 -172.2603
126.344142 98.937 -172.5780
127.259684 98.939 -172.8949
128.181860 98.943 -173.2113
129.110718 98.948 -173.5276
130.046308 98.954 -173.8439
130.988677 98.961 -174.1602
131.937875 98.968 -174.4764
132.893951 98.977 -174.7923
133.856956 98.986 -175.1077
134.826938 98.994 -175.4228
135.803950 99.003 -175.7374
136.788041 99.010 -176.0513
137.779264 99.015 -176.3641
138.777669 99.019 -176.6752
139.783309 99.020 -176.9840
140.796237 99.020 -177.2899
141.816504 99.016 -177.5923
142.844165 99.011 -177.8912
143.879273 99.003 -178.1866
144.921881 98.994 -178.4788
145.972045 98.983 -178.7683
147.029819 98.971 -179.0556
148.095257 98.959 -179.3413
149.168417 98.947 -179.6261
150.249353 98.935 -179.9104
151.338121 98.925 179.8049
152.434780 98.915 179.5196
153.539385 98.907 179.2333
154.651995 98.901 178.9458
155.772667 98.895 178.6573
156.901460 98.891 178.3683
158.038432 98.888 178.0794
159.183644 98.885 177.7911
160.337154 98.883 177.5037
161.499023 98.881 177.2177
162.669312 98.879 176.9327
163.848081 98.876 176.6487
165.035392 98.873 176.3651
166.231306 98.870 176.0815
167.435887 98.867 175.7977
168.649196 98.862 175.5135
169.871298 98.857 175.2289
171.102255 98.852 174.9442
172.342133 98.845 174.6592
173.590995 98.838 174.3740
174.848907 98.830 174.0887
176.115934 98.821 173.8033
177.392143 98.812 173.5182
178.677599 98.801 173.2339
179.972371 98.789 172.9509
181.276525 98.776 172.6698
182.590129 98.761 172.3911
183.913252 98.745 172.1151
185.245964 98.728 171.8418
186.588332 98.709 171.5710
187.940428 98.688 171.3027
189.302322 98.665 171.0366
190.674085 98.641 170.7724
192.055788 98.615 170.5101
193.447503 98.586 170.2495
194.849303 98.556 169.9904
196.261262 98.523 169.7329
197.683452 98.488 169.4765
199.115948 98.451 169.2209
200.558824 98.412 168.9654
202.012156 98.370 168.7096
203.476019 98.328 168.4531
204.950490 98.285 168.1957
206.435646 98.242 167.9377
207.931564 98.200 167.6791
209.438322 98.160 167.4202
210.955998 98.122 167.1614
212.484672 98.088 166.9028
214.024424 98.058 166.6447
215.575333 98.033 166.3874
217.137481 98.013 166.1310
218.710948 97.997 165.8755
220.295818 97.987 165.6208
221.892172 97.981 165.3670
223.500094 97.980 165.1138
225.119668 97.982 164.8611
226.750978 97.988 164.6091
228.394109 97.996 164.3582
230.049147 98.007 164.1088
231.716178 98.020 163.8617
233.395289 98.034 163.6174
235.086567 98.048 163.3766
236.790102 98.063 163.1395
238.505980 98.078 162.9061
240.234293 98.093 162.6764
241.975130 98.106 162.4503
243.728581 98.119 162.2279
245.494739 98.130 162.0092
247.273695 98.140 161.7949
249.065542 98.148 161.5853
250.870374 98.154 161.3813
252.688284 98.159 161.1837
254.519367 98.163 160.9934
256.363720 98.165 160.8109
258.221437 98.167 160.6368
260.092616 98.168 160.4710
261.977354 98.168 160.3134
263.875750 98.168 160.1633
265.787903 98.168 160.0198
267.713911 98.167 159.8816
269.653877 98.166 159.7475
271.607900 98.163 159.6165
273.576083 98.160 159.4875
275.558528 98.154 159.3596
277.555338 98.147 159.2321
279.566619 98.137 159.1037
281.592474 98.124 158.9734
283.633009 98.107 158.8398
285.688331 98.086 158.7017
287.758546 98.061 158.5583
289.843763 98.032 158.4095
291.944090 97.999 158.2555
294.059638 97.961 158.0968
296.190515 97.920 157.9344
298.336833 97.876 157.7692
300.498705 97.829 157.6023
302.676243 97.780 157.4346
304.869559 97.729 157.2672
307.078770 97.678 157.1007
309.303989 97.627 156.9355
311.545334 97.576 156.7716
313.802919 97.527 156.6093
316.076865 97.479 156.4482
318.367288 97.434 156.2885
320.674309 97.392 156.1300
322.998047 97.353 155.9727
325.338624 97.319 155.8163
327.696162 97.289 155.6608
330.070783 97.263 155.5063
332.462612 97.243 155.3529
334.871773 97.228 155.2008
337.298392 97.218 155.0504
339.742595 97.213 154.9018
342.204510 97.214 154.7552
344.684265 97.219 154.6104
347.181989 97.228 154.4671
349.697813 97.240 154.3250
352.231868 97.256 154.1836
354.784285 97.273 154.0421
357.355198 97.293 153.9001
359.944741 97.312 153.7569
362.553049 97.331 153.6125
365.180258 97.349 153.4670
367.826505 97.364 153.3209
370.491927 97.376 153.1747
373.176665 97.385 153.0289
375.880856 97.388 152.8838
378.604644 97.387 152.7393
381.348169 97.380 152.5955
384.111575 97.369 152.4517
386.895006 97.353 152.3076
389.698607 97.333 152.1629
392.522524 97.309 152.0177
395.366904 97.283 151.8725
398.231895 97.256 151.7279
401.117648 97.228 151.5850
404.024312 97.200 151.4446
406.952038 97.175 151.3074
409.900981 97.152 151.1737
412.871292 97.132 151.0434
415.863128 97.116 150.9160
418.876643 97.103 150.7908
421.911996 97.095 150.6671
424.969344 97.091 150.5443
428.048847 97.091 150.4222
431.150666 97.093 150.3007
434.274961 97.098 150.1798
437.421897 97.104 150.0594
440.591636 97.111 149.9395
443.784345 97.117 149.8199
447.000189 97.122 149.7004
450.239337 97.125 149.5807
453.501956 97.126 149.4607
456.788219 97.124 149.3405
460.098294 97.120 149.2200
463.432356 97.113 149.0995
466.790578 97.104 148.9794
470.173135 97.092 148.8600
473.580203 97.079 148.7415
477.011961 97.064 148.6241
480.468586 97.048 148.5079
483.950259 97.031 148.3929
487.457163 97.014 148.2792
490.989478 96.996 148.1668
494.547390 96.979 148.0558
498.131084 96.964 147.9463
501.740748 96.950 147.8383
505.376568 96.939 147.7315
509.038735 96.931 147.6260
512.727439 96.929 147.5215
516.442874 96.931 147.4182
520.185232 96.940 147.3160
523.954708 96.955 147.2149
527.751500 96.976 147.1147
531.575805 97.004 147.0154
535.427822 97.038 146.9167
539.307753 97.077 146.8182
543.215800 97.120 146.7196
547.152165 97.164 146.6205
551.117055 97.210 146.5207
555.110677 97.254 146.4202
559.133237 97.296 146.3190
563.184947 97.333 146.2174
567.266018 97.365 146.1157
571.376661 97.390 146.0144
575.517092 97.408 145.9138
579.687526 97.417 145.8142
583.888181 97.417 145.7158
588.119275 97.408 145.6186
592.381030 97.389 145.5226
596.673667 97.359 145.4278
600.997410 97.320 145.3338
605.352485 97.271 145.2407
609.739119 97.214 145.1482
614.157540 97.149 145.0562
618.607979 97.078 144.9645
623.090667 97.003 144.8732
627.605839 96.924 144.7820
632.153730 96.845 144.6909
636.734576 96.767 144.5997
641.348617 96.692 144.5082
645.996094 96.620 144.4165
650.677248 96.555 144.3243
655.392323 96.497 144.2318
660.141566 96.446 144.1386
664.925224 96.404 144.0447
669.743546 96.371 143.9498
674.596784 96.347 143.8533
679.485191 96.332 143.7550
684.409020 96.326 143.6545
689.368530 96.329 143.5519
694.363979 96.339 143.4472
699.395626 96.357 143.3407
704.463736 96.382 143.2327
709.568570 96.411 143.1236
714.710396 96.445 143.0134
719.889483 96.481 142.9023
725.106099 96.517 142.7898
730.360516 96.554 142.6753
735.653010 96.588 142.5579
740.983855 96.620 142.4365
746.353329 96.648 142.3100
751.761713 96.671 142.1772
757.209288 96.690 142.0375
762.696339 96.705 141.8902
768.223151 96.715 141.7354
773.790013 96.720 141.5740
779.397214 96.720 141.4075
785.045047 96.714 141.2385
790.733808 96.703 141.0704
796.463791 96.684 140.9078
802.235296 96.658 140.7565
808.048623 96.623 140.6235
813.904077 96.578 140.5165
819.801961 96.524 140.4437
825.742584 96.460 140.4128
831.726255 96.389 140.4288
837.753287 96.313 140.4922
843.823992 96.236 140.5973
849.938689 96.160 140.7320
856.097695 96.089 140.8798
862.301332 96.027 141.0233
868.549922 95.975 141.1474
874.843793 95.934 141.2419
881.183272 95.904 141.3012
887.568689 95.887 141.3243
894.000378 95.882 141.3132
900.478673 95.889 141.2717
907.003913 95.906 141.2042
913.576437 95.933 141.1152
920.196588 95.969 141.0088
926.864712 96.011 140.8880
933.581156 96.059 140.7553
940.346270 96.109 140.6125
947.160407 96.162 140.4612
954.023921 96.214 140.3029
960.937172 96.264 140.1387
967.900519 96.311 139.9698
974.914325 96.355 139.7976
981.978956 96.393 139.6239
989.094780 96.427 139.4508
996.262169 96.456 139.2811
1003.481495 96.481 139.1177
1010.753136 96.503 138.9637
1018.077470 96.524 138.8217
1025.454879 96.544 138.6939
1032.885748 96.566 138.5812
1040.370463 96.591 138.4836
1047.909417 96.621 138.3994
1055.503000 96.657 138.3262
1063.151610 96.700 138.2612
1070.855645 96.749 138.2017
1078.615506 96.803 138.1454
1086.431599 96.863 138.0906
1094.304330 96.927 138.0359
1102.234110 96.993 137.9799
1110.221353 97.060 137.9211
1118.266475 97.125 137.8575
1126.369895 97.188 137.7877
1134.532035 97.247 137.7103
1142.753322 97.302 137.6245
1151.034184 97.351 137.5305
1159.375052 97.395 137.4290
1167.776361 97.434 137.3212
1176.238550 97.470 137.2083
1184.762060 97.504 137.0914
1193.347334 97.538 136.9706
1201.994821 97.574 136.8454
1210.704971 97.612 136.7140
1219.478238 97.654 136.5740
1228.315080 97.701 136.4229
1237.215957 97.753 136.2585
1246.181334 97.810 136.0795
1255.211678 97.871 135.8861
1264.307459 97.936 135.6798
1273.469152 98.003 135.4631
1282.697235 98.071 135.2397
1291.992188 98.141 135.0134
1301.354495 98.210 134.7881
1310.784647 98.278 134.5670
1320.283132 98.345 134.3527
1329.850448 98.410 134.1468
1339.487093 98.473 133.9499
1349.193569 98.533 133.7620
1358.970381 98.591 133.5820
1368.818041 98.645 133.4086
1378.737061 98.695 133.2403
1388.727958 98.742 133.0755
1398.791253 98.785 132.9127
1408.927471 98.825 132.7504
1419.137140 98.860 132.5872
1429.420793 98.892 132.4219
1439.778965 98.920 132.2538
1450.212197 98.945 132.0826
1460.721033 98.966 131.9088
1471.306019 98.984 131.7330
1481.967709 98.998 131.5564
1492.706658 99.008 131.3801
1503.523426 99.014 131.2048
1514.418576 99.017 131.0316
1525.392678 99.015 130.8620
1536.446302 99.008 130.6973
1547.580025 98.997 130.5394
1558.794428 98.980 130.3898
1570.090095 98.960 130.2501
1581.467615 98.936 130.1215
1592.927581 98.909 130.0050
1604.470591 98.879 129.9010
1616.097246 98.849 129.8093
1627.808153 98.818 129.7292
1639.603922 98.787 129.6594
1651.485168 98.757 129.5985
1663.452510 98.727 129.5449
1675.506573 98.699 129.4972
1687.647984 98.671 129.4543
1699.877377 98.645 129.4152
1712.195390 98.619 129.3783
1724.602663 98.594 129.3425
1737.099845 98.570 129.3065
1749.687587 98.546 129.2697
1762.366544 98.525 129.2321
1775.137379 98.505 129.1936
1788.000756 98.486 129.1546
1800.957346 98.470 129.1153
1814.007826 98.456 129.0757
1827.152874 98.443 129.0361
1840.393177 98.431 128.9970
1853.729425 98.420 128.9594
1867.162312 98.407 128.9250
1880.692540 98.393 128.8964
1894.320813 98.376 128.8774
1908.047843 98.356 128.8721
1921.874344 98.332 128.8843
1935.801038 98.305 128.9168
1949.828650 98.275 128.9704
1963.957912 98.243 129.0438
1978.189561 98.210 129.1342
1992.524338 98.177 129.2377
2006.962991 98.144 129.3499
2021.506272 98.112 129.4667
2036.154940 98.082 129.5852
2050.909758 98.054 129.7041
2065.771495 98.028 129.8235
2080.740927 98.005 129.9450
2095.818833 97.986 130.0710
2111.006001 97.970 130.2039
2126.303220 97.960 130.3463
2141.711290 97.955 130.4996
2157.231013 97.957 130.6642
2172.863198 97.967 130.8392
2188.608660 97.985 131.0224
2204.468221 98.012 131.2108
2220.442706 98.049 131.4014
2236.532950 98.095 131.5912
2252.739789 98.151 131.7779
2269.064070 98.217 131.9590
2285.506644 98.293 132.1325
2302.068367 98.377 132.2964
2318.750104 98.470 132.4489
2335.552723 98.570 132.5881
2352.477101 98.676 132.7128
2369.524119 98.787 132.8226
2386.694668 98.902 132.9181
2403.989641 99.019 133.0010
2421.409941 99.138 133.0734
2438.956476 99.256 133.1373
2456.630160 99.375 133.1944
2474.431915 99.491 133.2453
2492.362668 99.605 133.2902
2510.423356 99.717 133.3284
2528.614918 99.824 133.3589
2546.938304 99.927 133.3810
2565.394469 100.024 133.3947
2583.984375 100.114 133.3998
2602.708991 100.198 133.3970
2621.569293 100.274 133.3868
2640.566265 100.343 133.3704
2659.700897 100.404 133.3485
2678.974186 100.456 133.3225
2698.387137 100.501 133.2934
2717.940763 100.537 133.2626
2737.636082 100.566 133.2318
2757.474121 100.586 133.2030
2777.455915 100.599 133.1786
2797.582506 100.604 133.1611
2817.854942 100.603 133.1522
2838.274281 100.595 133.1538
2858.841586 100.582 133.1671
2879.557931 100.565 133.1932
2900.424394 100.542 133.2330
2921.442065 100.517 133.2873
2942.612039 100.488 133.3563
2963.935418 100.458 133.4391
2985.413316 100.426 133.5337
3007.046852 100.395 133.6360
3028.837153 100.365 133.7408
3050.785356 100.336 133.8426
3072.892604 100.309 133.9352
3095.160050 100.283 134.0135
3117.588856 100.259 134.0736
3140.180190 100.235 134.1130
3162.935230 100.213 134.1306
3185.855163 100.190 134.1262
3208.941182 100.167 134.1005
3232.194493 100.144 134.0550
3255.616307 100.119 133.9918
3279.207844 100.094 133.9139
3302.970336 100.067 133.8253
3326.905021 100.038 133.7302
3351.013146 100.009 133.6334
3375.295969 99.979 133.5399
3399.754755 99.948 133.4545
3424.390779 99.917 133.3820
3449.205326 99.886 133.3271
3474.199690 99.857 133.2944
3499.375173 99.828 133.2875
3524.733088 99.802 133.3097
3550.274757 99.778 133.3634
3576.001511 99.757 133.4506
3601.914692 99.739 133.5729
3628.015651 99.725 133.7314
3654.305748 99.715 133.9268
3680.786354 99.710 134.1592
3707.458849 99.709 134.4287
3734.324624 99.713 134.7346
3761.385080 99.722 135.0763
3788.641627 99.737 135.4530
3816.095686 99.759 135.8639
3843.748688 99.786 136.3083
3871.602076 99.820 136.7854
3899.657300 99.861 137.2948
3927.915825 99.909 137.8357
3956.379122 99.964 138.4073
3985.048676 100.026 139.0082
4013.925981 100.097 139.6361
4043.012544 100.176 140.2875
4072.309879 100.264 140.9576
4101.819515 100.361 141.6400
4131.542990 100.468 142.3269
4161.481854 100.584 143.0096
4191.637667 100.709 143.6784
4222.012001 100.843 144.3234
4252.606441 100.986 144.9347
4283.422580 101.137 145.5028
4314.462026 101.296 146.0193
4345.726396 101.462 146.4771
4377.217321 101.634 146.8709
4408.936442 101.810 147.1969
4440.885413 101.991 147.4528
4473.065899 102.175 147.6375
4505.479579 102.361 147.7507
4538.128141 102.549 147.7927
4571.013288 102.738 147.7643
4604.136735 102.926 147.6664
4637.500207 103.114 147.5004
4671.105446 103.299 147.2680
4704.954201 103.483 146.9706
4739.048239 103.663 146.6091
4773.389336 103.840 146.1843
4807.979283 104.013 145.6959
4842.819883 104.182 145.1430
4877.912952 104.345 144.5237
4913.260320 104.502 143.8353
4948.863830 104.653 143.0747
4984.725337 104.796 142.2387
5020.846712 104.929 141.3245
5057.229836 105.052 140.3300
5093.876609 105.162 139.2544
5130.788938 105.257 138.0982
5167.968750 105.335 136.8642
5205.417982 105.393 135.5575
5243.138586 105.428 134.1859
5281.132530 105.439 132.7605
5319.401793 105.423 131.2948
5357.948371 105.377 129.8054
5396.774274 105.300 128.3110
5435.881525 105.190 126.8329
5475.272163 105.046 125.3936
5514.948243 104.869 124.0166
5554.911831 104.658 122.7264
5595.165012 104.413 121.5478
5635.709884 104.137 120.5059
5676.548561 103.831 119.6260
5717.683172 103.496 118.9336
5759.115861 103.137 118.4539
5800.848789 102.757 118.2118
5842.884130 102.358 118.2308
5885.224077 101.948 118.5323
5927.870837 101.529 119.1342
5970.826633 101.110 120.0482
6014.093704 100.696 121.2781
6057.674306 100.295 122.8170
6101.570711 99.913 124.6454
6145.785208 99.557 126.7309
6190.320101 99.232 129.0297
6235.177712 98.942 131.4902
6280.360380 98.690 134.0580
6325.870460 98.477 136.6816
6371.710325 98.301 139.3167
6417.882365 98.161 141.9291
6464.388986 98.055 144.4953
6511.232613 97.981 146.9998
6558.415689 97.939 149.4330
6605.940673 97.927 151.7869
6653.810042 97.945 154.0522
6702.026292 97.995 156.2161
6750.591937 98.076 158.2607
6799.509509 98.188 160.1642
6848.781558 98.330 161.9012
6898.410653 98.500 163.4460
6948.399380 98.693 164.7745
6998.750346 98.906 165.8665
7049.466176 99.131 166.7069
7100.549514 99.363 167.2869
7152.003023 99.595 167.6038
7203.829385 99.821 167.6606
7256.031302 100.033 167.4650
7308.611496 100.225 167.0292
7361.572708 100.391 166.3688
7414.917698 100.527 165.5024
7468.649249 100.626 164.4520
7522.770160 100.684 163.2427
7577.283253 100.696 161.9034
7632.191371 100.660 160.4673
7687.497376 100.571 158.9731
7743.204151 100.426 157.4656
7799.314600 100.224 155.9985
7855.831649 99.962 154.6364
7912.758244 99.641 153.4586
7970.097352 99.262 152.5655
8027.851962 98.827 152.0860
8086.025087 98.343 152.1905
8144.619758 97.819 153.1071
8203.639030 97.271 155.1415
8263.085980 96.723 158.6917
8322.963708 96.204 164.2208
8383.275334 95.753 172.1113
8444.024002 95.410 -177.7020
8505.212881 95.209 -166.1583
8566.845160 95.168 -154.9007
8628.924051 95.283 -145.3211
8691.452792 95.532 -137.9123
8754.434642 95.881 -132.4775
8817.872884 96.297 -128.5819
8881.770826 96.750 -125.8058
8946.131799 97.221 -123.8198
9010.959157 97.694 -122.3848
9076.256282 98.164 -121.3335
9142.026576 98.627 -120.5519
9208.273470 99.083 -119.9659
9275.000415 99.533 -119.5304
9342.210891 99.979 -119.2231
9409.908403 100.423 -119.0383
9478.096478 100.866 -118.9833
9546.778672 101.309 -119.0742
9615.958566 101.751 -119.3327
9685.639765 102.191 -119.7831
9755.825904 102.626 -120.4495
9826.520640 103.052 -121.3536
9897.727659 103.466 -122.5129
9969.450674 103.861 -123.9395
10041.693423 104.233 -125.6387
10114.459673 104.576 -127.6087
10187.753217 104.884 -129.8399
10261.577877 105.152 -132.3146
10335.937500 105.375 -135.0072
10410.835964 105.547 -137.8852
10486.277173 105.666 -140.9096
10562.265060 105.729 -144.0370
10638.803587 105.735 -147.2218
10715.896743 105.684 -150.4188
10793.548548 105.579 -153.5863
10871.763050 105.422 -156.6883
10950.544327 105.218 -159.6964
11029.896485 104.970 -162.5909
11109.823662 104.685 -165.3609
11190.330024 104.365 -168.0030
11271.419768 104.017 -170.5200
11353.097122 103.643 -172.9183
11435.366344 103.245 -175.2054
11518.231722 102.825 -177.3873
11601.697577 102.384 -179.4661
11685.768261 101.921 178.5607
11770.448155 101.438 176.7006
11855.741674 100.933 174.9642
11941.653265 100.409 173.3617
12028.187408 99.868 171.8984
12115.348612 99.313 170.5702
12203.141422 98.750 169.3604
12291.570415 98.183 168.2389
12380.640201 97.619 167.1632
12470.355424 97.063 166.0827
12560.720760 96.518 164.9437
12651.740920 95.988 163.6948
12743.420650 95.472 162.2917
12835.764729 94.969 160.6998
12928.777972 94.475 158.8950
13022.465227 93.985 156.8629
13116.831378 93.496 154.5963
13211.881345 93.003 152.0909
13307.620084 92.503 149.3413
13404.052584 91.994 146.3358
13501.183875 91.477 143.0521
13599.019019 90.955 139.4544
13697.563116 90.432 135.4911
13796.821305 89.913 131.0953
13896.798760 89.403 126.1856
13997.500692 88.908 120.6689
14098.932352 88.432 114.4427
14201.099028 87.979 107.3992
14304.006046 87.549 99.4334
14407.658770 87.142 90.4567
14512.062604 86.756 80.4225
14617.222992 86.387 69.3621
14723.145416 86.030 57.4260
14829.835397 85.679 44.9033
14937.298497 85.327 32.1921
15045.540320 84.967 19.7178
15154.566507 84.590 7.8370
15264.382743 84.191 -3.2184
15374.994752 83.765 -13.3436
15486.408302 83.309 -22.5306
15598.629201 82.825 -30.8342
15711.663298 82.317 -38.3474
15825.516487 81.795 -45.1863
15940.194703 81.265 -51.4784
16055.703925 80.737 -57.3501
16172.050174 80.212 -62.9131
16289.239516 79.690 -68.2546
16407.278061 79.165 -73.4316
16526.171961 78.630 -78.4728
16645.927415 78.076 -83.3850
16766.550667 77.495 -88.1615
16888.048005 76.881 -92.7883
17010.425762 76.230 -97.2495
17133.690320 75.540 -101.5294
17257.848103 74.810 -105.6149
17382.905584 74.041 -109.4965
17508.869284 73.236 -113.1711
17635.745768 72.399 -116.6453
17763.541652 71.536 -119.9387
17892.263597 70.654 -123.0910
18021.918315 69.767 -126.1667
18152.512564 68.888 -129.2609
18284.053153 68.038 -132.5002
18416.546939 67.238 -136.0393
18550.000830 66.512 -140.0474
18684.421783 65.880 -144.6865
18819.816805 65.354 -150.0810
18956.192956 64.935 -156.2807
19093.557344 64.615 -163.2172
19231.917131 64.377 -170.6622
19371.279531 64.202 -178.2055
19511.651807 64.075 174.7148
19653.041280 63.986 168.7221
19795.455318 63.928 164.3818
19938.901348 63.899 162.1057
