* Measurement data measured by REW V5.31.3
* Source: EXCL: Headset (USB-C to 3.5mm Headphone Jack Adapter), MICROPHONE (Master Volume), 0, volume: 0.260
* Format: 256k Log Swept Sine, 1 sweep at -12.0 dBFS with no timing reference
* Dated: Mar 17, 2025 12:32:22 PM
* REW Settings:
*  C-weighting compensation: Off
*  Target level: 75.0 dB
* Note: ; 
* Measurement: HD650 (Mystery) L2
* Smoothing: 1/6 octave
* Frequency Step: 96 ppo
* Start Frequency: 20.0 Hz
*
* Freq(Hz) SPL(dB) Phase(degrees)
20.187378 92.115 -61.4238
20.333664 92.120 -61.5960
20.481010 92.127 -61.8269
20.629424 92.136 -62.1100
20.778913 92.147 -62.4382
20.929486 92.159 -62.8041
21.081150 92.173 -63.2006
21.233912 92.189 -63.6206
21.387782 92.207 -64.0582
21.542767 92.228 -64.5078
21.698874 92.252 -64.9651
21.856113 92.280 -65.4266
22.014492 92.310 -65.8898
22.174018 92.344 -66.3531
22.334700 92.382 -66.8158
22.496546 92.422 -67.2777
22.659566 92.465 -67.7393
22.823766 92.510 -68.2011
22.989157 92.556 -68.6640
23.155745 92.604 -69.1288
23.323542 92.651 -69.5964
23.492554 92.698 -70.0674
23.662790 92.745 -70.5425
23.834261 92.792 -71.0223
24.006973 92.838 -71.5075
24.180938 92.883 -71.9987
24.356163 92.929 -72.4966
24.532658 92.974 -73.0019
24.710431 93.020 -73.5151
24.889493 93.067 -74.0365
25.069853 93.115 -74.5664
25.251519 93.163 -75.1045
25.434502 93.212 -75.6500
25.618811 93.262 -76.2019
25.804456 93.312 -76.7587
25.991445 93.363 -77.3185
26.179790 93.413 -77.8791
26.369500 93.463 -78.4385
26.560584 93.513 -78.9945
26.753053 93.563 -79.5449
26.946917 93.612 -80.0880
27.142185 93.662 -80.6222
27.338869 93.712 -81.1466
27.536977 93.762 -81.6603
27.736522 93.814 -82.1633
27.937512 93.867 -82.6559
28.139959 93.922 -83.1389
28.343872 93.978 -83.6136
28.549264 94.036 -84.0816
28.756143 94.095 -84.5450
28.964522 94.154 -85.0059
29.174411 94.213 -85.4666
29.385821 94.272 -85.9292
29.598763 94.329 -86.3955
29.813248 94.385 -86.8668
30.029287 94.437 -87.3443
30.246891 94.488 -87.8284
30.466073 94.536 -88.3194
30.686842 94.581 -88.8170
30.909212 94.625 -89.3208
31.133193 94.668 -89.8304
31.358797 94.711 -90.3450
31.586035 94.755 -90.8642
31.814921 94.802 -91.3873
32.045465 94.852 -91.9134
32.277680 94.907 -92.4417
32.511577 94.966 -92.9711
32.747169 95.031 -93.5000
32.984469 95.101 -94.0268
33.223488 95.175 -94.5494
33.464239 95.253 -95.0659
33.706735 95.334 -95.5743
33.950987 95.417 -96.0733
34.197010 95.500 -96.5624
34.444816 95.582 -97.0417
34.694417 95.663 -97.5127
34.945827 95.740 -97.9778
35.199059 95.813 -98.4401
35.454126 95.881 -98.9032
35.711041 95.944 -99.3703
35.969818 95.999 -99.8442
36.230470 96.047 -100.3267
36.493011 96.088 -100.8181
36.757455 96.122 -101.3175
37.023814 96.149 -101.8227
37.292104 96.169 -102.3309
37.562338 96.183 -102.8388
37.834530 96.193 -103.3432
38.108695 96.200 -103.8418
38.384846 96.205 -104.3332
38.662999 96.209 -104.8171
38.943167 96.212 -105.2945
39.225365 96.216 -105.7671
39.509608 96.220 -106.2369
39.795911 96.226 -106.7058
40.084289 96.233 -107.1754
40.374756 96.241 -107.6462
40.667328 96.249 -108.1180
40.962020 96.259 -108.5898
41.258848 96.269 -109.0605
41.557827 96.279 -109.5289
41.858972 96.291 -109.9941
42.162299 96.303 -110.4559
42.467824 96.315 -110.9146
42.775564 96.328 -111.3707
43.085533 96.342 -111.8249
43.397749 96.356 -112.2776
43.712227 96.369 -112.7291
44.028983 96.384 -113.1791
44.348036 96.399 -113.6274
44.669400 96.416 -114.0739
44.993093 96.435 -114.5187
45.319131 96.457 -114.9621
45.647532 96.483 -115.4047
45.978313 96.511 -115.8468
46.311491 96.544 -116.2881
46.647083 96.579 -116.7280
46.985107 96.617 -117.1646
47.325581 96.656 -117.5960
47.668521 96.697 -118.0198
48.013947 96.738 -118.4342
48.361876 96.780 -118.8381
48.712326 96.822 -119.2311
49.065315 96.865 -119.6137
49.420863 96.908 -119.9876
49.778987 96.952 -120.3546
50.139706 96.996 -120.7174
50.503039 97.041 -121.0789
50.869005 97.087 -121.4425
51.237623 97.132 -121.8116
51.608912 97.177 -122.1895
51.982891 97.219 -122.5793
52.359580 97.260 -122.9828
52.739000 97.297 -123.4006
53.121168 97.331 -123.8315
53.506106 97.361 -124.2728
53.893833 97.387 -124.7207
54.284370 97.411 -125.1711
54.677737 97.432 -125.6205
55.073955 97.450 -126.0667
55.473043 97.466 -126.5090
55.875024 97.480 -126.9488
56.279917 97.492 -127.3885
56.687745 97.503 -127.8314
57.098527 97.512 -128.2807
57.512287 97.521 -128.7386
57.929045 97.531 -129.2052
58.348822 97.542 -129.6772
58.771642 97.556 -130.1479
59.197525 97.573 -130.6081
59.626495 97.595 -131.0477
60.058573 97.621 -131.4586
60.493782 97.652 -131.8370
60.932145 97.687 -132.1841
61.373685 97.725 -132.5053
61.818424 97.765 -132.8088
62.266386 97.805 -133.1030
62.717593 97.844 -133.3953
63.172071 97.882 -133.6913
63.629842 97.918 -133.9944
64.090930 97.951 -134.3067
64.555359 97.982 -134.6288
65.023154 98.010 -134.9608
65.494339 98.035 -135.3025
65.968938 98.059 -135.6542
66.446976 98.080 -136.0158
66.928478 98.100 -136.3874
67.413469 98.120 -136.7684
67.901975 98.138 -137.1575
68.394021 98.156 -137.5527
68.889632 98.174 -137.9516
69.388835 98.192 -138.3520
69.891655 98.209 -138.7526
70.398118 98.227 -139.1526
70.908252 98.244 -139.5519
71.422083 98.262 -139.9510
71.939636 98.280 -140.3505
72.460941 98.297 -140.7506
72.986023 98.315 -141.1513
73.514909 98.332 -141.5523
74.047629 98.349 -141.9533
74.584208 98.366 -142.3538
75.124676 98.383 -142.7533
75.669061 98.399 -143.1513
76.217390 98.415 -143.5473
76.769692 98.431 -143.9408
77.325997 98.445 -144.3314
77.886333 98.459 -144.7191
78.450730 98.471 -145.1038
79.019216 98.483 -145.4861
79.591822 98.494 -145.8664
80.168577 98.504 -146.2452
80.749512 98.512 -146.6229
81.334656 98.521 -147.0002
81.924040 98.528 -147.3771
82.517696 98.536 -147.7536
83.115653 98.543 -148.1292
83.717943 98.550 -148.5029
84.324598 98.558 -148.8739
84.935649 98.566 -149.2412
85.551128 98.574 -149.6043
86.171066 98.582 -149.9631
86.795497 98.592 -150.3178
87.424453 98.602 -150.6688
88.057967 98.613 -151.0165
88.696071 98.625 -151.3611
89.338800 98.639 -151.7027
89.986185 98.654 -152.0412
90.638262 98.670 -152.3765
91.295065 98.688 -152.7087
91.956626 98.706 -153.0384
92.622982 98.726 -153.3660
93.294166 98.745 -153.6927
93.970214 98.764 -154.0196
94.651161 98.782 -154.3476
95.337042 98.798 -154.6775
96.027894 98.812 -155.0096
96.723752 98.824 -155.3438
97.424652 98.833 -155.6799
98.130631 98.839 -156.0175
98.841726 98.842 -156.3558
99.557974 98.843 -156.6944
100.279412 98.841 -157.0321
101.006078 98.838 -157.3683
101.738010 98.833 -157.7018
102.475245 98.827 -158.0321
103.217823 98.822 -158.3587
103.965782 98.816 -158.6815
104.719161 98.812 -159.0011
105.477999 98.808 -159.3183
106.242336 98.805 -159.6343
107.012212 98.804 -159.9502
107.787666 98.804 -160.2666
108.568740 98.806 -160.5835
109.355474 98.809 -160.9003
110.147909 98.813 -161.2162
110.946086 98.818 -161.5304
111.750047 98.824 -161.8424
112.559834 98.830 -162.1518
113.375489 98.837 -162.4589
114.197055 98.843 -162.7637
115.024574 98.848 -163.0669
115.858089 98.853 -163.3690
116.697645 98.856 -163.6707
117.543284 98.857 -163.9724
118.395051 98.858 -164.2743
119.252990 98.856 -164.5764
120.117147 98.854 -164.8782
120.987565 98.851 -165.1791
121.864291 98.847 -165.4783
122.747370 98.842 -165.7754
123.636848 98.838 -166.0701
124.532771 98.834 -166.3625
125.435187 98.831 -166.6532
126.344142 98.829 -166.9433
127.259684 98.828 -167.2336
128.181860 98.829 -167.5244
129.110718 98.831 -167.8159
130.046308 98.834 -168.1073
130.988677 98.839 -168.3974
131.937875 98.846 -168.6849
132.893951 98.852 -168.9683
133.856956 98.860 -169.2463
134.826938 98.867 -169.5182
135.803950 98.874 -169.7834
136.788041 98.880 -170.0420
137.779264 98.885 -170.2946
138.777669 98.888 -170.5424
139.783309 98.889 -170.7868
140.796237 98.887 -171.0296
141.816504 98.884 -171.2724
142.844165 98.878 -171.5162
143.879273 98.870 -171.7620
144.921881 98.860 -172.0102
145.972045 98.848 -172.2607
147.029819 98.835 -172.5132
148.095257 98.822 -172.7670
149.168417 98.809 -173.0217
150.249353 98.796 -173.2767
151.338121 98.784 -173.5315
152.434780 98.773 -173.7857
153.539385 98.763 -174.0388
154.651995 98.756 -174.2905
155.772667 98.749 -174.5406
156.901460 98.744 -174.7896
158.038432 98.739 -175.0380
159.183644 98.736 -175.2866
160.337154 98.733 -175.5362
161.499023 98.730 -175.7870
162.669312 98.727 -176.0392
163.848081 98.725 -176.2920
165.035392 98.722 -176.5449
166.231306 98.720 -176.7968
167.435887 98.717 -177.0471
168.649196 98.714 -177.2953
169.871298 98.710 -177.5408
171.102255 98.706 -177.7835
172.342133 98.702 -178.0235
173.590995 98.697 -178.2610
174.848907 98.691 -178.4964
176.115934 98.684 -178.7302
177.392143 98.676 -178.9629
178.677599 98.667 -179.1950
179.972371 98.656 -179.4267
181.276525 98.643 -179.6583
182.590129 98.629 -179.8898
183.913252 98.613 179.8788
185.245964 98.596 179.6478
186.588332 98.577 179.4172
187.940428 98.556 179.1872
189.302322 98.533 178.9580
190.674085 98.508 178.7299
192.055788 98.480 178.5028
193.447503 98.451 178.2769
194.849303 98.419 178.0519
196.261262 98.384 177.8277
197.683452 98.348 177.6040
199.115948 98.309 177.3809
200.558824 98.269 177.1586
202.012156 98.227 176.9376
203.476019 98.184 176.7186
204.950490 98.141 176.5020
206.435646 98.098 176.2881
207.931564 98.056 176.0769
209.438322 98.017 175.8680
210.955998 97.979 175.6606
212.484672 97.945 175.4542
214.024424 97.915 175.2480
215.575333 97.890 175.0418
217.137481 97.869 174.8352
218.710948 97.853 174.6283
220.295818 97.842 174.4211
221.892172 97.836 174.2139
223.500094 97.834 174.0072
225.119668 97.837 173.8014
226.750978 97.842 173.5971
228.394109 97.850 173.3950
230.049147 97.861 173.1957
231.716178 97.873 172.9997
233.395289 97.886 172.8074
235.086567 97.900 172.6192
236.790102 97.914 172.4356
238.505980 97.928 172.2569
240.234293 97.941 172.0833
241.975130 97.953 171.9149
243.728581 97.965 171.7516
245.494739 97.975 171.5937
247.273695 97.983 171.4411
249.065542 97.990 171.2941
250.870374 97.996 171.1535
252.688284 98.000 171.0199
254.519367 98.003 170.8945
256.363720 98.004 170.7777
258.221437 98.005 170.6699
260.092616 98.004 170.5706
261.977354 98.003 170.4792
263.875750 98.001 170.3950
265.787903 97.998 170.3171
267.713911 97.996 170.2450
269.653877 97.992 170.1777
271.607900 97.989 170.1137
273.576083 97.985 170.0503
275.558528 97.980 169.9845
277.555338 97.974 169.9135
279.566619 97.966 169.8353
281.592474 97.954 169.7495
283.633009 97.939 169.6560
285.688331 97.920 169.5559
287.758546 97.896 169.4504
289.843763 97.868 169.3407
291.944090 97.835 169.2279
294.059638 97.798 169.1129
296.190515 97.757 168.9960
298.336833 97.712 168.8777
300.498705 97.665 168.7582
302.676243 97.615 168.6381
304.869559 97.564 168.5172
307.078770 97.512 168.3957
309.303989 97.461 168.2736
311.545334 97.410 168.1511
313.802919 97.360 168.0284
316.076865 97.312 167.9064
318.367288 97.267 167.7857
320.674309 97.225 167.6672
322.998047 97.187 167.5516
325.338624 97.152 167.4393
327.696162 97.122 167.3306
330.070783 97.097 167.2256
332.462612 97.076 167.1245
334.871773 97.061 167.0272
337.298392 97.051 166.9338
339.742595 97.046 166.8441
342.204510 97.047 166.7577
344.684265 97.053 166.6740
347.181989 97.063 166.5924
349.697813 97.077 166.5125
352.231868 97.094 166.4333
354.784285 97.113 166.3544
357.355198 97.133 166.2749
359.944741 97.154 166.1944
362.553049 97.173 166.1129
365.180258 97.191 166.0309
367.826505 97.207 165.9495
370.491927 97.219 165.8697
373.176665 97.228 165.7921
375.880856 97.232 165.7172
378.604644 97.232 165.6451
381.348169 97.226 165.5753
384.111575 97.216 165.5077
386.895006 97.201 165.4418
389.698607 97.181 165.3772
392.522524 97.159 165.3136
395.366904 97.133 165.2504
398.231895 97.106 165.1872
401.117648 97.077 165.1237
404.024312 97.050 165.0597
406.952038 97.023 164.9953
409.900981 96.999 164.9307
412.871292 96.977 164.8660
415.863128 96.960 164.8011
418.876643 96.947 164.7358
421.911996 96.938 164.6699
424.969344 96.934 164.6035
428.048847 96.933 164.5364
431.150666 96.936 164.4692
434.274961 96.942 164.4022
437.421897 96.948 164.3360
440.591636 96.956 164.2711
443.784345 96.962 164.2081
447.000189 96.967 164.1473
450.239337 96.970 164.0892
453.501956 96.970 164.0338
456.788219 96.968 163.9812
460.098294 96.962 163.9313
463.432356 96.953 163.8838
466.790578 96.943 163.8384
470.173135 96.930 163.7945
473.580203 96.915 163.7516
477.011961 96.899 163.7094
480.468586 96.883 163.6675
483.950259 96.865 163.6259
487.457163 96.848 163.5846
490.989478 96.830 163.5434
494.547390 96.813 163.5025
498.131084 96.797 163.4620
501.740748 96.783 163.4222
505.376568 96.772 163.3831
509.038735 96.764 163.3452
512.727439 96.761 163.3086
516.442874 96.763 163.2736
520.185232 96.772 163.2403
523.954708 96.787 163.2088
527.751500 96.808 163.1790
531.575805 96.836 163.1505
535.427822 96.869 163.1231
539.307753 96.908 163.0964
543.215800 96.950 163.0700
547.152165 96.994 163.0435
551.117055 97.038 163.0168
555.110677 97.082 162.9900
559.133237 97.123 162.9631
563.184947 97.159 162.9362
567.266018 97.190 162.9096
571.376661 97.215 162.8832
575.517092 97.232 162.8571
579.687526 97.240 162.8313
583.888181 97.240 162.8061
588.119275 97.230 162.7816
592.381030 97.210 162.7579
596.673667 97.180 162.7354
600.997410 97.141 162.7142
605.352485 97.092 162.6944
609.739119 97.035 162.6759
614.157540 96.970 162.6586
618.607979 96.899 162.6423
623.090667 96.824 162.6270
627.605839 96.746 162.6125
632.153730 96.666 162.5989
636.734576 96.588 162.5863
641.348617 96.513 162.5743
645.996094 96.442 162.5627
650.677248 96.376 162.5511
655.392323 96.318 162.5389
660.141566 96.267 162.5255
664.925224 96.225 162.5107
669.743546 96.192 162.4942
674.596784 96.167 162.4756
679.485191 96.152 162.4551
684.409020 96.146 162.4325
689.368530 96.148 162.4081
694.363979 96.158 162.3824
699.395626 96.176 162.3557
704.463736 96.199 162.3283
709.568570 96.228 162.3004
714.710396 96.261 162.2719
719.889483 96.296 162.2421
725.106099 96.332 162.2106
730.360516 96.368 162.1763
735.653010 96.402 162.1384
740.983855 96.434 162.0958
746.353329 96.462 162.0477
751.761713 96.486 161.9931
757.209288 96.505 161.9312
762.696339 96.520 161.8613
768.223151 96.530 161.7831
773.790013 96.536 161.6973
779.397214 96.536 161.6052
785.045047 96.531 161.5095
790.733808 96.519 161.4144
796.463791 96.500 161.3254
802.235296 96.472 161.2491
808.048623 96.436 161.1938
813.904077 96.389 161.1684
819.801961 96.332 161.1821
825.742584 96.266 161.2430
831.726255 96.193 161.3561
837.753287 96.115 161.5212
843.823992 96.036 161.7308
849.938689 95.959 161.9712
856.097695 95.888 162.2240
862.301332 95.825 162.4704
868.549922 95.773 162.6947
874.843793 95.732 162.8861
881.183272 95.704 163.0392
887.568689 95.688 163.1530
894.000378 95.684 163.2299
900.478673 95.691 163.2741
907.003913 95.710 163.2903
913.576437 95.738 163.2834
920.196588 95.775 163.2576
926.864712 95.818 163.2166
933.581156 95.866 163.1635
940.346270 95.917 163.1002
947.160407 95.969 163.0287
954.023921 96.021 162.9504
960.937172 96.071 162.8666
967.900519 96.118 162.7789
974.914325 96.161 162.6894
981.978956 96.200 162.6008
989.094780 96.234 162.5163
996.262169 96.263 162.4392
1003.481495 96.289 162.3727
1010.753136 96.312 162.3190
1018.077470 96.334 162.2797
1025.454879 96.357 162.2549
1032.885748 96.382 162.2437
1040.370463 96.411 162.2440
1047.909417 96.445 162.2528
1055.503000 96.485 162.2670
1063.151610 96.532 162.2838
1070.855645 96.584 162.3008
1078.615506 96.642 162.3169
1086.431599 96.704 162.3311
1094.304330 96.769 162.3431
1102.234110 96.836 162.3525
1110.221353 96.903 162.3584
1118.266475 96.969 162.3596
1126.369895 97.031 162.3549
1134.532035 97.090 162.3432
1142.753322 97.143 162.3237
1151.034184 97.191 162.2964
1159.375052 97.234 162.2617
1167.776361 97.272 162.2204
1176.238550 97.307 162.1740
1184.762060 97.339 162.1239
1193.347334 97.370 162.0714
1201.994821 97.403 162.0172
1210.704971 97.438 161.9615
1219.478238 97.476 161.9033
1228.315080 97.520 161.8410
1237.215957 97.570 161.7724
1246.181334 97.625 161.6956
1255.211678 97.685 161.6093
1264.307459 97.751 161.5128
1273.469152 97.820 161.4066
1282.697235 97.891 161.2918
1291.992188 97.965 161.1700
1301.354495 98.039 161.0428
1310.784647 98.112 160.9123
1320.283132 98.184 160.7801
1329.850448 98.254 160.6478
1339.487093 98.320 160.5168
1349.193569 98.384 160.3885
1358.970381 98.443 160.2636
1368.818041 98.497 160.1432
1378.737061 98.547 160.0281
1388.727958 98.592 159.9187
1398.791253 98.632 159.8155
1408.927471 98.668 159.7184
1419.137140 98.699 159.6270
1429.420793 98.727 159.5406
1439.778965 98.751 159.4587
1450.212197 98.772 159.3807
1460.721033 98.791 159.3063
1471.306019 98.807 159.2350
1481.967709 98.821 159.1664
1492.706658 98.832 159.0992
1503.523426 98.841 159.0324
1514.418576 98.847 158.9647
1525.392678 98.850 158.8951
1536.446302 98.849 158.8235
1547.580025 98.844 158.7500
1558.794428 98.834 158.6757
1570.090095 98.821 158.6016
1581.467615 98.804 158.5293
1592.927581 98.783 158.4601
1604.470591 98.759 158.3955
1616.097246 98.733 158.3364
1627.808153 98.705 158.2841
1639.603922 98.677 158.2391
1651.485168 98.647 158.2022
1663.452510 98.618 158.1735
1675.506573 98.588 158.1531
1687.647984 98.558 158.1411
1699.877377 98.527 158.1373
1712.195390 98.497 158.1417
1724.602663 98.466 158.1542
1737.099845 98.435 158.1748
1749.687587 98.406 158.2037
1762.366544 98.377 158.2410
1775.137379 98.349 158.2869
1788.000756 98.324 158.3417
1800.957346 98.302 158.4053
1814.007826 98.281 158.4777
1827.152874 98.264 158.5585
1840.393177 98.248 158.6475
1853.729425 98.235 158.7438
1867.162312 98.223 158.8461
1880.692540 98.212 158.9522
1894.320813 98.200 159.0601
1908.047843 98.187 159.1685
1921.874344 98.173 159.2773
1935.801038 98.155 159.3875
1949.828650 98.134 159.5013
1963.957912 98.109 159.6216
1978.189561 98.082 159.7512
1992.524338 98.052 159.8920
2006.962991 98.022 160.0454
2021.506272 97.991 160.2111
2036.154940 97.961 160.3876
2050.909758 97.934 160.5728
2065.771495 97.909 160.7639
2080.740927 97.890 160.9582
2095.818833 97.875 161.1535
2111.006001 97.865 161.3481
2126.303220 97.861 161.5414
2141.711290 97.862 161.7340
2157.231013 97.870 161.9272
2172.863198 97.885 162.1224
2188.608660 97.907 162.3201
2204.468221 97.937 162.5198
2220.442706 97.975 162.7205
2236.532950 98.021 162.9204
2252.739789 98.076 163.1183
2269.064070 98.140 163.3131
2285.506644 98.212 163.5041
2302.068367 98.293 163.6908
2318.750104 98.381 163.8728
2335.552723 98.476 164.0495
2352.477101 98.578 164.2199
2369.524119 98.686 164.3828
2386.694668 98.798 164.5363
2403.989641 98.914 164.6786
2421.409941 99.032 164.8085
2438.956476 99.151 164.9249
2456.630160 99.269 165.0278
2474.431915 99.386 165.1177
2492.362668 99.500 165.1954
2510.423356 99.610 165.2621
2528.614918 99.716 165.3188
2546.938304 99.816 165.3668
2565.394469 99.910 165.4074
2583.984375 99.997 165.4420
2602.708991 100.077 165.4718
2621.569293 100.150 165.4979
2640.566265 100.215 165.5209
2659.700897 100.272 165.5418
2678.974186 100.322 165.5612
2698.387137 100.364 165.5796
2717.940763 100.398 165.5975
2737.636082 100.425 165.6151
2757.474121 100.444 165.6328
2777.455915 100.456 165.6513
2797.582506 100.462 165.6723
2817.854942 100.460 165.6983
2838.274281 100.452 165.7325
2858.841586 100.438 165.7776
2879.557931 100.419 165.8359
2900.424394 100.395 165.9084
2921.442065 100.369 165.9953
2942.612039 100.340 166.0953
2963.935418 100.309 166.2063
2985.413316 100.278 166.3246
3007.046852 100.248 166.4452
3028.837153 100.218 166.5623
3050.785356 100.190 166.6699
3072.892604 100.164 166.7622
3095.160050 100.139 166.8340
3117.588856 100.115 166.8815
3140.180190 100.092 166.9025
3162.935230 100.068 166.8967
3185.855163 100.044 166.8658
3208.941182 100.018 166.8127
3232.194493 99.990 166.7415
3255.616307 99.960 166.6569
3279.207844 99.928 166.5639
3302.970336 99.894 166.4672
3326.905021 99.859 166.3710
3351.013146 99.822 166.2797
3375.295969 99.785 166.1969
3399.754755 99.748 166.1265
3424.390779 99.711 166.0720
3449.205326 99.675 166.0372
3474.199690 99.641 166.0253
3499.375173 99.608 166.0393
3524.733088 99.579 166.0819
3550.274757 99.552 166.1552
3576.001511 99.529 166.2604
3601.914692 99.509 166.3983
3628.015651 99.494 166.5691
3654.305748 99.484 166.7723
3680.786354 99.478 167.0074
3707.458849 99.477 167.2733
3734.324624 99.482 167.5692
3761.385080 99.491 167.8945
3788.641627 99.507 168.2488
3816.095686 99.527 168.6318
3843.748688 99.554 169.0435
3871.602076 99.586 169.4843
3899.657300 99.625 169.9541
3927.915825 99.671 170.4529
3956.379122 99.723 170.9800
3985.048676 99.783 171.5338
4013.925981 99.851 172.1118
4043.012544 99.927 172.7101
4072.309879 100.011 173.3235
4101.819515 100.104 173.9455
4131.542990 100.206 174.5689
4161.481854 100.317 175.1860
4191.637667 100.436 175.7883
4222.012001 100.564 176.3671
4252.606441 100.700 176.9135
4283.422580 100.844 177.4183
4314.462026 100.996 177.8729
4345.726396 101.154 178.2693
4377.217321 101.318 178.6012
4408.936442 101.487 178.8636
4440.885413 101.659 179.0536
4473.065899 101.834 179.1703
4505.479579 102.010 179.2143
4538.128141 102.187 179.1874
4571.013288 102.364 179.0922
4604.136735 102.540 178.9311
4637.500207 102.715 178.7066
4671.105446 102.889 178.4209
4704.954201 103.059 178.0757
4739.048239 103.227 177.6722
4773.389336 103.392 177.2109
4807.979283 103.553 176.6918
4842.819883 103.710 176.1139
4877.912952 103.862 175.4757
4913.260320 104.008 174.7753
4948.863830 104.148 174.0098
4984.725337 104.281 173.1762
5020.846712 104.406 172.2713
5057.229836 104.521 171.2923
5093.876609 104.625 170.2374
5130.788938 104.715 169.1060
5167.968750 104.789 167.8999
5205.417982 104.845 166.6229
5243.138586 104.880 165.2817
5281.132530 104.892 163.8859
5319.401793 104.879 162.4478
5357.948371 104.837 160.9823
5396.774274 104.766 159.5070
5435.881525 104.663 158.0417
5475.272163 104.528 156.6083
5514.948243 104.360 155.2305
5554.911831 104.159 153.9329
5595.165012 103.926 152.7411
5635.709884 103.662 151.6810
5676.548561 103.369 150.7783
5717.683172 103.049 150.0584
5759.115861 102.706 149.5464
5800.848789 102.342 149.2657
5842.884130 101.963 149.2379
5885.224077 101.573 149.4806
5927.870837 101.178 150.0068
5970.826633 100.785 150.8221
6014.093704 100.400 151.9238
6057.674306 100.029 153.2990
6101.570711 99.680 154.9246
6145.785208 99.356 156.7675
6190.320101 99.064 158.7868
6235.177712 98.807 160.9369
6280.360380 98.584 163.1716
6325.870460 98.398 165.4487
6371.710325 98.247 167.7328
6417.882365 98.130 169.9969
6464.388986 98.044 172.2220
6511.232613 97.990 174.3948
6558.415689 97.967 176.5056
6605.940673 97.974 178.5442
6653.810042 98.012 -179.5014
6702.026292 98.083 -177.6476
6750.591937 98.187 -175.9152
6799.509509 98.322 -174.3288
6848.781558 98.489 -172.9148
6898.410653 98.684 -171.6995
6948.399380 98.903 -170.7064
6998.750346 99.142 -169.9551
7049.466176 99.393 -169.4594
7100.549514 99.651 -169.2275
7152.003023 99.909 -169.2616
7203.829385 100.159 -169.5587
7256.031302 100.397 -170.1111
7308.611496 100.614 -170.9073
7361.572708 100.806 -171.9323
7414.917698 100.966 -173.1676
7468.649249 101.090 -174.5922
7522.770160 101.173 -176.1815
7577.283253 101.211 -177.9076
7632.191371 101.199 -179.7386
7687.497376 101.136 178.3622
7743.204151 101.017 176.4376
7799.314600 100.841 174.5373
7855.831649 100.605 172.7212
7912.758244 100.309 171.0613
7970.097352 99.954 169.6464
8027.851962 99.541 168.5876
8086.025087 99.074 168.0270
8144.619758 98.562 168.1472
8203.639030 98.016 169.1842
8263.085980 97.454 171.4341
8322.963708 96.903 175.2393
8383.275334 96.396 -179.0862
8444.024002 95.973 -171.4463
8505.212881 95.672 -162.2459
8566.845160 95.521 -152.4986
8628.924051 95.532 -143.4372
8691.452792 95.692 -135.8986
8754.434642 95.976 -130.1055
8817.872884 96.348 -125.8772
8881.770826 96.777 -122.8964
8946.131799 97.237 -120.8554
9010.959157 97.710 -119.5055
9076.256282 98.185 -118.6612
9142.026576 98.657 -118.1901
9208.273470 99.121 -118.0013
9275.000415 99.579 -118.0360
9342.210891 100.031 -118.2593
9409.908403 100.478 -118.6546
9478.096478 100.921 -119.2186
9546.778672 101.360 -119.9576
9615.958566 101.794 -120.8839
9685.639765 102.221 -122.0127
9755.825904 102.640 -123.3601
9826.520640 103.046 -124.9403
9897.727659 103.437 -126.7650
9969.450674 103.806 -128.8410
10041.693423 104.150 -131.1700
10114.459673 104.464 -133.7474
10187.753217 104.742 -136.5622
10261.577877 104.979 -139.5966
10335.937500 105.171 -142.8260
10410.835964 105.314 -146.2197
10486.277173 105.406 -149.7422
10562.265060 105.444 -153.3541
10638.803587 105.427 -157.0150
10715.896743 105.357 -160.6851
10793.548548 105.236 -164.3280
10871.763050 105.065 -167.9127
10950.544327 104.849 -171.4147
11029.896485 104.592 -174.8169
11109.823662 104.298 -178.1093
11190.330024 103.971 178.7117
11271.419768 103.616 175.6452
11353.097122 103.235 172.6870
11435.366344 102.830 169.8322
11518.231722 102.403 167.0766
11601.697577 101.956 164.4180
11685.768261 101.488 161.8571
11770.448155 101.002 159.3973
11855.741674 100.497 157.0424
11941.653265 99.975 154.7944
12028.187408 99.440 152.6508
12115.348612 98.894 150.6011
12203.141422 98.342 148.6259
12291.570415 97.789 146.6968
12380.640201 97.240 144.7788
12470.355424 96.697 142.8324
12560.720760 96.163 140.8179
12651.740920 95.641 138.6979
12743.420650 95.130 136.4396
12835.764729 94.629 134.0161
12928.777972 94.136 131.4060
13022.465227 93.647 128.5938
13116.831378 93.158 125.5677
13211.881345 92.666 122.3181
13307.620084 92.169 118.8340
13404.052584 91.666 115.1001
13501.183875 91.156 111.0926
13599.019019 90.642 106.7761
13697.563116 90.128 102.1010
13796.821305 89.617 97.0021
13896.798760 89.117 91.3975
13997.500692 88.632 85.1877
14098.932352 88.167 78.2540
14201.099028 87.727 70.4568
14304.006046 87.312 61.6353
14407.658770 86.924 51.6132
14512.062604 86.559 40.2205
14617.222992 86.212 27.3453
14723.145416 85.877 13.0275
14829.835397 85.546 -2.4326
14937.298497 85.209 -18.4410
15045.540320 84.858 -34.2457
15154.566507 84.484 -49.1913
15264.382743 84.078 -62.8923
15374.994752 83.635 -75.2355
15486.408302 83.151 -86.2816
15598.629201 82.627 -96.1711
15711.663298 82.066 -105.0687
15825.516487 81.475 -113.1393
15940.194703 80.862 -120.5389
16055.703925 80.234 -127.4075
16172.050174 79.596 -133.8618
16289.239516 78.952 -139.9906
16407.278061 78.299 -145.8517
16526.171961 77.634 -151.4767
16645.927415 76.952 -156.8781
16766.550667 76.250 -162.0586
16888.048005 75.525 -167.0193
17010.425762 74.775 -171.7651
17133.690320 74.001 -176.3092
17257.848103 73.208 179.3257
17382.905584 72.398 175.1064
17508.869284 71.579 170.9894
17635.745768 70.759 166.9221
17763.541652 69.948 162.8431
17892.263597 69.161 158.6809
18021.918315 68.412 154.3511
18152.512564 67.723 149.7523
18284.053153 67.113 144.7631
18416.546939 66.600 139.2428
18550.000830 66.195 133.0370
18684.421783 65.899 125.9929
18819.816805 65.701 117.9858
18956.192956 65.578 108.9648
19093.557344 65.508 99.0241
19231.917131 65.469 88.4894
19371.279531 65.445 77.9661
19511.651807 65.426 68.2699
19653.041280 65.409 60.2395
19795.455318 65.395 54.5439
19938.901348 65.387 51.6016
