* Measurement data measured by REW V5.31.3
* Source: EXCL: Headset (USB-C to 3.5mm Headphone Jack Adapter), MICROPHONE (Master Volume), 0, volume: 0.260
* Format: 256k Log Swept Sine, 1 sweep at -12.0 dBFS with no timing reference
* Dated: Mar 17, 2025 12:38:26 PM
* REW Settings:
*  C-weighting compensation: Off
*  Target level: 75.0 dB
* Note: ; 
* Measurement: HD650 (Geekria) L7
* Smoothing: 1/6 octave
* Frequency Step: 96 ppo
* Start Frequency: 20.0 Hz
*
* Freq(Hz) SPL(dB) Phase(degrees)
20.187378 91.569 -61.1545
20.333664 91.584 -61.3054
20.481010 91.605 -61.5075
20.629424 91.630 -61.7554
20.778913 91.660 -62.0440
20.929486 91.693 -62.3685
21.081150 91.730 -62.7247
21.233912 91.767 -63.1089
21.387782 91.805 -63.5174
21.542767 91.842 -63.9461
21.698874 91.876 -64.3906
21.856113 91.908 -64.8464
22.014492 91.937 -65.3087
22.174018 91.963 -65.7731
22.334700 91.985 -66.2364
22.496546 92.006 -66.6965
22.659566 92.025 -67.1534
22.823766 92.045 -67.6091
22.989157 92.065 -68.0678
23.155745 92.088 -68.5352
23.323542 92.114 -69.0182
23.492554 92.144 -69.5237
23.662790 92.177 -70.0580
23.834261 92.212 -70.6254
24.006973 92.250 -71.2280
24.180938 92.288 -71.8646
24.356163 92.326 -72.5313
24.532658 92.363 -73.2213
24.710431 92.399 -73.9253
24.889493 92.432 -74.6331
25.069853 92.463 -75.3335
25.251519 92.492 -76.0163
25.434502 92.521 -76.6720
25.618811 92.550 -77.2938
25.804456 92.581 -77.8770
25.991445 92.615 -78.4200
26.179790 92.654 -78.9238
26.369500 92.699 -79.3920
26.560584 92.752 -79.8301
26.753053 92.811 -80.2449
26.946917 92.879 -80.6437
27.142185 92.954 -81.0337
27.338869 93.036 -81.4210
27.536977 93.122 -81.8108
27.736522 93.213 -82.2068
27.937512 93.306 -82.6111
28.139959 93.398 -83.0247
28.343872 93.490 -83.4477
28.549264 93.577 -83.8794
28.756143 93.659 -84.3187
28.964522 93.734 -84.7644
29.174411 93.801 -85.2152
29.385821 93.859 -85.6698
29.598763 93.908 -86.1266
29.813248 93.947 -86.5845
30.029287 93.979 -87.0424
30.246891 94.003 -87.4994
30.466073 94.021 -87.9553
30.686842 94.036 -88.4104
30.909212 94.050 -88.8658
31.133193 94.065 -89.3232
31.358797 94.083 -89.7847
31.586035 94.106 -90.2521
31.814921 94.134 -90.7268
32.045465 94.169 -91.2094
32.277680 94.210 -91.6990
32.511577 94.258 -92.1940
32.747169 94.312 -92.6921
32.984469 94.371 -93.1909
33.223488 94.434 -93.6884
33.464239 94.501 -94.1840
33.706735 94.571 -94.6779
33.950987 94.643 -95.1719
34.197010 94.716 -95.6682
34.444816 94.789 -96.1695
34.694417 94.862 -96.6779
34.945827 94.932 -97.1944
35.199059 95.001 -97.7189
35.454126 95.065 -98.2498
35.711041 95.126 -98.7847
35.969818 95.181 -99.3206
36.230470 95.231 -99.8544
36.493011 95.275 -100.3837
36.757455 95.313 -100.9065
37.023814 95.346 -101.4220
37.292104 95.373 -101.9303
37.562338 95.396 -102.4323
37.834530 95.414 -102.9294
38.108695 95.429 -103.4235
38.384846 95.442 -103.9162
38.662999 95.453 -104.4092
38.943167 95.463 -104.9035
39.225365 95.471 -105.3999
39.509608 95.479 -105.8983
39.795911 95.486 -106.3982
40.084289 95.491 -106.8988
40.374756 95.494 -107.3988
40.667328 95.494 -107.8971
40.962020 95.492 -108.3925
41.258848 95.487 -108.8843
41.557827 95.480 -109.3723
41.858972 95.472 -109.8566
42.162299 95.462 -110.3375
42.467824 95.453 -110.8153
42.775564 95.444 -111.2894
43.085533 95.436 -111.7582
43.397749 95.432 -112.2194
43.712227 95.430 -112.6700
44.028983 95.433 -113.1074
44.348036 95.440 -113.5303
44.669400 95.453 -113.9388
44.993093 95.472 -114.3344
45.319131 95.498 -114.7196
45.647532 95.529 -115.0963
45.978313 95.565 -115.4660
46.311491 95.605 -115.8286
46.647083 95.649 -116.1835
46.985107 95.696 -116.5300
47.325581 95.745 -116.8687
47.668521 95.796 -117.2016
48.013947 95.849 -117.5325
48.361876 95.904 -117.8663
48.712326 95.960 -118.2083
49.065315 96.016 -118.5629
49.420863 96.072 -118.9332
49.778987 96.128 -119.3203
50.139706 96.182 -119.7227
50.503039 96.234 -120.1372
50.869005 96.282 -120.5586
51.237623 96.328 -120.9812
51.608912 96.369 -121.3993
51.982891 96.407 -121.8078
52.359580 96.441 -122.2027
52.739000 96.472 -122.5811
53.121168 96.500 -122.9414
53.506106 96.526 -123.2832
53.893833 96.550 -123.6075
54.284370 96.572 -123.9165
54.677737 96.593 -124.2134
55.073955 96.613 -124.5014
55.473043 96.630 -124.7832
55.875024 96.646 -125.0604
56.279917 96.660 -125.3339
56.687745 96.672 -125.6043
57.098527 96.683 -125.8726
57.512287 96.693 -126.1414
57.929045 96.703 -126.4145
58.348822 96.713 -126.6978
58.771642 96.726 -126.9984
59.197525 96.742 -127.3236
59.626495 96.763 -127.6796
60.058573 96.788 -128.0701
60.493782 96.817 -128.4946
60.932145 96.851 -128.9479
61.373685 96.888 -129.4220
61.818424 96.926 -129.9070
62.266386 96.965 -130.3939
62.717593 97.003 -130.8759
63.172071 97.039 -131.3489
63.629842 97.072 -131.8114
64.090930 97.103 -132.2636
64.555359 97.131 -132.7069
65.023154 97.157 -133.1432
65.494339 97.181 -133.5745
65.968938 97.204 -134.0017
66.446976 97.226 -134.4255
66.928478 97.248 -134.8455
67.413469 97.269 -135.2612
67.901975 97.290 -135.6719
68.394021 97.310 -136.0772
68.889632 97.331 -136.4769
69.388835 97.350 -136.8712
69.891655 97.369 -137.2604
70.398118 97.387 -137.6452
70.908252 97.404 -138.0259
71.422083 97.419 -138.4027
71.939636 97.434 -138.7759
72.460941 97.448 -139.1456
72.986023 97.461 -139.5121
73.514909 97.474 -139.8756
74.047629 97.487 -140.2366
74.584208 97.500 -140.5953
75.124676 97.514 -140.9523
75.669061 97.528 -141.3079
76.217390 97.542 -141.6630
76.769692 97.556 -142.0184
77.325997 97.571 -142.3751
77.886333 97.585 -142.7340
78.450730 97.600 -143.0955
79.019216 97.614 -143.4596
79.591822 97.628 -143.8255
80.168577 97.641 -144.1920
80.749512 97.654 -144.5574
81.334656 97.667 -144.9204
81.924040 97.678 -145.2801
82.517696 97.689 -145.6362
83.115653 97.699 -145.9889
83.717943 97.708 -146.3386
84.324598 97.717 -146.6856
84.935649 97.726 -147.0301
85.551128 97.734 -147.3722
86.171066 97.744 -147.7119
86.795497 97.754 -148.0495
87.424453 97.765 -148.3854
88.057967 97.778 -148.7201
88.696071 97.791 -149.0539
89.338800 97.806 -149.3871
89.986185 97.821 -149.7195
90.638262 97.837 -150.0507
91.295065 97.854 -150.3798
91.956626 97.870 -150.7064
92.622982 97.887 -151.0299
93.294166 97.904 -151.3503
93.970214 97.919 -151.6677
94.651161 97.934 -151.9825
95.337042 97.947 -152.2952
96.027894 97.958 -152.6066
96.723752 97.967 -152.9175
97.424652 97.975 -153.2286
98.130631 97.980 -153.5404
98.841726 97.983 -153.8532
99.557974 97.984 -154.1668
100.279412 97.984 -154.4809
101.006078 97.982 -154.7950
101.738010 97.979 -155.1086
102.475245 97.975 -155.4212
103.217823 97.971 -155.7329
103.965782 97.968 -156.0434
104.719161 97.965 -156.3528
105.477999 97.964 -156.6609
106.242336 97.963 -156.9673
107.012212 97.964 -157.2712
107.787666 97.965 -157.5721
108.568740 97.968 -157.8695
109.355474 97.971 -158.1634
110.147909 97.975 -158.4540
110.946086 97.979 -158.7418
111.750047 97.984 -159.0275
112.559834 97.989 -159.3117
113.375489 97.994 -159.5951
114.197055 97.998 -159.8784
115.024574 98.002 -160.1618
115.858089 98.005 -160.4458
116.697645 98.007 -160.7302
117.543284 98.008 -161.0150
118.395051 98.008 -161.3000
119.252990 98.007 -161.5849
120.117147 98.005 -161.8696
120.987565 98.002 -162.1543
121.864291 97.998 -162.4389
122.747370 97.994 -162.7235
123.636848 97.990 -163.0080
124.532771 97.987 -163.2923
125.435187 97.984 -163.5763
126.344142 97.982 -163.8603
127.259684 97.982 -164.1442
128.181860 97.983 -164.4284
129.110718 97.986 -164.7127
130.046308 97.990 -164.9970
130.988677 97.996 -165.2808
131.937875 98.003 -165.5635
132.893951 98.011 -165.8440
133.856956 98.019 -166.1209
134.826938 98.027 -166.3927
135.803950 98.034 -166.6581
136.788041 98.040 -166.9164
137.779264 98.044 -167.1675
138.777669 98.047 -167.4121
139.783309 98.048 -167.6511
140.796237 98.046 -167.8858
141.816504 98.042 -168.1176
142.844165 98.037 -168.3475
143.879273 98.029 -168.5766
144.921881 98.019 -168.8058
145.972045 98.007 -169.0354
147.029819 97.995 -169.2660
148.095257 97.982 -169.4978
149.168417 97.969 -169.7310
150.249353 97.957 -169.9657
151.338121 97.945 -170.2018
152.434780 97.934 -170.4394
153.539385 97.925 -170.6783
154.651995 97.916 -170.9184
155.772667 97.910 -171.1593
156.901460 97.904 -171.4008
158.038432 97.900 -171.6427
159.183644 97.896 -171.8845
160.337154 97.893 -172.1257
161.499023 97.889 -172.3658
162.669312 97.886 -172.6042
163.848081 97.883 -172.8409
165.035392 97.878 -173.0759
166.231306 97.874 -173.3096
167.435887 97.868 -173.5424
168.649196 97.862 -173.7746
169.871298 97.856 -174.0064
171.102255 97.848 -174.2377
172.342133 97.839 -174.4680
173.590995 97.830 -174.6969
174.848907 97.820 -174.9235
176.115934 97.808 -175.1472
177.392143 97.796 -175.3679
178.677599 97.782 -175.5854
179.972371 97.767 -175.8002
181.276525 97.751 -176.0127
182.590129 97.734 -176.2234
183.913252 97.716 -176.4324
185.245964 97.696 -176.6400
186.588332 97.675 -176.8459
187.940428 97.652 -177.0499
189.302322 97.627 -177.2518
190.674085 97.601 -177.4514
192.055788 97.572 -177.6492
193.447503 97.541 -177.8456
194.849303 97.508 -178.0411
196.261262 97.473 -178.2363
197.683452 97.436 -178.4310
199.115948 97.396 -178.6250
200.558824 97.355 -178.8178
202.012156 97.312 -179.0090
203.476019 97.269 -179.1987
204.950490 97.225 -179.3868
206.435646 97.181 -179.5732
207.931564 97.139 -179.7573
209.438322 97.098 -179.9390
210.955998 97.060 179.8822
212.484672 97.025 179.7059
214.024424 96.993 179.5320
215.575333 96.966 179.3600
217.137481 96.944 179.1898
218.710948 96.926 179.0216
220.295818 96.913 178.8557
221.892172 96.904 178.6920
223.500094 96.898 178.5306
225.119668 96.897 178.3709
226.750978 96.898 178.2122
228.394109 96.903 178.0537
230.049147 96.910 177.8948
231.716178 96.919 177.7353
233.395289 96.930 177.5752
235.086567 96.943 177.4152
236.790102 96.957 177.2564
238.505980 96.972 177.0996
240.234293 96.986 176.9460
241.975130 97.001 176.7964
243.728581 97.014 176.6517
245.494739 97.026 176.5125
247.273695 97.036 176.3792
249.065542 97.044 176.2523
250.870374 97.050 176.1322
252.688284 97.055 176.0195
254.519367 97.058 175.9147
256.363720 97.061 175.8188
258.221437 97.062 175.7321
260.092616 97.064 175.6540
261.977354 97.067 175.5836
263.875750 97.070 175.5193
265.787903 97.074 175.4595
267.713911 97.078 175.4026
269.653877 97.082 175.3471
271.607900 97.085 175.2915
273.576083 97.087 175.2351
275.558528 97.086 175.1773
277.555338 97.082 175.1180
279.566619 97.074 175.0569
281.592474 97.062 174.9937
283.633009 97.046 174.9279
285.688331 97.024 174.8586
287.758546 96.998 174.7855
289.843763 96.967 174.7083
291.944090 96.931 174.6271
294.059638 96.891 174.5422
296.190515 96.847 174.4543
298.336833 96.799 174.3638
300.498705 96.750 174.2715
302.676243 96.698 174.1782
304.869559 96.645 174.0847
307.078770 96.591 173.9917
309.303989 96.538 173.9001
311.545334 96.485 173.8104
313.802919 96.434 173.7231
316.076865 96.385 173.6384
318.367288 96.339 173.5564
320.674309 96.296 173.4765
322.998047 96.257 173.3983
325.338624 96.221 173.3208
327.696162 96.191 173.2437
330.070783 96.165 173.1664
332.462612 96.144 173.0889
334.871773 96.128 173.0110
337.298392 96.118 172.9330
339.742595 96.112 172.8550
342.204510 96.111 172.7778
344.684265 96.115 172.7018
347.181989 96.124 172.6276
349.697813 96.136 172.5557
352.231868 96.151 172.4862
354.784285 96.168 172.4193
357.355198 96.187 172.3550
359.944741 96.206 172.2932
362.553049 96.225 172.2339
365.180258 96.241 172.1770
367.826505 96.255 172.1223
370.491927 96.265 172.0699
373.176665 96.272 172.0195
375.880856 96.274 171.9708
378.604644 96.270 171.9236
381.348169 96.262 171.8772
384.111575 96.249 171.8312
386.895006 96.231 171.7855
389.698607 96.209 171.7400
392.522524 96.184 171.6948
395.366904 96.155 171.6501
398.231895 96.125 171.6061
401.117648 96.094 171.5632
404.024312 96.063 171.5214
406.952038 96.034 171.4811
409.900981 96.007 171.4423
412.871292 95.983 171.4053
415.863128 95.962 171.3702
418.876643 95.946 171.3371
421.911996 95.934 171.3061
424.969344 95.927 171.2771
428.048847 95.923 171.2502
431.150666 95.922 171.2255
434.274961 95.924 171.2027
437.421897 95.928 171.1819
440.591636 95.932 171.1629
443.784345 95.937 171.1451
447.000189 95.939 171.1281
450.239337 95.941 171.1113
453.501956 95.939 171.0941
456.788219 95.936 171.0764
460.098294 95.929 171.0583
463.432356 95.920 171.0395
466.790578 95.909 171.0204
470.173135 95.896 171.0010
473.580203 95.881 170.9818
477.011961 95.865 170.9631
480.468586 95.848 170.9454
483.950259 95.831 170.9290
487.457163 95.814 170.9139
490.989478 95.796 170.9003
494.547390 95.779 170.8881
498.131084 95.764 170.8772
501.740748 95.750 170.8676
505.376568 95.739 170.8593
509.038735 95.731 170.8526
512.727439 95.728 170.8475
516.442874 95.730 170.8441
520.185232 95.737 170.8424
523.954708 95.751 170.8422
527.751500 95.772 170.8434
531.575805 95.798 170.8458
535.427822 95.830 170.8488
539.307753 95.867 170.8524
543.215800 95.907 170.8561
547.152165 95.949 170.8598
551.117055 95.992 170.8635
555.110677 96.034 170.8670
559.133237 96.073 170.8705
563.184947 96.109 170.8740
567.266018 96.138 170.8778
571.376661 96.162 170.8820
575.517092 96.177 170.8870
579.687526 96.184 170.8931
583.888181 96.183 170.9006
588.119275 96.171 170.9096
592.381030 96.150 170.9203
596.673667 96.118 170.9326
600.997410 96.077 170.9464
605.352485 96.027 170.9614
609.739119 95.968 170.9776
614.157540 95.901 170.9950
618.607979 95.828 171.0135
623.090667 95.751 171.0332
627.605839 95.671 171.0541
632.153730 95.590 171.0762
636.734576 95.511 171.0997
641.348617 95.434 171.1246
645.996094 95.361 171.1506
650.677248 95.295 171.1774
655.392323 95.235 171.2043
660.141566 95.183 171.2307
664.925224 95.140 171.2556
669.743546 95.106 171.2784
674.596784 95.081 171.2985
679.485191 95.065 171.3157
684.409020 95.059 171.3298
689.368530 95.061 171.3409
694.363979 95.072 171.3492
699.395626 95.090 171.3548
704.463736 95.115 171.3577
709.568570 95.145 171.3579
714.710396 95.178 171.3552
719.889483 95.215 171.3491
725.106099 95.252 171.3392
730.360516 95.288 171.3246
735.653010 95.323 171.3045
740.983855 95.355 171.2776
746.353329 95.383 171.2429
751.761713 95.407 171.1991
757.209288 95.426 171.1453
762.696339 95.439 171.0809
768.223151 95.448 171.0063
773.790013 95.450 170.9225
779.397214 95.447 170.8325
785.045047 95.437 170.7404
790.733808 95.420 170.6525
796.463791 95.394 170.5770
802.235296 95.360 170.5238
808.048623 95.316 170.5035
813.904077 95.262 170.5271
819.801961 95.200 170.6036
825.742584 95.130 170.7381
831.726255 95.057 170.9294
837.753287 94.982 171.1688
843.823992 94.909 171.4403
849.938689 94.841 171.7237
856.097695 94.780 171.9980
862.301332 94.728 172.2453
868.549922 94.685 172.4530
874.843793 94.653 172.6144
881.183272 94.632 172.7278
887.568689 94.621 172.7955
894.000378 94.620 172.8223
900.478673 94.629 172.8138
907.003913 94.647 172.7759
913.576437 94.673 172.7139
920.196588 94.706 172.6328
926.864712 94.744 172.5366
933.581156 94.785 172.4288
940.346270 94.828 172.3122
947.160407 94.871 172.1898
954.023921 94.912 172.0645
960.937172 94.950 171.9394
967.900519 94.983 171.8178
974.914325 95.012 171.7035
981.978956 95.035 171.6005
989.094780 95.053 171.5129
996.262169 95.066 171.4442
1003.481495 95.076 171.3971
1010.753136 95.084 171.3727
1018.077470 95.092 171.3701
1025.454879 95.102 171.3864
1032.885748 95.117 171.4172
1040.370463 95.136 171.4575
1047.909417 95.163 171.5015
1055.503000 95.196 171.5442
1063.151610 95.237 171.5813
1070.855645 95.284 171.6097
1078.615506 95.336 171.6276
1086.431599 95.393 171.6343
1094.304330 95.452 171.6300
1102.234110 95.512 171.6153
1110.221353 95.571 171.5908
1118.266475 95.627 171.5565
1126.369895 95.680 171.5127
1134.532035 95.727 171.4594
1142.753322 95.768 171.3969
1151.034184 95.802 171.3259
1159.375052 95.830 171.2474
1167.776361 95.852 171.1627
1176.238550 95.868 171.0740
1184.762060 95.880 170.9839
1193.347334 95.890 170.8954
1201.994821 95.898 170.8116
1210.704971 95.907 170.7352
1219.478238 95.918 170.6679
1228.315080 95.933 170.6102
1237.215957 95.953 170.5609
1246.181334 95.979 170.5176
1255.211678 96.011 170.4770
1264.307459 96.048 170.4359
1273.469152 96.091 170.3918
1282.697235 96.137 170.3430
1291.992188 96.186 170.2886
1301.354495 96.236 170.2289
1310.784647 96.286 170.1649
1320.283132 96.335 170.0980
1329.850448 96.381 170.0300
1339.487093 96.424 169.9628
1349.193569 96.463 169.8985
1358.970381 96.497 169.8393
1368.818041 96.526 169.7875
1378.737061 96.549 169.7455
1388.727958 96.566 169.7156
1398.791253 96.578 169.7001
1408.927471 96.584 169.7010
1419.137140 96.586 169.7194
1429.420793 96.584 169.7554
1439.778965 96.578 169.8085
1450.212197 96.570 169.8778
1460.721033 96.560 169.9624
1471.306019 96.547 170.0612
1481.967709 96.534 170.1732
1492.706658 96.518 170.2967
1503.523426 96.502 170.4298
1514.418576 96.483 170.5703
1525.392678 96.463 170.7153
1536.446302 96.440 170.8629
1547.580025 96.414 171.0113
1558.794428 96.386 171.1601
1570.090095 96.354 171.3099
1581.467615 96.318 171.4625
1592.927581 96.279 171.6199
1604.470591 96.238 171.7850
1616.097246 96.194 171.9608
1627.808153 96.149 172.1499
1639.603922 96.103 172.3550
1651.485168 96.057 172.5785
1663.452510 96.011 172.8223
1675.506573 95.965 173.0877
1687.647984 95.921 173.3754
1699.877377 95.878 173.6850
1712.195390 95.837 174.0150
1724.602663 95.800 174.3629
1737.099845 95.766 174.7256
1749.687587 95.736 175.0993
1762.366544 95.712 175.4795
1775.137379 95.693 175.8617
1788.000756 95.679 176.2413
1800.957346 95.672 176.6140
1814.007826 95.670 176.9764
1827.152874 95.672 177.3260
1840.393177 95.679 177.6620
1853.729425 95.687 177.9854
1867.162312 95.697 178.2979
1880.692540 95.708 178.6019
1894.320813 95.717 178.8997
1908.047843 95.726 179.1929
1921.874344 95.732 179.4824
1935.801038 95.737 179.7679
1949.828650 95.739 -179.9515
1963.957912 95.740 -179.6769
1978.189561 95.738 -179.4093
1992.524338 95.734 -179.1491
2006.962991 95.730 -178.8957
2021.506272 95.724 -178.6482
2036.154940 95.719 -178.4063
2050.909758 95.716 -178.1699
2065.771495 95.714 -177.9391
2080.740927 95.715 -177.7145
2095.818833 95.719 -177.4961
2111.006001 95.727 -177.2839
2126.303220 95.739 -177.0772
2141.711290 95.755 -176.8747
2157.231013 95.776 -176.6748
2172.863198 95.802 -176.4753
2188.608660 95.833 -176.2743
2204.468221 95.871 -176.0699
2220.442706 95.915 -175.8615
2236.532950 95.966 -175.6489
2252.739789 96.026 -175.4330
2269.064070 96.093 -175.2149
2285.506644 96.168 -174.9964
2302.068367 96.250 -174.7790
2318.750104 96.341 -174.5642
2335.552723 96.437 -174.3531
2352.477101 96.540 -174.1467
2369.524119 96.648 -173.9455
2386.694668 96.760 -173.7497
2403.989641 96.875 -173.5594
2421.409941 96.992 -173.3748
2438.956476 97.110 -173.1960
2456.630160 97.228 -173.0235
2474.431915 97.345 -172.8579
2492.362668 97.461 -172.7001
2510.423356 97.573 -172.5513
2528.614918 97.681 -172.4123
2546.938304 97.784 -172.2836
2565.394469 97.882 -172.1650
2583.984375 97.973 -172.0552
2602.708991 98.056 -171.9525
2621.569293 98.132 -171.8554
2640.566265 98.200 -171.7623
2659.700897 98.260 -171.6715
2678.974186 98.312 -171.5817
2698.387137 98.355 -171.4913
2717.940763 98.391 -171.3982
2737.636082 98.419 -171.3005
2757.474121 98.439 -171.1956
2777.455915 98.453 -171.0811
2797.582506 98.459 -170.9545
2817.854942 98.460 -170.8140
2838.274281 98.456 -170.6581
2858.841586 98.448 -170.4860
2879.557931 98.437 -170.2976
2900.424394 98.423 -170.0940
2921.442065 98.408 -169.8776
2942.612039 98.393 -169.6522
2963.935418 98.378 -169.4234
2985.413316 98.364 -169.1973
3007.046852 98.351 -168.9804
3028.837153 98.340 -168.7789
3050.785356 98.331 -168.5982
3072.892604 98.323 -168.4422
3095.160050 98.316 -168.3136
3117.588856 98.310 -168.2133
3140.180190 98.304 -168.1413
3162.935230 98.297 -168.0966
3185.855163 98.290 -168.0775
3208.941182 98.282 -168.0816
3232.194493 98.272 -168.1060
3255.616307 98.261 -168.1473
3279.207844 98.249 -168.2021
3302.970336 98.236 -168.2668
3326.905021 98.222 -168.3377
3351.013146 98.208 -168.4113
3375.295969 98.193 -168.4844
3399.754755 98.179 -168.5535
3424.390779 98.166 -168.6153
3449.205326 98.154 -168.6664
3474.199690 98.144 -168.7032
3499.375173 98.135 -168.7225
3524.733088 98.129 -168.7209
3550.274757 98.125 -168.6953
3576.001511 98.125 -168.6429
3601.914692 98.127 -168.5614
3628.015651 98.134 -168.4492
3654.305748 98.145 -168.3058
3680.786354 98.161 -168.1312
3707.458849 98.183 -167.9267
3734.324624 98.210 -167.6942
3761.385080 98.244 -167.4362
3788.641627 98.283 -167.1555
3816.095686 98.329 -166.8551
3843.748688 98.382 -166.5380
3871.602076 98.441 -166.2066
3899.657300 98.506 -165.8633
3927.915825 98.577 -165.5099
3956.379122 98.654 -165.1483
3985.048676 98.737 -164.7799
4013.925981 98.825 -164.4061
4043.012544 98.919 -164.0284
4072.309879 99.018 -163.6484
4101.819515 99.122 -163.2679
4131.542990 99.231 -162.8888
4161.481854 99.345 -162.5136
4191.637667 99.465 -162.1456
4222.012001 99.592 -161.7893
4252.606441 99.724 -161.4502
4283.422580 99.864 -161.1351
4314.462026 100.010 -160.8516
4345.726396 100.164 -160.6078
4377.217321 100.324 -160.4117
4408.936442 100.490 -160.2712
4440.885413 100.662 -160.1931
4473.065899 100.839 -160.1832
4505.479579 101.019 -160.2460
4538.128141 101.202 -160.3845
4571.013288 101.386 -160.6003
4604.136735 101.570 -160.8936
4637.500207 101.753 -161.2636
4671.105446 101.934 -161.7088
4704.954201 102.111 -162.2274
4739.048239 102.285 -162.8176
4773.389336 102.453 -163.4776
4807.979283 102.615 -164.2062
4842.819883 102.771 -165.0022
4877.912952 102.919 -165.8648
4913.260320 103.058 -166.7929
4948.863830 103.187 -167.7851
4984.725337 103.306 -168.8395
5020.846712 103.412 -169.9536
5057.229836 103.505 -171.1242
5093.876609 103.584 -172.3471
5130.788938 103.647 -173.6176
5167.968750 103.692 -174.9294
5205.417982 103.719 -176.2753
5243.138586 103.726 -177.6467
5281.132530 103.711 -179.0334
5319.401793 103.674 179.5755
5357.948371 103.614 178.1924
5396.774274 103.529 176.8306
5435.881525 103.419 175.5039
5475.272163 103.284 174.2268
5514.948243 103.124 173.0146
5554.911831 102.939 171.8829
5595.165012 102.731 170.8475
5635.709884 102.501 169.9244
5676.548561 102.251 169.1292
5717.683172 101.983 168.4772
5759.115861 101.699 167.9823
5800.848789 101.404 167.6567
5842.884130 101.102 167.5097
5885.224077 100.796 167.5464
5927.870837 100.492 167.7668
5970.826633 100.194 168.1648
6014.093704 99.907 168.7273
6057.674306 99.635 169.4344
6101.570711 99.382 170.2604
6145.785208 99.150 171.1756
6190.320101 98.940 172.1486
6235.177712 98.752 173.1497
6280.360380 98.584 174.1526
6325.870460 98.434 175.1365
6371.710325 98.300 176.0874
6417.882365 98.179 176.9974
6464.388986 98.067 177.8647
6511.232613 97.964 178.6920
6558.415689 97.868 179.4856
6605.940673 97.779 -179.7467
6653.810042 97.696 -178.9964
6702.026292 97.622 -178.2563
6750.591937 97.559 -177.5215
6799.509509 97.509 -176.7907
6848.781558 97.474 -176.0668
6898.410653 97.457 -175.3573
6948.399380 97.459 -174.6742
6998.750346 97.483 -174.0339
7049.466176 97.528 -173.4557
7100.549514 97.593 -172.9616
7152.003023 97.676 -172.5741
7203.829385 97.774 -172.3155
7256.031302 97.881 -172.2061
7308.611496 97.994 -172.2633
7361.572708 98.107 -172.5003
7414.917698 98.214 -172.9260
7468.649249 98.308 -173.5443
7522.770160 98.385 -174.3541
7577.283253 98.439 -175.3497
7632.191371 98.465 -176.5209
7687.497376 98.459 -177.8531
7743.204151 98.417 -179.3273
7799.314600 98.334 179.0795
7855.831649 98.208 177.3955
7912.758244 98.036 175.6543
7970.097352 97.815 173.8963
8027.851962 97.543 172.1708
8086.025087 97.219 170.5392
8144.619758 96.843 169.0798
8203.639030 96.415 167.8950
8263.085980 95.940 167.1229
8322.963708 95.424 166.9559
8383.275334 94.879 167.6692
8444.024002 94.325 169.6648
8505.212881 93.790 173.5236
8566.845160 93.314 -179.9831
8628.924051 92.941 -170.1185
8691.452792 92.717 -156.9962
8754.434642 92.673 -142.5868
8817.872884 92.817 -129.8437
8881.770826 93.130 -120.3527
8946.131799 93.577 -113.9707
9010.959157 94.116 -109.9264
9076.256282 94.712 -107.5009
9142.026576 95.338 -106.1794
9208.273470 95.975 -105.6232
9275.000415 96.613 -105.6167
9342.210891 97.244 -106.0259
9409.908403 97.867 -106.7709
9478.096478 98.477 -107.8073
9546.778672 99.075 -109.1135
9615.958566 99.656 -110.6829
9685.639765 100.219 -112.5167
9755.825904 100.760 -114.6201
9826.520640 101.276 -116.9982
9897.727659 101.762 -119.6538
9969.450674 102.213 -122.5855
10041.693423 102.624 -125.7863
10114.459673 102.990 -129.2423
10187.753217 103.306 -132.9329
10261.577877 103.568 -136.8298
10335.937500 103.772 -140.8982
10410.835964 103.915 -145.0974
10486.277173 103.996 -149.3828
10562.265060 104.015 -153.7084
10638.803587 103.973 -158.0297
10715.896743 103.875 -162.3063
10793.548548 103.723 -166.5046
10871.763050 103.522 -170.5991
10950.544327 103.279 -174.5728
11029.896485 102.999 -178.4176
11109.823662 102.686 177.8679
11190.330024 102.346 174.2791
11271.419768 101.983 170.8079
11353.097122 101.598 167.4445
11435.366344 101.196 164.1794
11518.231722 100.776 161.0048
11601.697577 100.340 157.9145
11685.768261 99.890 154.9042
11770.448155 99.425 151.9702
11855.741674 98.949 149.1067
11941.653265 98.463 146.3035
12028.187408 97.971 143.5442
12115.348612 97.477 140.8048
12203.141422 96.984 138.0549
12291.570415 96.497 135.2596
12380.640201 96.016 132.3828
12470.355424 95.545 129.3894
12560.720760 95.081 126.2483
12651.740920 94.625 122.9325
12743.420650 94.174 119.4191
12835.764729 93.727 115.6877
12928.777972 93.280 111.7184
13022.465227 92.833 107.4907
13116.831378 92.383 102.9810
13211.881345 91.928 98.1618
13307.620084 91.467 92.9995
13404.052584 90.999 87.4530
13501.183875 90.522 81.4712
13599.019019 90.034 74.9883
13697.563116 89.533 67.9171
13796.821305 89.018 60.1371
13896.798760 88.490 51.4735
13997.500692 87.948 41.6673
14098.932352 87.395 30.3346
14201.099028 86.838 16.9362
14304.006046 86.282 0.8350
14407.658770 85.734 -18.3477
14512.062604 85.204 -39.9390
14617.222992 84.694 -61.8001
14723.145416 84.208 -81.6069
14829.835397 83.743 -98.3940
14937.298497 83.291 -112.4009
15045.540320 82.844 -124.2403
15154.566507 82.389 -134.4602
15264.382743 81.917 -143.4509
15374.994752 81.419 -151.4721
15486.408302 80.891 -158.6976
15598.629201 80.333 -165.2510
15711.663298 79.748 -171.2286
15825.516487 79.143 -176.7122
15940.194703 78.524 178.2241
16055.703925 77.901 173.5098
16172.050174 77.286 169.0741
16289.239516 76.691 164.8419
16407.278061 76.131 160.7307
16526.171961 75.619 156.6498
16645.927415 75.168 152.5021
16766.550667 74.784 148.1892
16888.048005 74.468 143.6194
17010.425762 74.212 138.7153
17133.690320 74.002 133.4214
17257.848103 73.816 127.7079
17382.905584 73.632 121.5725
17508.869284 73.428 115.0381
17635.745768 73.188 108.1486
17763.541652 72.896 100.9612
17892.263597 72.548 93.5358
18021.918315 72.144 85.9226
18152.512564 71.689 78.1476
18284.053153 71.199 70.1997
18416.546939 70.692 62.0225
18550.000830 70.189 53.5092
18684.421783 69.709 44.5087
18819.816805 69.268 34.8356
18956.192956 68.873 24.2910
19093.557344 68.526 12.7089
19231.917131 68.221 0.0632
19371.279531 67.955 -13.3266
19511.651807 67.727 -26.5729
19653.041280 67.542 -38.2557
19795.455318 67.410 -46.8906
19938.901348 67.340 -51.4402
