* Measurement data measured by REW V5.31.3
* Source: EXCL: Headset (USB-C to 3.5mm Headphone Jack Adapter), MICROPHONE (Master Volume), 0, volume: 0.260
* Format: 256k Log Swept Sine, 1 sweep at -12.0 dBFS with no timing reference
* Dated: Mar 17, 2025 12:33:43 PM
* REW Settings:
*  C-weighting compensation: Off
*  Target level: 75.0 dB
* Note: ; 
* Measurement: HD650 (Mystery) L5
* Smoothing: 1/6 octave
* Frequency Step: 96 ppo
* Start Frequency: 20.0 Hz
*
* Freq(Hz) SPL(dB) Phase(degrees)
20.187378 91.756 -62.6616
20.333664 91.759 -62.8846
20.481010 91.762 -63.1800
20.629424 91.765 -63.5356
20.778913 91.768 -63.9377
20.929486 91.771 -64.3722
21.081150 91.774 -64.8263
21.233912 91.777 -65.2882
21.387782 91.780 -65.7485
21.542767 91.785 -66.2002
21.698874 91.792 -66.6393
21.856113 91.803 -67.0645
22.014492 91.819 -67.4777
22.174018 91.841 -67.8833
22.334700 91.869 -68.2877
22.496546 91.903 -68.6986
22.659566 91.944 -69.1241
22.823766 91.989 -69.5715
22.989157 92.039 -70.0463
23.155745 92.090 -70.5516
23.323542 92.142 -71.0876
23.492554 92.193 -71.6515
23.662790 92.241 -72.2376
23.834261 92.285 -72.8382
24.006973 92.326 -73.4443
24.180938 92.363 -74.0468
24.356163 92.396 -74.6377
24.532658 92.427 -75.2105
24.710431 92.457 -75.7616
24.889493 92.488 -76.2900
25.069853 92.520 -76.7976
25.251519 92.556 -77.2887
25.434502 92.596 -77.7690
25.618811 92.640 -78.2449
25.804456 92.689 -78.7223
25.991445 92.742 -79.2060
26.179790 92.799 -79.6994
26.369500 92.859 -80.2043
26.560584 92.921 -80.7211
26.753053 92.986 -81.2497
26.946917 93.052 -81.7896
27.142185 93.119 -82.3409
27.338869 93.188 -82.9040
27.536977 93.258 -83.4803
27.736522 93.327 -84.0710
27.937512 93.396 -84.6771
28.139959 93.464 -85.2989
28.343872 93.529 -85.9346
28.549264 93.591 -86.5811
28.756143 93.648 -87.2332
28.964522 93.701 -87.8844
29.174411 93.749 -88.5275
29.385821 93.793 -89.1553
29.598763 93.833 -89.7617
29.813248 93.870 -90.3419
30.029287 93.905 -90.8932
30.246891 93.940 -91.4151
30.466073 93.974 -91.9085
30.686842 94.009 -92.3760
30.909212 94.045 -92.8209
31.133193 94.083 -93.2471
31.358797 94.124 -93.6591
31.586035 94.166 -94.0611
31.814921 94.212 -94.4579
32.045465 94.261 -94.8542
32.277680 94.314 -95.2546
32.511577 94.371 -95.6632
32.747169 94.433 -96.0834
32.984469 94.498 -96.5173
33.223488 94.567 -96.9659
33.464239 94.640 -97.4284
33.706735 94.715 -97.9032
33.950987 94.792 -98.3879
34.197010 94.870 -98.8801
34.444816 94.949 -99.3777
34.694417 95.027 -99.8793
34.945827 95.104 -100.3846
35.199059 95.178 -100.8935
35.454126 95.249 -101.4068
35.711041 95.314 -101.9251
35.969818 95.374 -102.4489
36.230470 95.427 -102.9782
36.493011 95.473 -103.5123
36.757455 95.513 -104.0502
37.023814 95.545 -104.5904
37.292104 95.571 -105.1311
37.562338 95.590 -105.6706
37.834530 95.605 -106.2073
38.108695 95.615 -106.7403
38.384846 95.622 -107.2690
38.662999 95.627 -107.7934
38.943167 95.630 -108.3141
39.225365 95.632 -108.8320
39.509608 95.635 -109.3477
39.795911 95.637 -109.8619
40.084289 95.639 -110.3746
40.374756 95.642 -110.8855
40.667328 95.645 -111.3936
40.962020 95.647 -111.8977
41.258848 95.649 -112.3968
41.557827 95.651 -112.8899
41.858972 95.653 -113.3766
42.162299 95.656 -113.8576
42.467824 95.659 -114.3344
42.775564 95.664 -114.8095
43.085533 95.671 -115.2857
43.397749 95.680 -115.7657
43.712227 95.692 -116.2515
44.028983 95.707 -116.7439
44.348036 95.724 -117.2423
44.669400 95.744 -117.7452
44.993093 95.766 -118.2503
45.319131 95.791 -118.7556
45.647532 95.819 -119.2593
45.978313 95.850 -119.7597
46.311491 95.884 -120.2549
46.647083 95.921 -120.7423
46.985107 95.960 -121.2187
47.325581 96.002 -121.6799
47.668521 96.045 -122.1222
48.013947 96.088 -122.5429
48.361876 96.133 -122.9412
48.712326 96.176 -123.3189
49.065315 96.219 -123.6800
49.420863 96.260 -124.0303
49.778987 96.300 -124.3767
50.139706 96.337 -124.7262
50.503039 96.371 -125.0844
50.869005 96.404 -125.4555
51.237623 96.436 -125.8409
51.608912 96.466 -126.2397
51.982891 96.496 -126.6491
52.359580 96.525 -127.0648
52.739000 96.555 -127.4823
53.121168 96.584 -127.8979
53.506106 96.614 -128.3093
53.893833 96.642 -128.7157
54.284370 96.670 -129.1176
54.677737 96.697 -129.5161
55.073955 96.722 -129.9120
55.473043 96.744 -130.3054
55.875024 96.764 -130.6958
56.279917 96.781 -131.0819
56.687745 96.795 -131.4628
57.098527 96.806 -131.8381
57.512287 96.816 -132.2087
57.929045 96.823 -132.5762
58.348822 96.831 -132.9427
58.771642 96.841 -133.3109
59.197525 96.853 -133.6832
59.626495 96.872 -134.0622
60.058573 96.896 -134.4494
60.493782 96.928 -134.8453
60.932145 96.965 -135.2486
61.373685 97.008 -135.6566
61.818424 97.053 -136.0664
62.266386 97.100 -136.4756
62.717593 97.146 -136.8833
63.172071 97.191 -137.2903
63.629842 97.233 -137.6982
64.090930 97.273 -138.1089
64.555359 97.310 -138.5240
65.023154 97.344 -138.9440
65.494339 97.375 -139.3687
65.968938 97.404 -139.7972
66.446976 97.430 -140.2282
66.928478 97.454 -140.6604
67.413469 97.477 -141.0928
67.901975 97.498 -141.5249
68.394021 97.518 -141.9567
68.889632 97.536 -142.3885
69.388835 97.555 -142.8210
69.891655 97.572 -143.2545
70.398118 97.589 -143.6894
70.908252 97.606 -144.1256
71.422083 97.622 -144.5626
71.939636 97.638 -145.0000
72.460941 97.654 -145.4372
72.986023 97.670 -145.8736
73.514909 97.686 -146.3091
74.047629 97.702 -146.7431
74.584208 97.718 -147.1756
75.124676 97.734 -147.6060
75.669061 97.750 -148.0342
76.217390 97.765 -148.4597
76.769692 97.781 -148.8823
77.325997 97.796 -149.3016
77.886333 97.811 -149.7177
78.450730 97.826 -150.1306
79.019216 97.840 -150.5405
79.591822 97.854 -150.9477
80.168577 97.867 -151.3530
80.749512 97.880 -151.7572
81.334656 97.893 -152.1611
81.924040 97.905 -152.5652
82.517696 97.916 -152.9698
83.115653 97.927 -153.3746
83.717943 97.937 -153.7788
84.324598 97.947 -154.1817
84.935649 97.956 -154.5824
85.551128 97.965 -154.9800
86.171066 97.974 -155.3742
86.795497 97.982 -155.7649
87.424453 97.991 -156.1524
88.057967 98.000 -156.5372
88.696071 98.010 -156.9197
89.338800 98.022 -157.3001
89.986185 98.034 -157.6786
90.638262 98.049 -158.0554
91.295065 98.064 -158.4307
91.956626 98.080 -158.8049
92.622982 98.097 -159.1788
93.294166 98.113 -159.5531
93.970214 98.129 -159.9287
94.651161 98.143 -160.3060
95.337042 98.156 -160.6849
96.027894 98.168 -161.0648
96.723752 98.176 -161.4447
97.424652 98.183 -161.8234
98.130631 98.187 -162.1999
98.841726 98.189 -162.5736
99.557974 98.188 -162.9444
100.279412 98.186 -163.3123
101.006078 98.182 -163.6774
101.738010 98.177 -164.0400
102.475245 98.172 -164.4002
103.217823 98.167 -164.7579
103.965782 98.161 -165.1134
104.719161 98.156 -165.4669
105.477999 98.152 -165.8183
106.242336 98.149 -166.1677
107.012212 98.146 -166.5153
107.787666 98.146 -166.8613
108.568740 98.146 -167.2061
109.355474 98.148 -167.5500
110.147909 98.150 -167.8931
110.946086 98.154 -168.2353
111.750047 98.158 -168.5766
112.559834 98.163 -168.9167
113.375489 98.168 -169.2552
114.197055 98.173 -169.5916
115.024574 98.177 -169.9256
115.858089 98.180 -170.2571
116.697645 98.183 -170.5863
117.543284 98.186 -170.9138
118.395051 98.187 -171.2408
119.252990 98.187 -171.5681
120.117147 98.187 -171.8970
120.987565 98.187 -172.2282
121.864291 98.186 -172.5618
122.747370 98.184 -172.8976
123.636848 98.183 -173.2350
124.532771 98.183 -173.5732
125.435187 98.183 -173.9114
126.344142 98.183 -174.2489
127.259684 98.185 -174.5851
128.181860 98.188 -174.9193
129.110718 98.191 -175.2508
130.046308 98.195 -175.5790
130.988677 98.201 -175.9034
131.937875 98.207 -176.2234
132.893951 98.213 -176.5390
133.856956 98.220 -176.8503
134.826938 98.227 -177.1576
135.803950 98.233 -177.4619
136.788041 98.238 -177.7641
137.779264 98.242 -178.0653
138.777669 98.245 -178.3662
139.783309 98.245 -178.6671
140.796237 98.243 -178.9679
141.816504 98.239 -179.2685
142.844165 98.233 -179.5685
143.879273 98.224 -179.8678
144.921881 98.214 179.8337
145.972045 98.203 179.5362
147.029819 98.190 179.2395
148.095257 98.177 178.9438
149.168417 98.164 178.6492
150.249353 98.152 178.3556
151.338121 98.141 178.0632
152.434780 98.131 177.7719
153.539385 98.123 177.4816
154.651995 98.116 177.1923
155.772667 98.111 176.9036
156.901460 98.107 176.6154
158.038432 98.104 176.3273
159.183644 98.101 176.0390
160.337154 98.099 175.7499
161.499023 98.096 175.4597
162.669312 98.093 175.1681
163.848081 98.089 174.8750
165.035392 98.084 174.5806
166.231306 98.079 174.2854
167.435887 98.072 173.9901
168.649196 98.065 173.6952
169.871298 98.058 173.4014
171.102255 98.050 173.1092
172.342133 98.041 172.8186
173.590995 98.032 172.5299
174.848907 98.022 172.2428
176.115934 98.011 171.9572
177.392143 97.999 171.6724
178.677599 97.986 171.3881
179.972371 97.972 171.1039
181.276525 97.957 170.8196
182.590129 97.941 170.5353
183.913252 97.923 170.2515
185.245964 97.904 169.9684
186.588332 97.883 169.6866
187.940428 97.860 169.4062
189.302322 97.836 169.1276
190.674085 97.810 168.8506
192.055788 97.782 168.5748
193.447503 97.753 168.3000
194.849303 97.721 168.0256
196.261262 97.687 167.7516
197.683452 97.651 167.4778
199.115948 97.613 167.2044
200.558824 97.573 166.9318
202.012156 97.531 166.6605
203.476019 97.488 166.3912
204.950490 97.444 166.1248
206.435646 97.401 165.8616
207.931564 97.358 165.6018
209.438322 97.316 165.3449
210.955998 97.277 165.0905
212.484672 97.241 164.8379
214.024424 97.210 164.5865
215.575333 97.182 164.3363
217.137481 97.159 164.0871
218.710948 97.140 163.8388
220.295818 97.126 163.5916
221.892172 97.117 163.3450
223.500094 97.111 163.0990
225.119668 97.109 162.8537
226.750978 97.110 162.6094
228.394109 97.114 162.3665
230.049147 97.120 162.1254
231.716178 97.127 161.8866
233.395289 97.136 161.6500
235.086567 97.146 161.4156
236.790102 97.156 161.1837
238.505980 97.167 160.9540
240.234293 97.178 160.7270
241.975130 97.188 160.5027
243.728581 97.197 160.2816
245.494739 97.206 160.0643
247.273695 97.213 159.8518
249.065542 97.218 159.6458
250.870374 97.222 159.4482
252.688284 97.225 159.2607
254.519367 97.227 159.0850
256.363720 97.228 158.9218
258.221437 97.229 158.7714
260.092616 97.230 158.6337
261.977354 97.231 158.5075
263.875750 97.232 158.3914
265.787903 97.234 158.2831
267.713911 97.237 158.1800
269.653877 97.240 158.0790
271.607900 97.242 157.9769
273.576083 97.244 157.8701
275.558528 97.243 157.7558
277.555338 97.241 157.6322
279.566619 97.235 157.4988
281.592474 97.226 157.3563
283.633009 97.213 157.2059
285.688331 97.196 157.0490
287.758546 97.174 156.8868
289.843763 97.147 156.7203
291.944090 97.116 156.5503
294.059638 97.080 156.3774
296.190515 97.040 156.2024
298.336833 96.997 156.0258
300.498705 96.950 155.8484
302.676243 96.900 155.6709
304.869559 96.849 155.4938
307.078770 96.797 155.3177
309.303989 96.745 155.1429
311.545334 96.694 154.9695
313.802919 96.644 154.7975
316.076865 96.597 154.6266
318.367288 96.551 154.4566
320.674309 96.509 154.2870
322.998047 96.471 154.1176
325.338624 96.437 153.9480
327.696162 96.407 153.7784
330.070783 96.382 153.6091
332.462612 96.362 153.4406
334.871773 96.347 153.2733
337.298392 96.338 153.1075
339.742595 96.333 152.9429
342.204510 96.334 152.7793
344.684265 96.339 152.6160
347.181989 96.348 152.4527
349.697813 96.361 152.2889
352.231868 96.376 152.1248
354.784285 96.392 151.9609
357.355198 96.409 151.7980
359.944741 96.426 151.6372
362.553049 96.442 151.4792
365.180258 96.456 151.3241
367.826505 96.467 151.1723
370.491927 96.476 151.0236
373.176665 96.480 150.8780
375.880856 96.481 150.7350
378.604644 96.477 150.5939
381.348169 96.469 150.4542
384.111575 96.456 150.3151
386.895006 96.438 150.1763
389.698607 96.416 150.0375
392.522524 96.391 149.8984
395.366904 96.363 149.7589
398.231895 96.334 149.6188
401.117648 96.304 149.4783
404.024312 96.274 149.3377
406.952038 96.245 149.1979
409.900981 96.219 149.0594
412.871292 96.195 148.9229
415.863128 96.176 148.7885
418.876643 96.160 148.6562
421.911996 96.149 148.5256
424.969344 96.142 148.3961
428.048847 96.139 148.2672
431.150666 96.140 148.1385
434.274961 96.143 148.0097
437.421897 96.147 147.8807
440.591636 96.152 147.7515
443.784345 96.157 147.6223
447.000189 96.161 147.4935
450.239337 96.163 147.3654
453.501956 96.162 147.2385
456.788219 96.159 147.1130
460.098294 96.153 146.9890
463.432356 96.144 146.8663
466.790578 96.133 146.7448
470.173135 96.120 146.6238
473.580203 96.105 146.5034
477.011961 96.088 146.3832
480.468586 96.071 146.2632
483.950259 96.053 146.1436
487.457163 96.034 146.0244
490.989478 96.016 145.9062
494.547390 95.998 145.7895
498.131084 95.981 145.6744
501.740748 95.966 145.5614
505.376568 95.954 145.4505
509.038735 95.945 145.3419
512.727439 95.941 145.2357
516.442874 95.942 145.1318
520.185232 95.949 145.0298
523.954708 95.963 144.9296
527.751500 95.983 144.8305
531.575805 96.009 144.7323
535.427822 96.040 144.6346
539.307753 96.077 144.5370
543.215800 96.117 144.4396
547.152165 96.158 144.3420
551.117055 96.201 144.2442
555.110677 96.242 144.1461
559.133237 96.281 144.0477
563.184947 96.316 143.9492
567.266018 96.346 143.8509
571.376661 96.369 143.7529
575.517092 96.385 143.6555
579.687526 96.392 143.5588
583.888181 96.391 143.4630
588.119275 96.380 143.3679
592.381030 96.359 143.2737
596.673667 96.328 143.1801
600.997410 96.288 143.0873
605.352485 96.238 142.9952
609.739119 96.179 142.9040
614.157540 96.113 142.8136
618.607979 96.041 142.7241
623.090667 95.964 142.6356
627.605839 95.885 142.5479
632.153730 95.805 142.4611
636.734576 95.726 142.3752
641.348617 95.649 142.2900
645.996094 95.577 142.2054
650.677248 95.511 142.1212
655.392323 95.452 142.0370
660.141566 95.400 141.9526
664.925224 95.357 141.8677
669.743546 95.322 141.7819
674.596784 95.297 141.6946
679.485191 95.281 141.6055
684.409020 95.274 141.5143
689.368530 95.276 141.4205
694.363979 95.286 141.3242
699.395626 95.303 141.2255
704.463736 95.327 141.1247
709.568570 95.355 141.0220
714.710396 95.388 140.9178
719.889483 95.424 140.8120
725.106099 95.460 140.7044
730.360516 95.497 140.5945
735.653010 95.531 140.4811
740.983855 95.563 140.3630
746.353329 95.592 140.2386
751.761713 95.617 140.1064
757.209288 95.637 139.9651
762.696339 95.652 139.8141
768.223151 95.663 139.6531
773.790013 95.669 139.4828
779.397214 95.669 139.3051
785.045047 95.663 139.1225
790.733808 95.651 138.9394
796.463791 95.631 138.7613
802.235296 95.603 138.5952
808.048623 95.565 138.4497
813.904077 95.517 138.3342
819.801961 95.459 138.2581
825.742584 95.392 138.2299
831.726255 95.318 138.2545
837.753287 95.240 138.3315
843.823992 95.161 138.4534
849.938689 95.085 138.6059
856.097695 95.015 138.7708
862.301332 94.954 138.9289
868.549922 94.903 139.0646
874.843793 94.864 139.1669
881.183272 94.837 139.2303
887.568689 94.823 139.2536
894.000378 94.820 139.2391
900.478673 94.829 139.1909
907.003913 94.848 139.1139
913.576437 94.876 139.0132
920.196588 94.912 138.8932
926.864712 94.954 138.7576
933.581156 95.001 138.6092
940.346270 95.051 138.4500
947.160407 95.102 138.2820
954.023921 95.152 138.1070
960.937172 95.199 137.9266
967.900519 95.244 137.7427
974.914325 95.284 137.5573
981.978956 95.320 137.3725
989.094780 95.351 137.1910
996.262169 95.377 137.0157
1003.481495 95.399 136.8494
1010.753136 95.419 136.6948
1018.077470 95.437 136.5538
1025.454879 95.456 136.4276
1032.885748 95.477 136.3162
1040.370463 95.502 136.2186
1047.909417 95.531 136.1323
1055.503000 95.567 136.0547
1063.151610 95.608 135.9827
1070.855645 95.656 135.9142
1078.615506 95.709 135.8474
1086.431599 95.766 135.7817
1094.304330 95.826 135.7167
1102.234110 95.888 135.6523
1110.221353 95.950 135.5876
1118.266475 96.011 135.5215
1126.369895 96.070 135.4525
1134.532035 96.124 135.3791
1142.753322 96.174 135.3000
1151.034184 96.220 135.2147
1159.375052 96.260 135.1230
1167.776361 96.296 135.0258
1176.238550 96.329 134.9242
1184.762060 96.360 134.8190
1193.347334 96.391 134.7110
1201.994821 96.423 134.5998
1210.704971 96.458 134.4842
1219.478238 96.497 134.3622
1228.315080 96.542 134.2312
1237.215957 96.591 134.0891
1246.181334 96.646 133.9344
1255.211678 96.705 133.7671
1264.307459 96.768 133.5881
1273.469152 96.833 133.4000
1282.697235 96.901 133.2060
1291.992188 96.970 133.0099
1301.354495 97.039 132.8154
1310.784647 97.107 132.6255
1320.283132 97.174 132.4423
1329.850448 97.240 132.2670
1339.487093 97.304 132.0996
1349.193569 97.366 131.9395
1358.970381 97.424 131.7855
1368.818041 97.480 131.6357
1378.737061 97.532 131.4886
1388.727958 97.581 131.3426
1398.791253 97.626 131.1962
1408.927471 97.667 131.0481
1419.137140 97.704 130.8973
1429.420793 97.738 130.7428
1439.778965 97.768 130.5844
1450.212197 97.795 130.4222
1460.721033 97.818 130.2571
1471.306019 97.837 130.0904
1481.967709 97.853 129.9235
1492.706658 97.865 129.7576
1503.523426 97.873 129.5936
1514.418576 97.877 129.4326
1525.392678 97.877 129.2754
1536.446302 97.872 129.1234
1547.580025 97.863 128.9778
1558.794428 97.849 128.8401
1570.090095 97.831 128.7115
1581.467615 97.809 128.5928
1592.927581 97.785 128.4846
1604.470591 97.759 128.3871
1616.097246 97.731 128.2998
1627.808153 97.703 128.2219
1639.603922 97.675 128.1525
1651.485168 97.647 128.0904
1663.452510 97.620 128.0350
1675.506573 97.592 127.9859
1687.647984 97.566 127.9431
1699.877377 97.539 127.9067
1712.195390 97.512 127.8763
1724.602663 97.486 127.8515
1737.099845 97.461 127.8314
1749.687587 97.436 127.8157
1762.366544 97.413 127.8044
1775.137379 97.391 127.7980
1788.000756 97.371 127.7974
1800.957346 97.354 127.8035
1814.007826 97.338 127.8168
1827.152874 97.326 127.8378
1840.393177 97.315 127.8663
1853.729425 97.306 127.9021
1867.162312 97.298 127.9444
1880.692540 97.290 127.9929
1894.320813 97.281 128.0475
1908.047843 97.271 128.1092
1921.874344 97.259 128.1787
1935.801038 97.244 128.2571
1949.828650 97.227 128.3445
1963.957912 97.209 128.4402
1978.189561 97.189 128.5428
1992.524338 97.168 128.6504
2006.962991 97.148 128.7610
2021.506272 97.127 128.8727
2036.154940 97.108 128.9843
2050.909758 97.091 129.0952
2065.771495 97.076 129.2061
2080.740927 97.064 129.3182
2095.818833 97.055 129.4334
2111.006001 97.052 129.5532
2126.303220 97.053 129.6787
2141.711290 97.060 129.8105
2157.231013 97.075 129.9482
2172.863198 97.097 130.0905
2188.608660 97.127 130.2354
2204.468221 97.165 130.3804
2220.442706 97.212 130.5232
2236.532950 97.269 130.6616
2252.739789 97.334 130.7939
2269.064070 97.408 130.9190
2285.506644 97.490 131.0361
2302.068367 97.580 131.1449
2318.750104 97.678 131.2448
2335.552723 97.783 131.3349
2352.477101 97.894 131.4142
2369.524119 98.010 131.4819
2386.694668 98.130 131.5375
2403.989641 98.252 131.5811
2421.409941 98.376 131.6136
2438.956476 98.500 131.6356
2456.630160 98.623 131.6477
2474.431915 98.745 131.6503
2492.362668 98.864 131.6435
2510.423356 98.980 131.6271
2528.614918 99.091 131.6012
2546.938304 99.196 131.5660
2565.394469 99.295 131.5226
2583.984375 99.387 131.4718
2602.708991 99.472 131.4150
2621.569293 99.549 131.3529
2640.566265 99.618 131.2863
2659.700897 99.679 131.2160
2678.974186 99.732 131.1428
2698.387137 99.776 131.0676
2717.940763 99.812 130.9917
2737.636082 99.840 130.9168
2757.474121 99.860 130.8452
2777.455915 99.872 130.7793
2797.582506 99.876 130.7217
2817.854942 99.874 130.6748
2838.274281 99.865 130.6404
2858.841586 99.851 130.6198
2879.557931 99.833 130.6141
2900.424394 99.810 130.6239
2921.442065 99.784 130.6490
2942.612039 99.755 130.6884
2963.935418 99.726 130.7399
2985.413316 99.696 130.7997
3007.046852 99.666 130.8629
3028.837153 99.638 130.9232
3050.785356 99.611 130.9745
3072.892604 99.585 131.0112
3095.160050 99.560 131.0287
3117.588856 99.537 131.0244
3140.180190 99.513 130.9971
3162.935230 99.489 130.9473
3185.855163 99.464 130.8767
3208.941182 99.437 130.7875
3232.194493 99.409 130.6826
3255.616307 99.380 130.5655
3279.207844 99.348 130.4399
3302.970336 99.315 130.3101
3326.905021 99.280 130.1802
3351.013146 99.244 130.0550
3375.295969 99.208 129.9387
3399.754755 99.171 129.8354
3424.390779 99.135 129.7490
3449.205326 99.100 129.6832
3474.199690 99.066 129.6416
3499.375173 99.034 129.6276
3524.733088 99.005 129.6438
3550.274757 98.979 129.6923
3576.001511 98.957 129.7747
3601.914692 98.938 129.8920
3628.015651 98.924 130.0448
3654.305748 98.915 130.2331
3680.786354 98.911 130.4567
3707.458849 98.911 130.7147
3734.324624 98.918 131.0065
3761.385080 98.930 131.3312
3788.641627 98.948 131.6878
3816.095686 98.973 132.0750
3843.748688 99.005 132.4915
3871.602076 99.043 132.9356
3899.657300 99.089 133.4052
3927.915825 99.143 133.8977
3956.379122 99.205 134.4097
3985.048676 99.274 134.9374
4013.925981 99.351 135.4763
4043.012544 99.437 136.0214
4072.309879 99.529 136.5671
4101.819515 99.630 137.1071
4131.542990 99.737 137.6348
4161.481854 99.852 138.1432
4191.637667 99.973 138.6251
4222.012001 100.100 139.0734
4252.606441 100.232 139.4816
4283.422580 100.369 139.8434
4314.462026 100.510 140.1536
4345.726396 100.654 140.4077
4377.217321 100.801 140.6023
4408.936442 100.949 140.7355
4440.885413 101.098 140.8065
4473.065899 101.247 140.8157
4505.479579 101.395 140.7645
4538.128141 101.542 140.6549
4571.013288 101.685 140.4901
4604.136735 101.825 140.2740
4637.500207 101.962 140.0107
4671.105446 102.094 139.7045
4704.954201 102.221 139.3597
4739.048239 102.342 138.9800
4773.389336 102.459 138.5688
4807.979283 102.570 138.1282
4842.819883 102.675 137.6593
4877.912952 102.774 137.1623
4913.260320 102.868 136.6359
4948.863830 102.955 136.0784
4984.725337 103.036 135.4874
5020.846712 103.109 134.8600
5057.229836 103.174 134.1932
5093.876609 103.231 133.4843
5130.788938 103.277 132.7311
5167.968750 103.310 131.9333
5205.417982 103.330 131.0923
5243.138586 103.333 130.2121
5281.132530 103.318 129.2990
5319.401793 103.282 128.3619
5357.948371 103.224 127.4127
5396.774274 103.142 126.4656
5435.881525 103.034 125.5372
5475.272163 102.900 124.6459
5514.948243 102.739 123.8114
5554.911831 102.551 123.0541
5595.165012 102.336 122.3950
5635.709884 102.097 121.8550
5676.548561 101.835 121.4549
5717.683172 101.552 121.2146
5759.115861 101.252 121.1526
5800.848789 100.937 121.2850
5842.884130 100.612 121.6244
5885.224077 100.283 122.1788
5927.870837 99.953 122.9511
5970.826633 99.627 123.9376
6014.093704 99.311 125.1286
6057.674306 99.009 126.5077
6101.570711 98.724 128.0535
6145.785208 98.460 129.7406
6190.320101 98.217 131.5416
6235.177712 97.998 133.4292
6280.360380 97.801 135.3787
6325.870460 97.625 137.3694
6371.710325 97.470 139.3857
6417.882365 97.335 141.4171
6464.388986 97.218 143.4582
6511.232613 97.119 145.5065
6558.415689 97.039 147.5620
6605.940673 96.979 149.6243
6653.810042 96.941 151.6915
6702.026292 96.928 153.7578
6750.591937 96.942 155.8116
6799.509509 96.986 157.8354
6848.781558 97.062 159.8052
6898.410653 97.172 161.6917
6948.399380 97.314 163.4622
6998.750346 97.486 165.0829
7049.466176 97.685 166.5211
7100.549514 97.906 167.7472
7152.003023 98.143 168.7365
7203.829385 98.388 169.4709
7256.031302 98.635 169.9390
7308.611496 98.875 170.1364
7361.572708 99.103 170.0653
7414.917698 99.310 169.7341
7468.649249 99.491 169.1565
7522.770160 99.640 168.3506
7577.283253 99.753 167.3383
7632.191371 99.824 166.1448
7687.497376 99.851 164.7982
7743.204151 99.829 163.3296
7799.314600 99.756 161.7734
7855.831649 99.630 160.1684
7912.758244 99.450 158.5590
7970.097352 99.212 156.9971
8027.851962 98.918 155.5457
8086.025087 98.567 154.2836
8144.619758 98.160 153.3122
8203.639030 97.702 152.7671
8263.085980 97.200 152.8352
8322.963708 96.664 153.7812
8383.275334 96.114 155.9865
8444.024002 95.576 159.9939
8505.212881 95.085 166.5125
8566.845160 94.684 176.2176
8628.924051 94.416 -170.9486
8691.452792 94.312 -156.6800
8754.434642 94.383 -143.6896
8817.872884 94.615 -133.6357
8881.770826 94.977 -126.5558
8946.131799 95.429 -121.7793
9010.959157 95.937 -118.6157
9076.256282 96.474 -116.5476
9142.026576 97.020 -115.2242
9208.273470 97.565 -114.4162
9275.000415 98.102 -113.9775
9342.210891 98.628 -113.8176
9409.908403 99.142 -113.8843
9478.096478 99.644 -114.1507
9546.778672 100.132 -114.6072
9615.958566 100.605 -115.2545
9685.639765 101.063 -116.0989
9755.825904 101.503 -117.1487
9826.520640 101.922 -118.4116
9897.727659 102.317 -119.8926
9969.450674 102.684 -121.5927
10041.693423 103.020 -123.5078
10114.459673 103.321 -125.6286
10187.753217 103.583 -127.9400
10261.577877 103.804 -130.4215
10335.937500 103.979 -133.0474
10410.835964 104.108 -135.7878
10486.277173 104.188 -138.6100
10562.265060 104.220 -141.4798
10638.803587 104.203 -144.3632
10715.896743 104.140 -147.2285
10793.548548 104.032 -150.0474
10871.763050 103.882 -152.7966
10950.544327 103.693 -155.4585
11029.896485 103.470 -158.0216
11109.823662 103.216 -160.4800
11190.330024 102.934 -162.8336
11271.419768 102.627 -165.0869
11353.097122 102.300 -167.2481
11435.366344 101.953 -169.3279
11518.231722 101.590 -171.3384
11601.697577 101.211 -173.2920
11685.768261 100.817 -175.1995
11770.448155 100.408 -177.0691
11855.741674 99.985 -178.9055
11941.653265 99.545 179.2903
12028.187408 99.088 177.5207
12115.348612 98.615 175.7903
12203.141422 98.124 174.1050
12291.570415 97.615 172.4717
12380.640201 97.090 170.8973
12470.355424 96.547 169.3884
12560.720760 95.991 167.9490
12651.740920 95.421 166.5790
12743.420650 94.842 165.2706
12835.764729 94.259 164.0056
12928.777972 93.675 162.7535
13022.465227 93.096 161.4725
13116.831378 92.528 160.1119
13211.881345 91.973 158.6172
13307.620084 91.434 156.9345
13404.052584 90.911 155.0144
13501.183875 90.404 152.8136
13599.019019 89.912 150.2940
13697.563116 89.432 147.4207
13796.821305 88.965 144.1583
13896.798760 88.509 140.4684
13997.500692 88.066 136.3076
14098.932352 87.635 131.6259
14201.099028 87.219 126.3679
14304.006046 86.818 120.4746
14407.658770 86.431 113.8873
14512.062604 86.056 106.5547
14617.222992 85.689 98.4422
14723.145416 85.324 89.5454
14829.835397 84.955 79.9065
14937.298497 84.574 69.6284
15045.540320 84.173 58.8827
15154.566507 83.749 47.9005
15264.382743 83.297 36.9445
15374.994752 82.815 26.2678
15486.408302 82.306 16.0754
15598.629201 81.771 6.5024
15711.663298 81.214 -2.3864
15825.516487 80.639 -10.5800
15940.194703 80.047 -18.1004
16055.703925 79.440 -24.9829
16172.050174 78.818 -31.2639
16289.239516 78.180 -36.9785
16407.278061 77.527 -42.1639
16526.171961 76.865 -46.8663
16645.927415 76.198 -51.1479
16766.550667 75.539 -55.0916
16888.048005 74.898 -58.7994
17010.425762 74.286 -62.3873
17133.690320 73.714 -65.9739
17257.848103 73.185 -69.6678
17382.905584 72.698 -73.5557
17508.869284 72.245 -77.6948
17635.745768 71.816 -82.1124
17763.541652 71.398 -86.8109
17892.263597 70.982 -91.7795
18021.918315 70.565 -97.0081
18152.512564 70.150 -102.5021
18284.053153 69.747 -108.2966
18416.546939 69.370 -114.4651
18550.000830 69.033 -121.1215
18684.421783 68.748 -128.4131
18819.816805 68.518 -136.5022
18956.192956 68.338 -145.5295
19093.557344 68.200 -155.5472
19231.917131 68.088 -166.4094
19371.279531 67.994 -177.6420
19511.651807 67.911 171.6035
19653.041280 67.840 162.3954
19795.455318 67.787 155.7134
19938.901348 67.758 152.2192
