* Measurement data measured by REW V5.31.3
* Source: EXCL: Headset (USB-C to 3.5mm Headphone Jack Adapter), MICROPHONE (Master Volume), 0, volume: 0.260
* Format: 256k Log Swept Sine, 1 sweep at -12.0 dBFS with no timing reference
* Dated: Mar 17, 2025 12:38:58 PM
* REW Settings:
*  C-weighting compensation: Off
*  Target level: 75.0 dB
* Note: ; 
* Measurement: HD650 (Geekria) L9
* Smoothing: 1/6 octave
* Frequency Step: 96 ppo
* Start Frequency: 20.0 Hz
*
* Freq(Hz) SPL(dB) Phase(degrees)
20.187378 91.333 -64.9788
20.333664 91.333 -65.1163
20.481010 91.334 -65.2972
20.629424 91.337 -65.5130
20.778913 91.345 -65.7564
20.929486 91.359 -66.0221
21.081150 91.379 -66.3080
21.233912 91.407 -66.6147
21.387782 91.442 -66.9451
21.542767 91.485 -67.3031
21.698874 91.533 -67.6922
21.856113 91.585 -68.1144
22.014492 91.639 -68.5697
22.174018 91.693 -69.0552
22.334700 91.745 -69.5656
22.496546 91.794 -70.0934
22.659566 91.840 -70.6304
22.823766 91.881 -71.1685
22.989157 91.919 -71.7008
23.155745 91.954 -72.2227
23.323542 91.988 -72.7327
23.492554 92.023 -73.2328
23.662790 92.059 -73.7278
23.834261 92.097 -74.2247
24.006973 92.138 -74.7316
24.180938 92.181 -75.2560
24.356163 92.225 -75.8037
24.532658 92.270 -76.3773
24.710431 92.313 -76.9762
24.889493 92.355 -77.5959
25.069853 92.393 -78.2295
25.251519 92.429 -78.8680
25.434502 92.461 -79.5020
25.618811 92.490 -80.1230
25.804456 92.519 -80.7247
25.991445 92.549 -81.3037
26.179790 92.580 -81.8600
26.369500 92.615 -82.3964
26.560584 92.655 -82.9184
26.753053 92.701 -83.4321
26.946917 92.751 -83.9439
27.142185 92.806 -84.4588
27.338869 92.865 -84.9795
27.536977 92.926 -85.5067
27.736522 92.989 -86.0386
27.937512 93.051 -86.5719
28.139959 93.113 -87.1029
28.343872 93.173 -87.6283
28.549264 93.231 -88.1457
28.756143 93.286 -88.6549
28.964522 93.339 -89.1571
29.174411 93.388 -89.6551
29.385821 93.435 -90.1529
29.598763 93.479 -90.6543
29.813248 93.520 -91.1627
30.029287 93.560 -91.6805
30.246891 93.599 -92.2087
30.466073 93.637 -92.7469
30.686842 93.678 -93.2939
30.909212 93.721 -93.8477
31.133193 93.767 -94.4059
31.358797 93.819 -94.9663
31.586035 93.876 -95.5265
31.814921 93.938 -96.0844
32.045465 94.004 -96.6375
32.277680 94.074 -97.1831
32.511577 94.146 -97.7186
32.747169 94.219 -98.2410
32.984469 94.293 -98.7482
33.223488 94.365 -99.2389
33.464239 94.437 -99.7138
33.706735 94.507 -100.1754
33.950987 94.577 -100.6282
34.197010 94.645 -101.0785
34.444816 94.713 -101.5332
34.694417 94.779 -101.9985
34.945827 94.844 -102.4791
35.199059 94.906 -102.9766
35.454126 94.964 -103.4898
35.711041 95.019 -104.0146
35.969818 95.069 -104.5448
36.230470 95.113 -105.0738
36.493011 95.152 -105.5955
36.757455 95.186 -106.1056
37.023814 95.216 -106.6025
37.292104 95.241 -107.0868
37.562338 95.262 -107.5612
37.834530 95.280 -108.0294
38.108695 95.295 -108.4961
38.384846 95.308 -108.9655
38.662999 95.320 -109.4414
38.943167 95.330 -109.9270
39.225365 95.340 -110.4245
39.509608 95.349 -110.9347
39.795911 95.356 -111.4573
40.084289 95.363 -111.9900
40.374756 95.368 -112.5291
40.667328 95.371 -113.0695
40.962020 95.373 -113.6055
41.258848 95.372 -114.1318
41.557827 95.369 -114.6444
41.858972 95.365 -115.1412
42.162299 95.361 -115.6227
42.467824 95.356 -116.0914
42.775564 95.352 -116.5512
43.085533 95.349 -117.0066
43.397749 95.347 -117.4613
43.712227 95.346 -117.9180
44.028983 95.347 -118.3776
44.348036 95.351 -118.8397
44.669400 95.358 -119.3027
44.993093 95.368 -119.7645
45.319131 95.383 -120.2232
45.647532 95.403 -120.6767
45.978313 95.428 -121.1237
46.311491 95.459 -121.5631
46.647083 95.494 -121.9944
46.985107 95.534 -122.4178
47.325581 95.579 -122.8341
47.668521 95.627 -123.2453
48.013947 95.679 -123.6538
48.361876 95.732 -124.0626
48.712326 95.787 -124.4740
49.065315 95.842 -124.8900
49.420863 95.896 -125.3113
49.778987 95.950 -125.7379
50.139706 96.002 -126.1687
50.503039 96.051 -126.6023
50.869005 96.098 -127.0371
51.237623 96.142 -127.4710
51.608912 96.183 -127.9019
51.982891 96.220 -128.3278
52.359580 96.254 -128.7469
52.739000 96.284 -129.1587
53.121168 96.311 -129.5639
53.506106 96.335 -129.9648
53.893833 96.356 -130.3650
54.284370 96.376 -130.7689
54.677737 96.394 -131.1809
55.073955 96.411 -131.6055
55.473043 96.425 -132.0464
55.875024 96.437 -132.5074
56.279917 96.445 -132.9920
56.687745 96.450 -133.5034
57.098527 96.452 -134.0440
57.512287 96.453 -134.6140
57.929045 96.453 -135.2090
58.348822 96.455 -135.8184
58.771642 96.459 -136.4246
59.197525 96.470 -137.0051
59.626495 96.487 -137.5374
60.058573 96.512 -138.0050
60.493782 96.547 -138.4017
60.932145 96.589 -138.7332
61.373685 96.638 -139.0143
61.818424 96.691 -139.2645
62.266386 96.745 -139.5027
62.717593 96.797 -139.7449
63.172071 96.847 -140.0020
63.629842 96.893 -140.2806
64.090930 96.936 -140.5832
64.555359 96.974 -140.9096
65.023154 97.009 -141.2578
65.494339 97.039 -141.6255
65.968938 97.066 -142.0102
66.446976 97.089 -142.4094
66.928478 97.110 -142.8203
67.413469 97.127 -143.2397
67.901975 97.143 -143.6641
68.394021 97.156 -144.0905
68.889632 97.169 -144.5165
69.388835 97.182 -144.9407
69.891655 97.193 -145.3625
70.398118 97.204 -145.7816
70.908252 97.215 -146.1979
71.422083 97.225 -146.6109
71.939636 97.235 -147.0200
72.460941 97.245 -147.4245
72.986023 97.255 -147.8235
73.514909 97.265 -148.2170
74.047629 97.276 -148.6051
74.584208 97.288 -148.9890
75.124676 97.301 -149.3700
75.669061 97.315 -149.7503
76.217390 97.330 -150.1314
76.769692 97.346 -150.5150
77.325997 97.363 -150.9020
77.886333 97.379 -151.2926
78.450730 97.395 -151.6867
79.019216 97.411 -152.0839
79.591822 97.426 -152.4833
80.168577 97.440 -152.8842
80.749512 97.452 -153.2858
81.334656 97.464 -153.6872
81.924040 97.475 -154.0879
82.517696 97.485 -154.4876
83.115653 97.494 -154.8861
83.717943 97.502 -155.2836
84.324598 97.509 -155.6803
84.935649 97.515 -156.0764
85.551128 97.522 -156.4718
86.171066 97.528 -156.8662
86.795497 97.534 -157.2594
87.424453 97.541 -157.6512
88.057967 97.549 -158.0415
88.696071 97.559 -158.4305
89.338800 97.569 -158.8183
89.986185 97.581 -159.2047
90.638262 97.595 -159.5895
91.295065 97.610 -159.9722
91.956626 97.625 -160.3523
92.622982 97.642 -160.7295
93.294166 97.659 -161.1034
93.970214 97.676 -161.4738
94.651161 97.692 -161.8410
95.337042 97.707 -162.2052
96.027894 97.720 -162.5670
96.723752 97.731 -162.9273
97.424652 97.738 -163.2873
98.130631 97.743 -163.6479
98.841726 97.745 -164.0102
99.557974 97.745 -164.3748
100.279412 97.742 -164.7417
101.006078 97.739 -165.1103
101.738010 97.735 -165.4795
102.475245 97.730 -165.8478
103.217823 97.726 -166.2139
103.965782 97.722 -166.5769
104.719161 97.720 -166.9366
105.477999 97.718 -167.2930
106.242336 97.717 -167.6465
107.012212 97.718 -167.9977
107.787666 97.719 -168.3470
108.568740 97.722 -168.6950
109.355474 97.726 -169.0423
110.147909 97.732 -169.3895
110.946086 97.738 -169.7377
111.750047 97.745 -170.0877
112.559834 97.752 -170.4402
113.375489 97.759 -170.7957
114.197055 97.765 -171.1541
115.024574 97.771 -171.5150
115.858089 97.775 -171.8772
116.697645 97.778 -172.2392
117.543284 97.780 -172.5993
118.395051 97.781 -172.9555
119.252990 97.780 -173.3060
120.117147 97.778 -173.6494
120.987565 97.775 -173.9857
121.864291 97.770 -174.3158
122.747370 97.766 -174.6418
123.636848 97.761 -174.9654
124.532771 97.756 -175.2882
125.435187 97.751 -175.6114
126.344142 97.747 -175.9354
127.259684 97.745 -176.2600
128.181860 97.743 -176.5851
129.110718 97.743 -176.9099
130.046308 97.743 -177.2339
130.988677 97.745 -177.5566
131.937875 97.748 -177.8777
132.893951 97.751 -178.1970
133.856956 97.755 -178.5143
134.826938 97.760 -178.8295
135.803950 97.764 -179.1426
136.788041 97.768 -179.4537
137.779264 97.770 -179.7633
138.777669 97.771 179.9280
139.783309 97.770 179.6196
140.796237 97.767 179.3107
141.816504 97.761 179.0010
142.844165 97.753 178.6900
143.879273 97.742 178.3777
144.921881 97.730 178.0643
145.972045 97.716 177.7502
147.029819 97.702 177.4362
148.095257 97.687 177.1226
149.168417 97.673 176.8100
150.249353 97.659 176.4987
151.338121 97.646 176.1892
152.434780 97.635 175.8815
153.539385 97.625 175.5759
154.651995 97.616 175.2723
155.772667 97.609 174.9704
156.901460 97.602 174.6699
158.038432 97.597 174.3705
159.183644 97.592 174.0717
160.337154 97.587 173.7736
161.499023 97.583 173.4760
162.669312 97.578 173.1789
163.848081 97.573 172.8825
165.035392 97.567 172.5870
166.231306 97.560 172.2928
167.435887 97.553 172.0004
168.649196 97.545 171.7103
169.871298 97.537 171.4227
171.102255 97.528 171.1376
172.342133 97.519 170.8548
173.590995 97.509 170.5738
174.848907 97.499 170.2942
176.115934 97.489 170.0155
177.392143 97.477 169.7376
178.677599 97.464 169.4602
179.972371 97.450 169.1833
181.276525 97.433 168.9070
182.590129 97.415 168.6314
183.913252 97.394 168.3563
185.245964 97.372 168.0815
186.588332 97.348 167.8069
187.940428 97.322 167.5323
189.302322 97.294 167.2580
190.674085 97.265 166.9844
192.055788 97.234 166.7122
193.447503 97.201 166.4423
194.849303 97.166 166.1751
196.261262 97.130 165.9107
197.683452 97.091 165.6485
199.115948 97.051 165.3872
200.558824 97.009 165.1252
202.012156 96.966 164.8614
203.476019 96.921 164.5950
204.950490 96.877 164.3264
206.435646 96.832 164.0564
207.931564 96.789 163.7864
209.438322 96.747 163.5176
210.955998 96.707 163.2514
212.484672 96.670 162.9886
214.024424 96.637 162.7297
215.575333 96.608 162.4749
217.137481 96.584 162.2244
218.710948 96.564 161.9780
220.295818 96.549 161.7356
221.892172 96.538 161.4967
223.500094 96.531 161.2607
225.119668 96.528 161.0264
226.750978 96.528 160.7927
228.394109 96.531 160.5585
230.049147 96.535 160.3230
231.716178 96.542 160.0861
233.395289 96.550 159.8481
235.086567 96.559 159.6099
236.790102 96.568 159.3726
238.505980 96.578 159.1375
240.234293 96.588 158.9052
241.975130 96.598 158.6768
243.728581 96.608 158.4530
245.494739 96.616 158.2346
247.273695 96.624 158.0225
249.065542 96.631 157.8177
250.870374 96.637 157.6212
252.688284 96.641 157.4337
254.519367 96.646 157.2563
256.363720 96.649 157.0891
258.221437 96.653 156.9319
260.092616 96.656 156.7843
261.977354 96.659 156.6450
263.875750 96.662 156.5127
265.787903 96.665 156.3856
267.713911 96.667 156.2616
269.653877 96.668 156.1381
271.607900 96.667 156.0126
273.576083 96.664 155.8833
275.558528 96.658 155.7487
277.555338 96.650 155.6082
279.566619 96.640 155.4621
281.592474 96.626 155.3110
283.633009 96.608 155.1556
285.688331 96.586 154.9969
287.758546 96.560 154.8354
289.843763 96.529 154.6714
291.944090 96.494 154.5049
294.059638 96.455 154.3354
296.190515 96.412 154.1630
298.336833 96.365 153.9877
300.498705 96.315 153.8102
302.676243 96.263 153.6312
304.869559 96.210 153.4517
307.078770 96.156 153.2723
309.303989 96.101 153.0939
311.545334 96.048 152.9167
313.802919 95.995 152.7410
316.076865 95.945 152.5667
318.367288 95.897 152.3939
320.674309 95.853 152.2226
322.998047 95.812 152.0529
325.338624 95.776 151.8848
327.696162 95.744 151.7188
330.070783 95.716 151.5547
332.462612 95.694 151.3929
334.871773 95.677 151.2332
337.298392 95.665 151.0757
339.742595 95.658 150.9202
342.204510 95.655 150.7667
344.684265 95.657 150.6151
347.181989 95.663 150.4655
349.697813 95.673 150.3176
352.231868 95.686 150.1714
354.784285 95.701 150.0263
357.355198 95.718 149.8817
359.944741 95.735 149.7369
362.553049 95.752 149.5919
365.180258 95.768 149.4464
367.826505 95.781 149.3010
370.491927 95.791 149.1559
373.176665 95.796 149.0115
375.880856 95.797 148.8678
378.604644 95.793 148.7248
381.348169 95.783 148.5822
384.111575 95.768 148.4400
386.895006 95.749 148.2982
389.698607 95.724 148.1569
392.522524 95.697 148.0164
395.366904 95.666 147.8771
398.231895 95.634 147.7392
401.117648 95.601 147.6027
404.024312 95.569 147.4676
406.952038 95.539 147.3338
409.900981 95.511 147.2010
412.871292 95.486 147.0690
415.863128 95.466 146.9374
418.876643 95.450 146.8061
421.911996 95.439 146.6748
424.969344 95.432 146.5435
428.048847 95.430 146.4122
431.150666 95.431 146.2809
434.274961 95.435 146.1496
437.421897 95.440 146.0184
440.591636 95.445 145.8875
443.784345 95.450 145.7566
447.000189 95.454 145.6257
450.239337 95.456 145.4948
453.501956 95.456 145.3636
456.788219 95.453 145.2325
460.098294 95.447 145.1016
463.432356 95.438 144.9710
466.790578 95.427 144.8412
470.173135 95.414 144.7121
473.580203 95.399 144.5837
477.011961 95.383 144.4560
480.468586 95.366 144.3289
483.950259 95.348 144.2025
487.457163 95.330 144.0767
490.989478 95.312 143.9518
494.547390 95.294 143.8280
498.131084 95.276 143.7054
501.740748 95.261 143.5843
505.376568 95.247 143.4650
509.038735 95.238 143.3480
512.727439 95.232 143.2338
516.442874 95.231 143.1227
520.185232 95.237 143.0149
523.954708 95.249 142.9101
527.751500 95.267 142.8079
531.575805 95.292 142.7079
535.427822 95.323 142.6096
539.307753 95.359 142.5123
543.215800 95.398 142.4156
547.152165 95.439 142.3190
551.117055 95.481 142.2217
555.110677 95.523 142.1235
559.133237 95.561 142.0244
563.184947 95.596 141.9244
567.266018 95.625 141.8241
571.376661 95.648 141.7239
575.517092 95.664 141.6243
579.687526 95.672 141.5259
583.888181 95.670 141.4286
588.119275 95.660 141.3323
592.381030 95.639 141.2369
596.673667 95.609 141.1420
600.997410 95.569 141.0472
605.352485 95.519 140.9523
609.739119 95.460 140.8572
614.157540 95.394 140.7621
618.607979 95.321 140.6672
623.090667 95.244 140.5729
627.605839 95.163 140.4796
632.153730 95.082 140.3875
636.734576 95.002 140.2964
641.348617 94.925 140.2065
645.996094 94.852 140.1172
650.677248 94.785 140.0281
655.392323 94.725 139.9385
660.141566 94.673 139.8478
664.925224 94.630 139.7554
669.743546 94.596 139.6608
674.596784 94.572 139.5637
679.485191 94.556 139.4637
684.409020 94.550 139.3611
689.368530 94.553 139.2559
694.363979 94.563 139.1483
699.395626 94.582 139.0386
704.463736 94.606 138.9268
709.568570 94.637 138.8126
714.710396 94.671 138.6954
719.889483 94.709 138.5743
725.106099 94.747 138.4484
730.360516 94.785 138.3164
735.653010 94.822 138.1771
740.983855 94.855 138.0293
746.353329 94.885 137.8720
751.761713 94.911 137.7043
757.209288 94.931 137.5258
762.696339 94.946 137.3361
768.223151 94.956 137.1359
773.790013 94.960 136.9266
779.397214 94.957 136.7109
785.045047 94.948 136.4932
790.733808 94.932 136.2795
796.463791 94.907 136.0775
802.235296 94.873 135.8965
808.048623 94.829 135.7464
813.904077 94.776 135.6375
819.801961 94.715 135.5783
825.742584 94.646 135.5737
831.726255 94.573 135.6229
837.753287 94.498 135.7180
843.823992 94.425 135.8442
849.938689 94.357 135.9826
856.097695 94.295 136.1136
862.301332 94.242 136.2204
868.549922 94.198 136.2910
874.843793 94.165 136.3190
881.183272 94.142 136.3029
887.568689 94.129 136.2446
894.000378 94.127 136.1483
900.478673 94.135 136.0188
907.003913 94.153 135.8613
913.576437 94.179 135.6806
920.196588 94.213 135.4808
926.864712 94.252 135.2654
933.581156 94.295 135.0374
940.346270 94.340 134.7991
947.160407 94.384 134.5529
954.023921 94.428 134.3012
960.937172 94.468 134.0469
967.900519 94.504 133.7931
974.914325 94.534 133.5437
981.978956 94.560 133.3027
989.094780 94.579 133.0744
996.262169 94.594 132.8627
1003.481495 94.606 132.6706
1010.753136 94.615 132.4994
1018.077470 94.624 132.3486
1025.454879 94.635 132.2159
1032.885748 94.650 132.0974
1040.370463 94.670 131.9888
1047.909417 94.696 131.8850
1055.503000 94.729 131.7818
1063.151610 94.769 131.6754
1070.855645 94.814 131.5632
1078.615506 94.866 131.4438
1086.431599 94.921 131.3165
1094.304330 94.979 131.1813
1102.234110 95.038 131.0380
1110.221353 95.096 130.8864
1118.266475 95.152 130.7259
1126.369895 95.203 130.5559
1134.532035 95.250 130.3761
1142.753322 95.291 130.1863
1151.034184 95.325 129.9872
1159.375052 95.352 129.7797
1167.776361 95.373 129.5657
1176.238550 95.388 129.3476
1184.762060 95.399 129.1285
1193.347334 95.407 128.9120
1201.994821 95.414 128.7017
1210.704971 95.420 128.5009
1219.478238 95.429 128.3117
1228.315080 95.442 128.1350
1237.215957 95.459 127.9701
1246.181334 95.483 127.8148
1255.211678 95.512 127.6663
1264.307459 95.547 127.5215
1273.469152 95.588 127.3778
1282.697235 95.633 127.2328
1291.992188 95.681 127.0851
1301.354495 95.732 126.9335
1310.784647 95.784 126.7777
1320.283132 95.835 126.6177
1329.850448 95.885 126.4538
1339.487093 95.932 126.2870
1349.193569 95.975 126.1188
1358.970381 96.013 125.9512
1368.818041 96.046 125.7869
1378.737061 96.073 125.6286
1388.727958 96.095 125.4793
1398.791253 96.111 125.3417
1408.927471 96.122 125.2181
1419.137140 96.127 125.1102
1429.420793 96.129 125.0192
1439.778965 96.127 124.9453
1450.212197 96.121 124.8888
1460.721033 96.114 124.8495
1471.306019 96.104 124.8268
1481.967709 96.092 124.8199
1492.706658 96.079 124.8271
1503.523426 96.065 124.8461
1514.418576 96.049 124.8738
1525.392678 96.032 124.9070
1536.446302 96.012 124.9429
1547.580025 95.990 124.9798
1558.794428 95.965 125.0173
1570.090095 95.936 125.0563
1581.467615 95.904 125.0983
1592.927581 95.870 125.1457
1604.470591 95.832 125.2009
1616.097246 95.793 125.2662
1627.808153 95.753 125.3438
1639.603922 95.712 125.4358
1651.485168 95.671 125.5439
1663.452510 95.630 125.6699
1675.506573 95.590 125.8150
1687.647984 95.551 125.9797
1699.877377 95.514 126.1637
1712.195390 95.478 126.3658
1724.602663 95.446 126.5841
1737.099845 95.416 126.8162
1749.687587 95.390 127.0593
1762.366544 95.369 127.3106
1775.137379 95.352 127.5669
1788.000756 95.340 127.8252
1800.957346 95.334 128.0824
1814.007826 95.333 128.3356
1827.152874 95.336 128.5827
1840.393177 95.343 128.8232
1853.729425 95.352 129.0574
1867.162312 95.363 129.2869
1880.692540 95.375 129.5130
1894.320813 95.387 129.7369
1908.047843 95.399 129.9590
1921.874344 95.410 130.1791
1935.801038 95.420 130.3961
1949.828650 95.428 130.6086
1963.957912 95.435 130.8149
1978.189561 95.441 131.0138
1992.524338 95.446 131.2048
2006.962991 95.450 131.3882
2021.506272 95.454 131.5647
2036.154940 95.458 131.7355
2050.909758 95.465 131.9012
2065.771495 95.474 132.0624
2080.740927 95.486 132.2190
2095.818833 95.502 132.3704
2111.006001 95.523 132.5158
2126.303220 95.549 132.6541
2141.711290 95.581 132.7846
2157.231013 95.618 132.9072
2172.863198 95.662 133.0224
2188.608660 95.712 133.1312
2204.468221 95.769 133.2344
2220.442706 95.832 133.3322
2236.532950 95.903 133.4243
2252.739789 95.981 133.5105
2269.064070 96.066 133.5903
2285.506644 96.159 133.6633
2302.068367 96.259 133.7292
2318.750104 96.365 133.7873
2335.552723 96.477 133.8370
2352.477101 96.594 133.8780
2369.524119 96.716 133.9100
2386.694668 96.841 133.9333
2403.989641 96.967 133.9481
2421.409941 97.095 133.9545
2438.956476 97.223 133.9527
2456.630160 97.350 133.9434
2474.431915 97.474 133.9269
2492.362668 97.596 133.9037
2510.423356 97.713 133.8741
2528.614918 97.826 133.8378
2546.938304 97.933 133.7948
2565.394469 98.033 133.7451
2583.984375 98.126 133.6897
2602.708991 98.211 133.6298
2621.569293 98.288 133.5675
2640.566265 98.355 133.5052
2659.700897 98.414 133.4454
2678.974186 98.464 133.3911
2698.387137 98.506 133.3448
2717.940763 98.539 133.3088
2737.636082 98.564 133.2849
2757.474121 98.582 133.2748
2777.455915 98.593 133.2798
2797.582506 98.598 133.3010
2817.854942 98.598 133.3389
2838.274281 98.593 133.3937
2858.841586 98.585 133.4653
2879.557931 98.573 133.5527
2900.424394 98.559 133.6545
2921.442065 98.544 133.7681
2942.612039 98.528 133.8897
2963.935418 98.512 134.0147
2985.413316 98.497 134.1377
3007.046852 98.482 134.2531
3028.837153 98.470 134.3551
3050.785356 98.458 134.4390
3072.892604 98.447 134.5007
3095.160050 98.436 134.5381
3117.588856 98.426 134.5503
3140.180190 98.415 134.5380
3162.935230 98.402 134.5036
3185.855163 98.389 134.4502
3208.941182 98.373 134.3817
3232.194493 98.356 134.3015
3255.616307 98.337 134.2130
3279.207844 98.317 134.1193
3302.970336 98.295 134.0233
3326.905021 98.273 133.9277
3351.013146 98.251 133.8356
3375.295969 98.228 133.7498
3399.754755 98.206 133.6739
3424.390779 98.185 133.6114
3449.205326 98.166 133.5663
3474.199690 98.147 133.5425
3499.375173 98.131 133.5436
3524.733088 98.118 133.5727
3550.274757 98.108 133.6324
3576.001511 98.101 133.7249
3601.914692 98.098 133.8519
3628.015651 98.099 134.0147
3654.305748 98.105 134.2138
3680.786354 98.115 134.4493
3707.458849 98.132 134.7209
3734.324624 98.154 135.0276
3761.385080 98.182 135.3680
3788.641627 98.216 135.7406
3816.095686 98.258 136.1435
3843.748688 98.307 136.5749
3871.602076 98.363 137.0327
3899.657300 98.426 137.5150
3927.915825 98.498 138.0194
3956.379122 98.577 138.5432
3985.048676 98.664 139.0838
4013.925981 98.759 139.6380
4043.012544 98.861 140.2027
4072.309879 98.972 140.7745
4101.819515 99.090 141.3496
4131.542990 99.216 141.9235
4161.481854 99.350 142.4910
4191.637667 99.492 143.0460
4222.012001 99.642 143.5815
4252.606441 99.801 144.0899
4283.422580 99.969 144.5634
4314.462026 100.144 144.9937
4345.726396 100.328 145.3730
4377.217321 100.519 145.6935
4408.936442 100.718 145.9480
4440.885413 100.922 146.1299
4473.065899 101.133 146.2336
4505.479579 101.348 146.2541
4538.128141 101.566 146.1876
4571.013288 101.786 146.0310
4604.136735 102.007 145.7820
4637.500207 102.228 145.4389
4671.105446 102.447 145.0009
4704.954201 102.662 144.4673
4739.048239 102.872 143.8383
4773.389336 103.076 143.1141
4807.979283 103.272 142.2960
4842.819883 103.458 141.3854
4877.912952 103.633 140.3845
4913.260320 103.796 139.2963
4948.863830 103.945 138.1241
4984.725337 104.078 136.8722
5020.846712 104.194 135.5460
5057.229836 104.290 134.1521
5093.876609 104.366 132.6988
5130.788938 104.420 131.1956
5167.968750 104.450 129.6542
5205.417982 104.455 128.0876
5243.138586 104.433 126.5108
5281.132530 104.382 124.9399
5319.401793 104.303 123.3926
5357.948371 104.194 121.8874
5396.774274 104.056 120.4439
5435.881525 103.887 119.0820
5475.272163 103.690 117.8216
5514.948243 103.464 116.6821
5554.911831 103.211 115.6819
5595.165012 102.934 114.8376
5635.709884 102.634 114.1643
5676.548561 102.316 113.6754
5717.683172 101.981 113.3822
5759.115861 101.635 113.2936
5800.848789 101.280 113.4158
5842.884130 100.922 113.7511
5885.224077 100.565 114.2973
5927.870837 100.213 115.0469
5970.826633 99.872 115.9867
6014.093704 99.546 117.0981
6057.674306 99.238 118.3574
6101.570711 98.951 119.7370
6145.785208 98.686 121.2075
6190.320101 98.444 122.7399
6235.177712 98.224 124.3079
6280.360380 98.023 125.8899
6325.870460 97.841 127.4701
6371.710325 97.674 129.0392
6417.882365 97.520 130.5938
6464.388986 97.377 132.1356
6511.232613 97.243 133.6703
6558.415689 97.118 135.2059
6605.940673 97.002 136.7514
6653.810042 96.897 138.3149
6702.026292 96.805 139.9026
6750.591937 96.728 141.5170
6799.509509 96.669 143.1557
6848.781558 96.631 144.8111
6898.410653 96.618 146.4695
6948.399380 96.630 148.1115
6998.750346 96.670 149.7133
7049.466176 96.737 151.2473
7100.549514 96.829 152.6841
7152.003023 96.943 153.9940
7203.829385 97.076 155.1498
7256.031302 97.221 156.1275
7308.611496 97.373 156.9085
7361.572708 97.525 157.4801
7414.917698 97.672 157.8352
7468.649249 97.807 157.9728
7522.770160 97.925 157.8968
7577.283253 98.020 157.6158
7632.191371 98.088 157.1425
7687.497376 98.124 156.4927
7743.204151 98.125 155.6856
7799.314600 98.088 154.7436
7855.831649 98.009 153.6922
7912.758244 97.887 152.5608
7970.097352 97.718 151.3831
8027.851962 97.501 150.1990
8086.025087 97.234 149.0562
8144.619758 96.917 148.0135
8203.639030 96.550 147.1458
8263.085980 96.133 146.5511
8322.963708 95.671 146.3626
8383.275334 95.170 146.7670
8444.024002 94.643 148.0348
8505.212881 94.108 150.5663
8566.845160 93.594 154.9526
8628.924051 93.136 162.0052
8691.452792 92.777 172.5603
8754.434642 92.560 -173.3602
8817.872884 92.513 -157.7449
8881.770826 92.643 -143.7936
8946.131799 92.934 -133.2555
9010.959157 93.351 -125.9600
9076.256282 93.856 -121.0592
9142.026576 94.416 -117.7806
9208.273470 95.005 -115.5810
9275.000415 95.605 -114.1083
9342.210891 96.207 -113.1415
9409.908403 96.805 -112.5462
9478.096478 97.395 -112.2446
9546.778672 97.976 -112.1962
9615.958566 98.546 -112.3844
9685.639765 99.104 -112.8078
9755.825904 99.647 -113.4727
9826.520640 100.172 -114.3893
9897.727659 100.677 -115.5671
9969.450674 101.157 -117.0133
10041.693423 101.608 -118.7304
10114.459673 102.025 -120.7153
10187.753217 102.404 -122.9588
10261.577877 102.740 -125.4448
10335.937500 103.029 -128.1502
10410.835964 103.266 -131.0454
10486.277173 103.449 -134.0948
10562.265060 103.573 -137.2579
10638.803587 103.640 -140.4916
10715.896743 103.647 -143.7514
10793.548548 103.597 -146.9947
10871.763050 103.492 -150.1825
10950.544327 103.335 -153.2814
11029.896485 103.129 -156.2651
11109.823662 102.880 -159.1142
11190.330024 102.592 -161.8170
11271.419768 102.269 -164.3682
11353.097122 101.916 -166.7684
11435.366344 101.537 -169.0228
11518.231722 101.135 -171.1393
11601.697577 100.714 -173.1284
11685.768261 100.275 -175.0010
11770.448155 99.820 -176.7684
11855.741674 99.353 -178.4420
11941.653265 98.873 179.9662
12028.187408 98.383 178.4431
12115.348612 97.885 176.9739
12203.141422 97.379 175.5430
12291.570415 96.866 174.1346
12380.640201 96.347 172.7341
12470.355424 95.821 171.3285
12560.720760 95.290 169.9062
12651.740920 94.753 168.4550
12743.420650 94.211 166.9595
12835.764729 93.665 165.3985
12928.777972 93.118 163.7437
13022.465227 92.572 161.9600
13116.831378 92.026 160.0071
13211.881345 91.482 157.8431
13307.620084 90.937 155.4272
13404.052584 90.390 152.7208
13501.183875 89.837 149.6887
13599.019019 89.273 146.2963
13697.563116 88.695 142.5073
13796.821305 88.099 138.2775
13896.798760 87.482 133.5480
13997.500692 86.841 128.2335
14098.932352 86.177 122.2061
14201.099028 85.490 115.2703
14304.006046 84.784 107.1259
14407.658770 84.061 97.3229
14512.062604 83.329 85.2380
14617.222992 82.592 70.2002
14723.145416 81.856 52.0572
14829.835397 81.127 32.1515
14937.298497 80.408 13.2175
15045.540320 79.705 -2.6184
15154.566507 79.023 -14.9447
15264.382743 78.368 -24.3162
15374.994752 77.750 -31.4395
15486.408302 77.184 -36.8945
15598.629201 76.684 -41.1196
15711.663298 76.268 -44.4526
15825.516487 75.949 -47.1667
15940.194703 75.737 -49.4910
16055.703925 75.631 -51.6195
16172.050174 75.625 -53.7156
16289.239516 75.707 -55.9143
16407.278061 75.858 -58.3253
16526.171961 76.060 -61.0356
16645.927415 76.292 -64.1121
16766.550667 76.535 -67.6039
16888.048005 76.772 -71.5435
17010.425762 76.985 -75.9469
17133.690320 77.159 -80.8138
17257.848103 77.280 -86.1289
17382.905584 77.336 -91.8606
17508.869284 77.317 -97.9651
17635.745768 77.216 -104.3880
17763.541652 77.030 -111.0699
17892.263597 76.757 -117.9537
18021.918315 76.400 -124.9935
18152.512564 75.968 -132.1660
18284.053153 75.471 -139.4810
18416.546939 74.925 -146.9894
18550.000830 74.350 -154.7891
18684.421783 73.765 -163.0192
18819.816805 73.193 -171.8428
18956.192956 72.650 178.5917
19093.557344 72.153 168.2263
19231.917131 71.709 157.2075
19371.279531 71.327 146.0080
19511.651807 71.010 135.4458
19653.041280 70.763 126.5113
19795.455318 70.594 120.0814
19938.901348 70.507 116.7343
