* Measurement data measured by REW V5.31.3
* Source: EXCL: Headset (USB-C to 3.5mm Headphone Jack Adapter), MICROPHONE (Master Volume), 0, volume: 0.750
* Format: 256k Log Swept Sine, 1 sweep at -12.0 dBFS with no timing reference
* Dated: Apr 7, 2025 12:28:06 PM
* REW Settings:
*  C-weighting compensation: Off
*  Target level: 75.0 dB
* Note: ; 
* Measurement: HD6XX (Forward) R9
* Smoothing: 1/6 octave
* Frequency Step: 96 ppo
* Start Frequency: 20.0 Hz
*
* Freq(Hz) SPL(dB) Phase(degrees)
20.187378 78.422 -93.2055
20.333664 78.459 -93.3620
20.481010 78.508 -93.5719
20.629424 78.568 -93.8296
20.778913 78.637 -94.1283
20.929486 78.714 -94.4605
21.081150 78.797 -94.8180
21.233912 78.883 -95.1918
21.387782 78.971 -95.5722
21.542767 79.060 -95.9488
21.698874 79.150 -96.3114
21.856113 79.238 -96.6501
22.014492 79.327 -96.9562
22.174018 79.415 -97.2234
22.334700 79.504 -97.4482
22.496546 79.595 -97.6310
22.659566 79.688 -97.7758
22.823766 79.783 -97.8912
22.989157 79.882 -97.9885
23.155745 79.983 -98.0819
23.323542 80.085 -98.1861
23.492554 80.188 -98.3154
23.662790 80.288 -98.4817
23.834261 80.383 -98.6940
24.006973 80.473 -98.9571
24.180938 80.553 -99.2716
24.356163 80.623 -99.6345
24.532658 80.682 -100.0393
24.710431 80.728 -100.4772
24.889493 80.762 -100.9379
25.069853 80.785 -101.4106
25.251519 80.797 -101.8849
25.434502 80.801 -102.3514
25.618811 80.798 -102.8024
25.804456 80.792 -103.2322
25.991445 80.784 -103.6374
26.179790 80.778 -104.0169
26.369500 80.775 -104.3720
26.560584 80.778 -104.7059
26.753053 80.788 -105.0232
26.946917 80.806 -105.3295
27.142185 80.832 -105.6307
27.338869 80.865 -105.9319
27.536977 80.906 -106.2373
27.736522 80.951 -106.5491
27.937512 81.001 -106.8680
28.139959 81.053 -107.1930
28.343872 81.105 -107.5220
28.549264 81.158 -107.8526
28.756143 81.210 -108.1827
28.964522 81.262 -108.5116
29.174411 81.313 -108.8402
29.385821 81.365 -109.1713
29.598763 81.417 -109.5091
29.813248 81.470 -109.8583
30.029287 81.523 -110.2231
30.246891 81.578 -110.6064
30.466073 81.634 -111.0085
30.686842 81.690 -111.4267
30.909212 81.747 -111.8562
31.133193 81.805 -112.2901
31.358797 81.866 -112.7214
31.586035 81.929 -113.1439
31.814921 81.997 -113.5536
32.045465 82.069 -113.9496
32.277680 82.148 -114.3338
32.511577 82.233 -114.7104
32.747169 82.325 -115.0850
32.984469 82.421 -115.4627
33.223488 82.522 -115.8471
33.464239 82.625 -116.2395
33.706735 82.729 -116.6385
33.950987 82.833 -117.0405
34.197010 82.937 -117.4405
34.444816 83.039 -117.8334
34.694417 83.140 -118.2148
34.945827 83.239 -118.5818
35.199059 83.337 -118.9336
35.454126 83.433 -119.2718
35.711041 83.528 -119.5997
35.969818 83.622 -119.9224
36.230470 83.714 -120.2460
36.493011 83.805 -120.5770
36.757455 83.894 -120.9214
37.023814 83.981 -121.2849
37.292104 84.067 -121.6713
37.562338 84.152 -122.0831
37.834530 84.235 -122.5206
38.108695 84.316 -122.9821
38.384846 84.395 -123.4637
38.662999 84.472 -123.9599
38.943167 84.548 -124.4637
39.225365 84.622 -124.9673
39.509608 84.693 -125.4624
39.795911 84.762 -125.9418
40.084289 84.828 -126.3997
40.374756 84.892 -126.8325
40.667328 84.954 -127.2396
40.962020 85.013 -127.6231
41.258848 85.070 -127.9870
41.557827 85.123 -128.3365
41.858972 85.173 -128.6763
42.162299 85.220 -129.0098
42.467824 85.263 -129.3387
42.775564 85.303 -129.6632
43.085533 85.340 -129.9828
43.397749 85.376 -130.2972
43.712227 85.412 -130.6069
44.028983 85.449 -130.9136
44.348036 85.486 -131.2189
44.669400 85.525 -131.5241
44.993093 85.564 -131.8289
45.319131 85.603 -132.1317
45.647532 85.641 -132.4303
45.978313 85.677 -132.7235
46.311491 85.711 -133.0118
46.647083 85.743 -133.2981
46.985107 85.774 -133.5873
47.325581 85.802 -133.8846
47.668521 85.829 -134.1935
48.013947 85.854 -134.5143
48.361876 85.878 -134.8439
48.712326 85.900 -135.1757
49.065315 85.922 -135.5019
49.420863 85.945 -135.8150
49.778987 85.969 -136.1100
50.139706 85.994 -136.3848
50.503039 86.021 -136.6406
50.869005 86.050 -136.8810
51.237623 86.078 -137.1107
51.608912 86.106 -137.3342
51.982891 86.132 -137.5549
52.359580 86.154 -137.7753
52.739000 86.173 -137.9964
53.121168 86.189 -138.2188
53.506106 86.201 -138.4429
53.893833 86.210 -138.6694
54.284370 86.216 -138.8989
54.677737 86.221 -139.1316
55.073955 86.226 -139.3672
55.473043 86.229 -139.6044
55.875024 86.233 -139.8414
56.279917 86.238 -140.0762
56.687745 86.243 -140.3073
57.098527 86.250 -140.5341
57.512287 86.258 -140.7575
57.929045 86.269 -140.9797
58.348822 86.284 -141.2044
58.771642 86.304 -141.4366
59.197525 86.331 -141.6827
59.626495 86.367 -141.9500
60.058573 86.410 -142.2450
60.493782 86.461 -142.5715
60.932145 86.519 -142.9293
61.373685 86.580 -143.3137
61.818424 86.645 -143.7176
62.266386 86.710 -144.1330
62.717593 86.775 -144.5531
63.172071 86.840 -144.9729
63.629842 86.904 -145.3890
64.090930 86.967 -145.7986
64.555359 87.030 -146.1994
65.023154 87.093 -146.5900
65.494339 87.155 -146.9696
65.968938 87.216 -147.3386
66.446976 87.276 -147.6979
66.928478 87.335 -148.0489
67.413469 87.392 -148.3934
67.901975 87.447 -148.7332
68.394021 87.501 -149.0701
68.889632 87.552 -149.4064
69.388835 87.601 -149.7441
69.891655 87.647 -150.0857
70.398118 87.691 -150.4331
70.908252 87.732 -150.7875
71.422083 87.770 -151.1488
71.939636 87.805 -151.5158
72.460941 87.836 -151.8868
72.986023 87.865 -152.2596
73.514909 87.892 -152.6323
74.047629 87.916 -153.0032
74.584208 87.937 -153.3709
75.124676 87.956 -153.7345
75.669061 87.972 -154.0932
76.217390 87.986 -154.4469
76.769692 87.998 -154.7954
77.325997 88.007 -155.1393
77.886333 88.015 -155.4791
78.450730 88.021 -155.8158
79.019216 88.026 -156.1504
79.591822 88.031 -156.4838
80.168577 88.034 -156.8172
80.749512 88.036 -157.1515
81.334656 88.038 -157.4872
81.924040 88.038 -157.8244
82.517696 88.039 -158.1627
83.115653 88.039 -158.5016
83.717943 88.039 -158.8404
84.324598 88.038 -159.1783
84.935649 88.038 -159.5146
85.551128 88.038 -159.8487
86.171066 88.038 -160.1802
86.795497 88.038 -160.5086
87.424453 88.037 -160.8339
88.057967 88.036 -161.1560
88.696071 88.035 -161.4751
89.338800 88.033 -161.7916
89.986185 88.030 -162.1058
90.638262 88.027 -162.4181
91.295065 88.024 -162.7288
91.956626 88.020 -163.0383
92.622982 88.016 -163.3472
93.294166 88.011 -163.6557
93.970214 88.006 -163.9643
94.651161 88.000 -164.2731
95.337042 87.994 -164.5825
96.027894 87.988 -164.8933
96.723752 87.982 -165.2061
97.424652 87.977 -165.5216
98.130631 87.972 -165.8404
98.841726 87.968 -166.1625
99.557974 87.965 -166.4878
100.279412 87.963 -166.8157
101.006078 87.962 -167.1451
101.738010 87.962 -167.4745
102.475245 87.962 -167.8019
103.217823 87.962 -168.1249
103.965782 87.962 -168.4415
104.719161 87.963 -168.7500
105.477999 87.964 -169.0502
106.242336 87.965 -169.3425
107.012212 87.966 -169.6285
107.787666 87.968 -169.9104
108.568740 87.971 -170.1902
109.355474 87.975 -170.4698
110.147909 87.979 -170.7505
110.946086 87.983 -171.0331
111.750047 87.988 -171.3177
112.559834 87.993 -171.6040
113.375489 87.997 -171.8910
114.197055 88.001 -172.1775
115.024574 88.005 -172.4620
115.858089 88.009 -172.7430
116.697645 88.012 -173.0194
117.543284 88.016 -173.2909
118.395051 88.020 -173.5576
119.252990 88.024 -173.8204
120.117147 88.028 -174.0800
120.987565 88.031 -174.3368
121.864291 88.033 -174.5910
122.747370 88.034 -174.8426
123.636848 88.034 -175.0915
124.532771 88.033 -175.3373
125.435187 88.031 -175.5798
126.344142 88.028 -175.8190
127.259684 88.025 -176.0547
128.181860 88.021 -176.2874
129.110718 88.016 -176.5172
130.046308 88.012 -176.7443
130.988677 88.007 -176.9684
131.937875 88.002 -177.1895
132.893951 87.996 -177.4073
133.856956 87.989 -177.6221
134.826938 87.982 -177.8344
135.803950 87.974 -178.0452
136.788041 87.965 -178.2554
137.779264 87.955 -178.4659
138.777669 87.943 -178.6773
139.783309 87.931 -178.8898
140.796237 87.917 -179.1032
141.816504 87.902 -179.3172
142.844165 87.887 -179.5313
143.879273 87.870 -179.7448
144.921881 87.853 -179.9574
145.972045 87.834 179.8314
147.029819 87.816 179.6218
148.095257 87.796 179.4139
149.168417 87.776 179.2076
150.249353 87.756 179.0027
151.338121 87.735 178.7985
152.434780 87.714 178.5943
153.539385 87.693 178.3895
154.651995 87.673 178.1834
155.772667 87.652 177.9758
156.901460 87.631 177.7664
158.038432 87.611 177.5555
159.183644 87.591 177.3436
160.337154 87.571 177.1310
161.499023 87.551 176.9185
162.669312 87.532 176.7067
163.848081 87.512 176.4959
165.035392 87.493 176.2870
166.231306 87.474 176.0806
167.435887 87.455 175.8773
168.649196 87.436 175.6775
169.871298 87.417 175.4814
171.102255 87.398 175.2891
172.342133 87.379 175.1003
173.590995 87.359 174.9146
174.848907 87.340 174.7317
176.115934 87.320 174.5508
177.392143 87.300 174.3713
178.677599 87.280 174.1923
179.972371 87.260 174.0128
181.276525 87.240 173.8319
182.590129 87.219 173.6490
183.913252 87.198 173.4639
185.245964 87.177 173.2766
186.588332 87.155 173.0870
187.940428 87.132 172.8953
189.302322 87.109 172.7017
190.674085 87.085 172.5068
192.055788 87.059 172.3109
193.447503 87.034 172.1147
194.849303 87.007 171.9192
196.261262 86.980 171.7253
197.683452 86.952 171.5343
199.115948 86.923 171.3475
200.558824 86.894 171.1660
202.012156 86.865 170.9904
203.476019 86.835 170.8203
204.950490 86.805 170.6553
206.435646 86.774 170.4948
207.931564 86.744 170.3388
209.438322 86.713 170.1880
210.955998 86.682 170.0434
212.484672 86.652 169.9054
214.024424 86.623 169.7743
215.575333 86.594 169.6497
217.137481 86.567 169.5314
218.710948 86.541 169.4193
220.295818 86.516 169.3132
221.892172 86.492 169.2127
223.500094 86.470 169.1172
225.119668 86.449 169.0255
226.750978 86.430 168.9365
228.394109 86.411 168.8488
230.049147 86.393 168.7612
231.716178 86.376 168.6724
233.395289 86.360 168.5809
235.086567 86.345 168.4852
236.790102 86.330 168.3841
238.505980 86.316 168.2766
240.234293 86.303 168.1630
241.975130 86.290 168.0443
243.728581 86.279 167.9222
245.494739 86.268 167.7984
247.273695 86.257 167.6744
249.065542 86.247 167.5512
250.870374 86.238 167.4294
252.688284 86.228 167.3094
254.519367 86.219 167.1917
256.363720 86.210 167.0769
258.221437 86.201 166.9659
260.092616 86.191 166.8595
261.977354 86.181 166.7582
263.875750 86.170 166.6620
265.787903 86.158 166.5706
267.713911 86.145 166.4836
269.653877 86.132 166.4009
271.607900 86.119 166.3219
273.576083 86.106 166.2463
275.558528 86.094 166.1736
277.555338 86.083 166.1032
279.566619 86.072 166.0343
281.592474 86.063 165.9661
283.633009 86.056 165.8980
285.688331 86.049 165.8297
287.758546 86.043 165.7608
289.843763 86.039 165.6917
291.944090 86.035 165.6226
294.059638 86.031 165.5536
296.190515 86.028 165.4852
298.336833 86.026 165.4174
300.498705 86.023 165.3504
302.676243 86.020 165.2847
304.869559 86.017 165.2206
307.078770 86.014 165.1587
309.303989 86.011 165.0994
311.545334 86.008 165.0432
313.802919 86.004 164.9903
316.076865 85.999 164.9408
318.367288 85.995 164.8944
320.674309 85.990 164.8508
322.998047 85.985 164.8094
325.338624 85.979 164.7699
327.696162 85.973 164.7317
330.070783 85.966 164.6943
332.462612 85.959 164.6572
334.871773 85.951 164.6201
337.298392 85.943 164.5826
339.742595 85.933 164.5445
342.204510 85.923 164.5060
344.684265 85.912 164.4673
347.181989 85.900 164.4291
349.697813 85.886 164.3921
352.231868 85.871 164.3574
354.784285 85.855 164.3260
357.355198 85.837 164.2996
359.944741 85.819 164.2792
362.553049 85.799 164.2656
365.180258 85.779 164.2587
367.826505 85.759 164.2573
370.491927 85.738 164.2598
373.176665 85.717 164.2643
375.880856 85.696 164.2695
378.604644 85.675 164.2748
381.348169 85.654 164.2800
384.111575 85.634 164.2854
386.895006 85.613 164.2914
389.698607 85.592 164.2984
392.522524 85.571 164.3068
395.366904 85.550 164.3165
398.231895 85.528 164.3275
401.117648 85.505 164.3394
404.024312 85.482 164.3521
406.952038 85.457 164.3656
409.900981 85.432 164.3800
412.871292 85.406 164.3958
415.863128 85.379 164.4135
418.876643 85.352 164.4333
421.911996 85.322 164.4556
424.969344 85.292 164.4800
428.048847 85.261 164.5065
431.150666 85.228 164.5348
434.274961 85.194 164.5647
437.421897 85.158 164.5959
440.591636 85.121 164.6281
443.784345 85.083 164.6611
447.000189 85.044 164.6949
450.239337 85.004 164.7295
453.501956 84.964 164.7652
456.788219 84.923 164.8022
460.098294 84.882 164.8405
463.432356 84.841 164.8803
466.790578 84.800 164.9214
470.173135 84.760 164.9639
473.580203 84.721 165.0071
477.011961 84.682 165.0510
480.468586 84.645 165.0947
483.950259 84.608 165.1382
487.457163 84.573 165.1812
490.989478 84.539 165.2241
494.547390 84.507 165.2675
498.131084 84.475 165.3121
501.740748 84.445 165.3589
505.376568 84.416 165.4084
509.038735 84.389 165.4607
512.727439 84.363 165.5156
516.442874 84.339 165.5723
520.185232 84.317 165.6303
523.954708 84.296 165.6888
527.751500 84.277 165.7476
531.575805 84.261 165.8062
535.427822 84.246 165.8648
539.307753 84.233 165.9234
543.215800 84.223 165.9822
547.152165 84.214 166.0414
551.117055 84.208 166.1012
555.110677 84.205 166.1620
559.133237 84.204 166.2241
563.184947 84.204 166.2878
567.266018 84.207 166.3532
571.376661 84.211 166.4205
575.517092 84.216 166.4894
579.687526 84.222 166.5598
583.888181 84.228 166.6312
588.119275 84.235 166.7033
592.381030 84.242 166.7758
596.673667 84.249 166.8486
600.997410 84.256 166.9213
605.352485 84.263 166.9938
609.739119 84.269 167.0657
614.157540 84.274 167.1369
618.607979 84.278 167.2072
623.090667 84.281 167.2766
627.605839 84.283 167.3450
632.153730 84.284 167.4126
636.734576 84.283 167.4795
641.348617 84.282 167.5459
645.996094 84.280 167.6120
650.677248 84.277 167.6779
655.392323 84.273 167.7438
660.141566 84.268 167.8098
664.925224 84.263 167.8757
669.743546 84.257 167.9415
674.596784 84.249 168.0071
679.485191 84.241 168.0726
684.409020 84.232 168.1382
689.368530 84.221 168.2038
694.363979 84.210 168.2692
699.395626 84.198 168.3340
704.463736 84.184 168.3974
709.568570 84.170 168.4587
714.710396 84.154 168.5172
719.889483 84.138 168.5722
725.106099 84.120 168.6233
730.360516 84.102 168.6700
735.653010 84.082 168.7122
740.983855 84.062 168.7492
746.353329 84.041 168.7808
751.761713 84.018 168.8064
757.209288 83.994 168.8255
762.696339 83.969 168.8376
768.223151 83.943 168.8424
773.790013 83.915 168.8395
779.397214 83.886 168.8290
785.045047 83.855 168.8107
790.733808 83.822 168.7850
796.463791 83.787 168.7522
802.235296 83.751 168.7126
808.048623 83.712 168.6673
813.904077 83.671 168.6172
819.801961 83.627 168.5640
825.742584 83.580 168.5100
831.726255 83.531 168.4584
837.753287 83.478 168.4131
843.823992 83.421 168.3788
849.938689 83.362 168.3616
856.097695 83.299 168.3678
862.301332 83.234 168.4047
868.549922 83.166 168.4796
874.843793 83.097 168.5996
881.183272 83.027 168.7708
887.568689 82.958 168.9977
894.000378 82.893 169.2820
900.478673 82.832 169.6218
907.003913 82.778 170.0115
913.576437 82.733 170.4416
920.196588 82.698 170.8994
926.864712 82.674 171.3708
933.581156 82.661 171.8413
940.346270 82.659 172.2982
947.160407 82.667 172.7311
954.023921 82.683 173.1326
960.937172 82.707 173.4984
967.900519 82.736 173.8270
974.914325 82.771 174.1191
981.978956 82.809 174.3771
989.094780 82.851 174.6045
996.262169 82.894 174.8051
1003.481495 82.940 174.9828
1010.753136 82.988 175.1411
1018.077470 83.037 175.2831
1025.454879 83.088 175.4111
1032.885748 83.141 175.5270
1040.370463 83.195 175.6319
1047.909417 83.252 175.7265
1055.503000 83.309 175.8111
1063.151610 83.369 175.8860
1070.855645 83.430 175.9510
1078.615506 83.492 176.0057
1086.431599 83.555 176.0493
1094.304330 83.619 176.0808
1102.234110 83.684 176.0994
1110.221353 83.748 176.1043
1118.266475 83.812 176.0949
1126.369895 83.876 176.0708
1134.532035 83.938 176.0319
1142.753322 83.999 175.9782
1151.034184 84.059 175.9101
1159.375052 84.117 175.8281
1167.776361 84.174 175.7332
1176.238550 84.228 175.6263
1184.762060 84.280 175.5092
1193.347334 84.329 175.3838
1201.994821 84.376 175.2517
1210.704971 84.421 175.1147
1219.478238 84.463 174.9739
1228.315080 84.502 174.8310
1237.215957 84.539 174.6877
1246.181334 84.574 174.5461
1255.211678 84.606 174.4083
1264.307459 84.636 174.2762
1273.469152 84.664 174.1516
1282.697235 84.691 174.0364
1291.992188 84.716 173.9320
1301.354495 84.739 173.8395
1310.784647 84.762 173.7592
1320.283132 84.785 173.6902
1329.850448 84.806 173.6314
1339.487093 84.828 173.5815
1349.193569 84.849 173.5397
1358.970381 84.871 173.5055
1368.818041 84.892 173.4789
1378.737061 84.913 173.4602
1388.727958 84.935 173.4495
1398.791253 84.957 173.4470
1408.927471 84.980 173.4527
1419.137140 85.004 173.4663
1429.420793 85.030 173.4875
1439.778965 85.057 173.5163
1450.212197 85.085 173.5529
1460.721033 85.114 173.5973
1471.306019 85.145 173.6496
1481.967709 85.177 173.7096
1492.706658 85.211 173.7770
1503.523426 85.245 173.8514
1514.418576 85.280 173.9320
1525.392678 85.315 174.0187
1536.446302 85.350 174.1116
1547.580025 85.384 174.2115
1558.794428 85.417 174.3186
1570.090095 85.448 174.4331
1581.467615 85.477 174.5541
1592.927581 85.504 174.6805
1604.470591 85.528 174.8110
1616.097246 85.548 174.9450
1627.808153 85.565 175.0827
1639.603922 85.578 175.2260
1651.485168 85.587 175.3777
1663.452510 85.592 175.5408
1675.506573 85.593 175.7182
1687.647984 85.592 175.9121
1699.877377 85.588 176.1233
1712.195390 85.582 176.3518
1724.602663 85.575 176.5966
1737.099845 85.568 176.8563
1749.687587 85.560 177.1289
1762.366544 85.553 177.4124
1775.137379 85.547 177.7042
1788.000756 85.542 178.0016
1800.957346 85.537 178.3010
1814.007826 85.534 178.5985
1827.152874 85.530 178.8905
1840.393177 85.527 179.1745
1853.729425 85.523 179.4491
1867.162312 85.517 179.7146
1880.692540 85.509 179.9731
1894.320813 85.498 -179.7721
1908.047843 85.483 -179.5170
1921.874344 85.465 -179.2574
1935.801038 85.444 -178.9891
1949.828650 85.420 -178.7085
1963.957912 85.392 -178.4129
1978.189561 85.363 -178.1010
1992.524338 85.333 -177.7724
2006.962991 85.301 -177.4286
2021.506272 85.271 -177.0726
2036.154940 85.241 -176.7085
2050.909758 85.212 -176.3416
2065.771495 85.185 -175.9770
2080.740927 85.160 -175.6192
2095.818833 85.136 -175.2712
2111.006001 85.114 -174.9348
2126.303220 85.093 -174.6104
2141.711290 85.072 -174.2978
2157.231013 85.054 -173.9961
2172.863198 85.036 -173.7045
2188.608660 85.019 -173.4225
2204.468221 85.004 -173.1500
2220.442706 84.990 -172.8872
2236.532950 84.978 -172.6341
2252.739789 84.967 -172.3904
2269.064070 84.958 -172.1556
2285.506644 84.949 -171.9284
2302.068367 84.942 -171.7075
2318.750104 84.937 -171.4910
2335.552723 84.932 -171.2771
2352.477101 84.930 -171.0640
2369.524119 84.929 -170.8506
2386.694668 84.931 -170.6366
2403.989641 84.936 -170.4221
2421.409941 84.943 -170.2081
2438.956476 84.955 -169.9957
2456.630160 84.970 -169.7860
2474.431915 84.988 -169.5797
2492.362668 85.010 -169.3770
2510.423356 85.036 -169.1769
2528.614918 85.065 -168.9776
2546.938304 85.098 -168.7770
2565.394469 85.134 -168.5726
2583.984375 85.175 -168.3624
2602.708991 85.221 -168.1450
2621.569293 85.271 -167.9193
2640.566265 85.327 -167.6853
2659.700897 85.389 -167.4435
2678.974186 85.458 -167.1953
2698.387137 85.533 -166.9434
2717.940763 85.615 -166.6914
2737.636082 85.704 -166.4439
2757.474121 85.800 -166.2060
2777.455915 85.902 -165.9828
2797.582506 86.010 -165.7788
2817.854942 86.123 -165.5976
2838.274281 86.240 -165.4415
2858.841586 86.360 -165.3120
2879.557931 86.482 -165.2096
2900.424394 86.605 -165.1343
2921.442065 86.729 -165.0858
2942.612039 86.853 -165.0637
2963.935418 86.975 -165.0672
2985.413316 87.096 -165.0950
3007.046852 87.214 -165.1460
3028.837153 87.328 -165.2189
3050.785356 87.439 -165.3129
3072.892604 87.546 -165.4276
3095.160050 87.648 -165.5628
3117.588856 87.744 -165.7181
3140.180190 87.834 -165.8926
3162.935230 87.917 -166.0854
3185.855163 87.993 -166.2952
3208.941182 88.062 -166.5210
3232.194493 88.123 -166.7621
3255.616307 88.176 -167.0175
3279.207844 88.221 -167.2861
3302.970336 88.257 -167.5664
3326.905021 88.285 -167.8564
3351.013146 88.305 -168.1540
3375.295969 88.317 -168.4571
3399.754755 88.321 -168.7642
3424.390779 88.318 -169.0735
3449.205326 88.308 -169.3834
3474.199690 88.292 -169.6920
3499.375173 88.270 -169.9968
3524.733088 88.242 -170.2955
3550.274757 88.210 -170.5858
3576.001511 88.175 -170.8658
3601.914692 88.137 -171.1344
3628.015651 88.097 -171.3909
3654.305748 88.057 -171.6351
3680.786354 88.018 -171.8666
3707.458849 87.979 -172.0851
3734.324624 87.942 -172.2904
3761.385080 87.909 -172.4821
3788.641627 87.878 -172.6599
3816.095686 87.851 -172.8234
3843.748688 87.829 -172.9722
3871.602076 87.812 -173.1057
3899.657300 87.801 -173.2235
3927.915825 87.795 -173.3254
3956.379122 87.795 -173.4108
3985.048676 87.802 -173.4789
4013.925981 87.815 -173.5285
4043.012544 87.834 -173.5584
4072.309879 87.860 -173.5674
4101.819515 87.893 -173.5551
4131.542990 87.934 -173.5226
4161.481854 87.983 -173.4724
4191.637667 88.041 -173.4090
4222.012001 88.107 -173.3382
4252.606441 88.182 -173.2672
4283.422580 88.265 -173.2046
4314.462026 88.358 -173.1606
4345.726396 88.460 -173.1471
4377.217321 88.571 -173.1776
4408.936442 88.689 -173.2667
4440.885413 88.813 -173.4295
4473.065899 88.943 -173.6801
4505.479579 89.076 -174.0312
4538.128141 89.210 -174.4932
4571.013288 89.344 -175.0744
4604.136735 89.474 -175.7806
4637.500207 89.599 -176.6150
4671.105446 89.717 -177.5785
4704.954201 89.824 -178.6696
4739.048239 89.919 -179.8842
4773.389336 90.000 178.7837
4807.979283 90.064 177.3425
4842.819883 90.110 175.8024
4877.912952 90.136 174.1752
4913.260320 90.141 172.4745
4948.863830 90.122 170.7153
4984.725337 90.080 168.9146
5020.846712 90.011 167.0908
5057.229836 89.916 165.2650
5093.876609 89.793 163.4599
5130.788938 89.642 161.7009
5167.968750 89.463 160.0158
5205.417982 89.257 158.4341
5243.138586 89.024 156.9868
5281.132530 88.768 155.7053
5319.401793 88.491 154.6196
5357.948371 88.197 153.7573
5396.774274 87.892 153.1412
5435.881525 87.583 152.7863
5475.272163 87.277 152.6983
5514.948243 86.981 152.8712
5554.911831 86.704 153.2866
5595.165012 86.452 153.9144
5635.709884 86.232 154.7138
5676.548561 86.048 155.6365
5717.683172 85.902 156.6301
5759.115861 85.795 157.6423
5800.848789 85.725 158.6240
5842.884130 85.688 159.5327
5885.224077 85.680 160.3337
5927.870837 85.695 161.0007
5970.826633 85.729 161.5153
6014.093704 85.774 161.8667
6057.674306 85.825 162.0499
6101.570711 85.878 162.0656
6145.785208 85.926 161.9186
6190.320101 85.967 161.6179
6235.177712 85.994 161.1752
6280.360380 86.006 160.6056
6325.870460 85.997 159.9264
6371.710325 85.967 159.1573
6417.882365 85.912 158.3203
6464.388986 85.831 157.4387
6511.232613 85.722 156.5377
6558.415689 85.585 155.6435
6605.940673 85.420 154.7828
6653.810042 85.227 153.9820
6702.026292 85.008 153.2657
6750.591937 84.765 152.6559
6799.509509 84.502 152.1696
6848.781558 84.221 151.8179
6898.410653 83.929 151.6036
6948.399380 83.629 151.5204
6998.750346 83.326 151.5521
7049.466176 83.024 151.6725
7100.549514 82.728 151.8475
7152.003023 82.440 152.0370
7203.829385 82.161 152.1989
7256.031302 81.889 152.2923
7308.611496 81.624 152.2819
7361.572708 81.361 152.1404
7414.917698 81.095 151.8517
7468.649249 80.821 151.4118
7522.770160 80.531 150.8307
7577.283253 80.221 150.1333
7632.191371 79.884 149.3625
7687.497376 79.517 148.5835
7743.204151 79.118 147.8926
7799.314600 78.688 147.4333
7855.831649 78.234 147.4261
7912.758244 77.767 148.2274
7970.097352 77.310 150.4464
8027.851962 76.891 155.1793
8086.025087 76.548 164.3899
8144.619758 76.321 -179.2278
8203.639030 76.242 -156.1979
8263.085980 76.323 -135.0350
8322.963708 76.554 -121.5933
8383.275334 76.906 -114.3447
8444.024002 77.342 -110.7274
8505.212881 77.826 -109.1594
8566.845160 78.330 -108.7782
8628.924051 78.835 -109.1054
8691.452792 79.330 -109.8645
8754.434642 79.808 -110.8908
8817.872884 80.269 -112.0855
8881.770826 80.713 -113.3921
8946.131799 81.141 -114.7816
9010.959157 81.558 -116.2448
9076.256282 81.964 -117.7861
9142.026576 82.361 -119.4198
9208.273470 82.750 -121.1663
9275.000415 83.129 -123.0497
9342.210891 83.498 -125.0951
9409.908403 83.852 -127.3261
9478.096478 84.187 -129.7626
9546.778672 84.497 -132.4186
9615.958566 84.776 -135.3003
9685.639765 85.018 -138.4050
9755.825904 85.216 -141.7196
9826.520640 85.363 -145.2204
9897.727659 85.454 -148.8739
9969.450674 85.484 -152.6374
10041.693423 85.450 -156.4620
10114.459673 85.351 -160.2951
10187.753217 85.188 -164.0843
10261.577877 84.963 -167.7801
10335.937500 84.679 -171.3384
10410.835964 84.342 -174.7222
10486.277173 83.957 -177.9017
10562.265060 83.531 179.1451
10638.803587 83.069 176.4330
10715.896743 82.578 173.9696
10793.548548 82.067 171.7553
10871.763050 81.541 169.7827
10950.544327 81.011 168.0354
11029.896485 80.484 166.4863
11109.823662 79.971 165.0963
11190.330024 79.482 163.8121
11271.419768 79.026 162.5672
11353.097122 78.614 161.2836
11435.366344 78.250 159.8764
11518.231722 77.936 158.2616
11601.697577 77.669 156.3638
11685.768261 77.440 154.1252
11770.448155 77.234 151.5124
11855.741674 77.034 148.5203
11941.653265 76.819 145.1745
12028.187408 76.572 141.5306
12115.348612 76.276 137.6714
12203.141422 75.918 133.7020
12291.570415 75.491 129.7425
12380.640201 74.992 125.9213
12470.355424 74.422 122.3674
12560.720760 73.788 119.2043
12651.740920 73.101 116.5423
12743.420650 72.379 114.4678
12835.764729 71.646 113.0250
12928.777972 70.936 112.1912
13022.465227 70.289 111.8508
13116.831378 69.756 111.7842
13211.881345 69.380 111.6904
13307.620084 69.194 111.2454
13404.052584 69.200 110.1740
13501.183875 69.374 108.2985
13599.019019 69.674 105.5496
13697.563116 70.050 101.9465
13796.821305 70.457 97.5673
13896.798760 70.860 92.5225
13997.500692 71.231 86.9370
14098.932352 71.555 80.9390
14201.099028 71.821 74.6533
14304.006046 72.024 68.1967
14407.658770 72.165 61.6741
14512.062604 72.249 55.1747
14617.222992 72.283 48.7690
14723.145416 72.279 42.5079
14829.835397 72.246 36.4238
14937.298497 72.198 30.5321
15045.540320 72.149 24.8345
15154.566507 72.110 19.3212
15264.382743 72.095 13.9725
15374.994752 72.117 8.7596
15486.408302 72.187 3.6436
15598.629201 72.312 -1.4255
15711.663298 72.497 -6.5080
15825.516487 72.741 -11.6730
15940.194703 73.037 -16.9934
16055.703925 73.372 -22.5409
16172.050174 73.730 -28.3785
16289.239516 74.092 -34.5571
16407.278061 74.441 -41.1110
16526.171961 74.761 -48.0570
16645.927415 75.035 -55.3938
16766.550667 75.252 -63.1033
16888.048005 75.402 -71.1517
17010.425762 75.478 -79.4937
17133.690320 75.474 -88.0759
17257.848103 75.390 -96.8417
17382.905584 75.223 -105.7341
17508.869284 74.977 -114.6996
17635.745768 74.652 -123.6895
17763.541652 74.256 -132.6637
17892.263597 73.794 -141.5972
18021.918315 73.278 -150.4877
18152.512564 72.722 -159.3657
18284.053153 72.146 -168.3044
18416.546939 71.572 -177.4246
18550.000830 71.024 173.1017
18684.421783 70.522 163.0586
18819.816805 70.082 152.2023
18956.192956 69.712 140.3072
19093.557344 69.409 127.2737
19231.917131 69.165 113.3209
19371.279531 68.971 99.1876
19511.651807 68.817 86.0909
19653.041280 68.701 75.3182
19795.455318 68.622 67.7854
19938.901348 68.581 63.9438
