* Measurement data measured by REW V5.31.3
* Source: EXCL: Headset (USB-C to 3.5mm Headphone Jack Adapter), MICROPHONE (Master Volume), 0, volume: 0.750
* Format: 256k Log Swept Sine, 1 sweep at -12.0 dBFS with no timing reference
* Dated: Apr 7, 2025 12:15:33 PM
* REW Settings:
*  C-weighting compensation: Off
*  Target level: 75.0 dB
* Note: ; 
* Measurement: HD6XX (Back) L8
* Smoothing: 1/6 octave
* Frequency Step: 96 ppo
* Start Frequency: 20.0 Hz
*
* Freq(Hz) SPL(dB) Phase(degrees)
20.187378 79.262 -96.4756
20.333664 79.288 -96.6001
20.481010 79.323 -96.7665
20.629424 79.368 -96.9696
20.778913 79.422 -97.2038
20.929486 79.486 -97.4639
21.081150 79.558 -97.7455
21.233912 79.638 -98.0451
21.387782 79.726 -98.3598
21.542767 79.820 -98.6878
21.698874 79.919 -99.0274
21.856113 80.022 -99.3772
22.014492 80.127 -99.7357
22.174018 80.232 -100.1009
22.334700 80.335 -100.4706
22.496546 80.435 -100.8417
22.659566 80.530 -101.2114
22.823766 80.621 -101.5763
22.989157 80.705 -101.9337
23.155745 80.783 -102.2814
23.323542 80.854 -102.6181
23.492554 80.920 -102.9440
23.662790 80.981 -103.2607
23.834261 81.038 -103.5715
24.006973 81.092 -103.8808
24.180938 81.143 -104.1940
24.356163 81.192 -104.5167
24.532658 81.240 -104.8543
24.710431 81.285 -105.2106
24.889493 81.329 -105.5881
25.069853 81.370 -105.9865
25.251519 81.407 -106.4032
25.434502 81.439 -106.8333
25.618811 81.467 -107.2693
25.804456 81.488 -107.7028
25.991445 81.504 -108.1246
26.179790 81.514 -108.5261
26.369500 81.519 -108.9004
26.560584 81.520 -109.2430
26.753053 81.519 -109.5532
26.946917 81.518 -109.8337
27.142185 81.518 -110.0911
27.338869 81.521 -110.3351
27.536977 81.528 -110.5773
27.736522 81.539 -110.8296
27.937512 81.556 -111.1028
28.139959 81.577 -111.4047
28.343872 81.603 -111.7390
28.549264 81.631 -112.1049
28.756143 81.662 -112.4972
28.964522 81.695 -112.9070
29.174411 81.729 -113.3236
29.385821 81.766 -113.7351
29.598763 81.805 -114.1312
29.813248 81.848 -114.5038
30.029287 81.895 -114.8478
30.246891 81.947 -115.1618
30.466073 82.004 -115.4472
30.686842 82.066 -115.7080
30.909212 82.133 -115.9490
31.133193 82.203 -116.1757
31.358797 82.277 -116.3928
31.586035 82.353 -116.6048
31.814921 82.431 -116.8151
32.045465 82.511 -117.0268
32.277680 82.592 -117.2430
32.511577 82.674 -117.4661
32.747169 82.758 -117.6985
32.984469 82.843 -117.9421
33.223488 82.929 -118.1979
33.464239 83.016 -118.4657
33.706735 83.104 -118.7448
33.950987 83.193 -119.0342
34.197010 83.283 -119.3329
34.444816 83.373 -119.6410
34.694417 83.465 -119.9599
34.945827 83.558 -120.2923
35.199059 83.652 -120.6415
35.454126 83.746 -121.0107
35.711041 83.839 -121.4024
35.969818 83.932 -121.8169
36.230470 84.023 -122.2526
36.493011 84.113 -122.7058
36.757455 84.201 -123.1710
37.023814 84.288 -123.6422
37.292104 84.374 -124.1133
37.562338 84.459 -124.5790
37.834530 84.544 -125.0349
38.108695 84.629 -125.4778
38.384846 84.712 -125.9054
38.662999 84.794 -126.3166
38.943167 84.874 -126.7107
39.225365 84.950 -127.0879
39.509608 85.024 -127.4491
39.795911 85.093 -127.7957
40.084289 85.159 -128.1297
40.374756 85.222 -128.4531
40.667328 85.281 -128.7675
40.962020 85.338 -129.0739
41.258848 85.393 -129.3722
41.557827 85.447 -129.6615
41.858972 85.501 -129.9405
42.162299 85.555 -130.2078
42.467824 85.609 -130.4625
42.775564 85.663 -130.7051
43.085533 85.717 -130.9370
43.397749 85.770 -131.1611
43.712227 85.823 -131.3811
44.028983 85.873 -131.6014
44.348036 85.921 -131.8261
44.669400 85.967 -132.0596
44.993093 86.011 -132.3053
45.319131 86.052 -132.5660
45.647532 86.091 -132.8434
45.978313 86.129 -133.1377
46.311491 86.164 -133.4472
46.647083 86.197 -133.7691
46.985107 86.228 -134.0993
47.325581 86.256 -134.4334
47.668521 86.283 -134.7675
48.013947 86.308 -135.0987
48.361876 86.331 -135.4253
48.712326 86.354 -135.7462
49.065315 86.377 -136.0608
49.420863 86.399 -136.3680
49.778987 86.422 -136.6661
50.139706 86.445 -136.9534
50.503039 86.469 -137.2288
50.869005 86.494 -137.4925
51.237623 86.518 -137.7462
51.608912 86.543 -137.9934
51.982891 86.567 -138.2377
52.359580 86.590 -138.4829
52.739000 86.611 -138.7310
53.121168 86.630 -138.9831
53.506106 86.647 -139.2387
53.893833 86.663 -139.4972
54.284370 86.677 -139.7577
54.677737 86.690 -140.0197
55.073955 86.704 -140.2828
55.473043 86.718 -140.5463
55.875024 86.733 -140.8088
56.279917 86.749 -141.0689
56.687745 86.766 -141.3250
57.098527 86.785 -141.5761
57.512287 86.806 -141.8223
57.929045 86.827 -142.0652
58.348822 86.851 -142.3081
58.771642 86.878 -142.5564
59.197525 86.907 -142.8170
59.626495 86.940 -143.0973
60.058573 86.977 -143.4025
60.493782 87.018 -143.7344
60.932145 87.061 -144.0907
61.373685 87.108 -144.4654
61.818424 87.157 -144.8510
62.266386 87.207 -145.2407
62.717593 87.260 -145.6294
63.172071 87.313 -146.0144
63.629842 87.367 -146.3945
64.090930 87.422 -146.7696
64.555359 87.477 -147.1399
65.023154 87.533 -147.5053
65.494339 87.589 -147.8651
65.968938 87.644 -148.2179
66.446976 87.700 -148.5615
66.928478 87.754 -148.8934
67.413469 87.808 -149.2117
67.901975 87.860 -149.5154
68.394021 87.911 -149.8056
68.889632 87.960 -150.0853
69.388835 88.007 -150.3593
69.891655 88.051 -150.6332
70.398118 88.092 -150.9126
70.908252 88.129 -151.2017
71.422083 88.163 -151.5026
71.939636 88.194 -151.8155
72.460941 88.221 -152.1387
72.986023 88.245 -152.4693
73.514909 88.266 -152.8042
74.047629 88.285 -153.1407
74.584208 88.300 -153.4770
75.124676 88.314 -153.8120
75.669061 88.326 -154.1451
76.217390 88.336 -154.4765
76.769692 88.345 -154.8060
77.325997 88.352 -155.1336
77.886333 88.359 -155.4591
78.450730 88.365 -155.7825
79.019216 88.369 -156.1037
79.591822 88.373 -156.4225
80.168577 88.375 -156.7389
80.749512 88.376 -157.0525
81.334656 88.377 -157.3631
81.924040 88.377 -157.6706
82.517696 88.377 -157.9748
83.115653 88.376 -158.2755
83.717943 88.374 -158.5723
84.324598 88.373 -158.8652
84.935649 88.370 -159.1542
85.551128 88.368 -159.4396
86.171066 88.365 -159.7220
86.795497 88.362 -160.0018
87.424453 88.359 -160.2796
88.057967 88.355 -160.5559
88.696071 88.352 -160.8309
89.338800 88.349 -161.1049
89.986185 88.347 -161.3781
90.638262 88.345 -161.6505
91.295065 88.343 -161.9222
91.956626 88.342 -162.1934
92.622982 88.341 -162.4642
93.294166 88.339 -162.7345
93.970214 88.337 -163.0045
94.651161 88.335 -163.2743
95.337042 88.332 -163.5436
96.027894 88.329 -163.8122
96.723752 88.326 -164.0792
97.424652 88.322 -164.3436
98.130631 88.318 -164.6038
98.841726 88.314 -164.8588
99.557974 88.310 -165.1078
100.279412 88.306 -165.3504
101.006078 88.302 -165.5874
101.738010 88.299 -165.8201
102.475245 88.297 -166.0507
103.217823 88.295 -166.2824
103.965782 88.295 -166.5189
104.719161 88.297 -166.7638
105.477999 88.299 -167.0202
106.242336 88.303 -167.2897
107.012212 88.308 -167.5720
107.787666 88.314 -167.8649
108.568740 88.320 -168.1650
109.355474 88.328 -168.4683
110.147909 88.337 -168.7707
110.946086 88.346 -169.0685
111.750047 88.356 -169.3592
112.559834 88.367 -169.6412
113.375489 88.379 -169.9144
114.197055 88.391 -170.1791
115.024574 88.404 -170.4364
115.858089 88.418 -170.6874
116.697645 88.431 -170.9332
117.543284 88.444 -171.1752
118.395051 88.456 -171.4147
119.252990 88.468 -171.6530
120.117147 88.479 -171.8913
120.987565 88.489 -172.1302
121.864291 88.498 -172.3702
122.747370 88.506 -172.6113
123.636848 88.513 -172.8530
124.532771 88.519 -173.0945
125.435187 88.524 -173.3353
126.344142 88.528 -173.5746
127.259684 88.531 -173.8124
128.181860 88.533 -174.0482
129.110718 88.534 -174.2821
130.046308 88.534 -174.5141
130.988677 88.533 -174.7442
131.937875 88.532 -174.9728
132.893951 88.529 -175.1999
133.856956 88.526 -175.4255
134.826938 88.521 -175.6495
135.803950 88.516 -175.8715
136.788041 88.509 -176.0910
137.779264 88.501 -176.3076
138.777669 88.491 -176.5209
139.783309 88.481 -176.7307
140.796237 88.469 -176.9368
141.816504 88.457 -177.1397
142.844165 88.443 -177.3397
143.879273 88.427 -177.5375
144.921881 88.411 -177.7338
145.972045 88.395 -177.9294
147.029819 88.377 -178.1249
148.095257 88.359 -178.3207
149.168417 88.341 -178.5172
150.249353 88.322 -178.7143
151.338121 88.303 -178.9119
152.434780 88.284 -179.1096
153.539385 88.265 -179.3066
154.651995 88.245 -179.5020
155.772667 88.226 -179.6949
156.901460 88.208 -179.8844
158.038432 88.189 179.9293
159.183644 88.171 179.7458
160.337154 88.153 179.5638
161.499023 88.135 179.3822
162.669312 88.118 179.2000
163.848081 88.101 179.0168
165.035392 88.084 178.8327
166.231306 88.068 178.6481
167.435887 88.051 178.4636
168.649196 88.035 178.2793
169.871298 88.019 178.0956
171.102255 88.003 177.9126
172.342133 87.987 177.7302
173.590995 87.971 177.5483
174.848907 87.955 177.3669
176.115934 87.939 177.1858
177.392143 87.922 177.0051
178.677599 87.905 176.8246
179.972371 87.888 176.6447
181.276525 87.869 176.4652
182.590129 87.850 176.2867
183.913252 87.830 176.1095
185.245964 87.809 175.9342
186.588332 87.787 175.7614
187.940428 87.764 175.5913
189.302322 87.741 175.4245
190.674085 87.717 175.2607
192.055788 87.692 175.0997
193.447503 87.667 174.9409
194.849303 87.642 174.7837
196.261262 87.616 174.6277
197.683452 87.590 174.4727
199.115948 87.564 174.3187
200.558824 87.537 174.1658
202.012156 87.510 174.0143
203.476019 87.482 173.8643
204.950490 87.454 173.7158
206.435646 87.426 173.5687
207.931564 87.398 173.4234
209.438322 87.371 173.2802
210.955998 87.343 173.1400
212.484672 87.316 173.0034
214.024424 87.290 172.8717
215.575333 87.265 172.7456
217.137481 87.241 172.6257
218.710948 87.219 172.5124
220.295818 87.197 172.4061
221.892172 87.178 172.3069
223.500094 87.159 172.2148
225.119668 87.142 172.1292
226.750978 87.126 172.0494
228.394109 87.110 171.9743
230.049147 87.095 171.9026
231.716178 87.081 171.8327
233.395289 87.067 171.7633
235.086567 87.054 171.6926
236.790102 87.041 171.6191
238.505980 87.029 171.5414
240.234293 87.017 171.4583
241.975130 87.006 171.3694
243.728581 86.996 171.2753
245.494739 86.987 171.1771
247.273695 86.978 171.0762
249.065542 86.970 170.9747
250.870374 86.963 170.8744
252.688284 86.957 170.7770
254.519367 86.952 170.6839
256.363720 86.946 170.5958
258.221437 86.941 170.5130
260.092616 86.936 170.4352
261.977354 86.931 170.3622
263.875750 86.926 170.2935
265.787903 86.921 170.2286
267.713911 86.916 170.1669
269.653877 86.911 170.1078
271.607900 86.906 170.0509
273.576083 86.902 169.9958
275.558528 86.897 169.9421
277.555338 86.893 169.8898
279.566619 86.889 169.8384
281.592474 86.886 169.7878
283.633009 86.882 169.7380
285.688331 86.878 169.6885
287.758546 86.874 169.6392
289.843763 86.871 169.5894
291.944090 86.867 169.5386
294.059638 86.863 169.4867
296.190515 86.859 169.4341
298.336833 86.856 169.3813
300.498705 86.853 169.3291
302.676243 86.850 169.2782
304.869559 86.847 169.2289
307.078770 86.846 169.1817
309.303989 86.845 169.1363
311.545334 86.845 169.0927
313.802919 86.846 169.0504
316.076865 86.848 169.0091
318.367288 86.850 168.9684
320.674309 86.852 168.9281
322.998047 86.855 168.8885
325.338624 86.857 168.8498
327.696162 86.859 168.8128
330.070783 86.860 168.7783
332.462612 86.861 168.7469
334.871773 86.860 168.7193
337.298392 86.857 168.6957
339.742595 86.854 168.6760
342.204510 86.849 168.6595
344.684265 86.843 168.6456
347.181989 86.835 168.6333
349.697813 86.827 168.6225
352.231868 86.818 168.6131
354.784285 86.807 168.6056
357.355198 86.796 168.6005
359.944741 86.783 168.5986
362.553049 86.770 168.6006
365.180258 86.755 168.6071
367.826505 86.740 168.6179
370.491927 86.724 168.6328
373.176665 86.708 168.6509
375.880856 86.691 168.6714
378.604644 86.675 168.6932
381.348169 86.658 168.7151
384.111575 86.641 168.7362
386.895006 86.625 168.7557
389.698607 86.608 168.7731
392.522524 86.591 168.7886
395.366904 86.574 168.8024
398.231895 86.557 168.8154
401.117648 86.540 168.8285
404.024312 86.523 168.8426
406.952038 86.505 168.8585
409.900981 86.486 168.8765
412.871292 86.467 168.8966
415.863128 86.448 168.9183
418.876643 86.427 168.9408
421.911996 86.406 168.9631
424.969344 86.384 168.9846
428.048847 86.360 169.0045
431.150666 86.335 169.0227
434.274961 86.308 169.0390
437.421897 86.280 169.0533
440.591636 86.250 169.0664
443.784345 86.219 169.0791
447.000189 86.187 169.0927
450.239337 86.153 169.1085
453.501956 86.118 169.1273
456.788219 86.083 169.1497
460.098294 86.047 169.1758
463.432356 86.011 169.2055
466.790578 85.976 169.2386
470.173135 85.941 169.2748
473.580203 85.906 169.3138
477.011961 85.873 169.3550
480.468586 85.841 169.3980
483.950259 85.809 169.4427
487.457163 85.779 169.4889
490.989478 85.750 169.5367
494.547390 85.722 169.5859
498.131084 85.695 169.6367
501.740748 85.668 169.6888
505.376568 85.643 169.7420
509.038735 85.620 169.7961
512.727439 85.597 169.8509
516.442874 85.577 169.9060
520.185232 85.558 169.9612
523.954708 85.542 170.0163
527.751500 85.527 170.0709
531.575805 85.515 170.1248
535.427822 85.506 170.1780
539.307753 85.498 170.2306
543.215800 85.493 170.2827
547.152165 85.491 170.3348
551.117055 85.490 170.3874
555.110677 85.492 170.4407
559.133237 85.495 170.4949
563.184947 85.501 170.5501
567.266018 85.508 170.6064
571.376661 85.517 170.6636
575.517092 85.527 170.7217
579.687526 85.538 170.7805
583.888181 85.550 170.8399
588.119275 85.562 170.8997
592.381030 85.574 170.9601
596.673667 85.586 171.0211
600.997410 85.598 171.0831
605.352485 85.609 171.1464
609.739119 85.620 171.2111
614.157540 85.630 171.2773
618.607979 85.639 171.3450
623.090667 85.647 171.4139
627.605839 85.655 171.4835
632.153730 85.662 171.5532
636.734576 85.668 171.6227
641.348617 85.673 171.6913
645.996094 85.678 171.7587
650.677248 85.681 171.8251
655.392323 85.683 171.8903
660.141566 85.685 171.9543
664.925224 85.685 172.0170
669.743546 85.685 172.0779
674.596784 85.683 172.1363
679.485191 85.681 172.1914
684.409020 85.678 172.2424
689.368530 85.673 172.2889
694.363979 85.668 172.3309
699.395626 85.661 172.3687
704.463736 85.653 172.4030
709.568570 85.644 172.4348
714.710396 85.633 172.4649
719.889483 85.621 172.4938
725.106099 85.608 172.5215
730.360516 85.595 172.5476
735.653010 85.580 172.5715
740.983855 85.564 172.5923
746.353329 85.547 172.6092
751.761713 85.529 172.6210
757.209288 85.510 172.6270
762.696339 85.489 172.6264
768.223151 85.467 172.6187
773.790013 85.443 172.6038
779.397214 85.417 172.5817
785.045047 85.389 172.5528
790.733808 85.359 172.5177
796.463791 85.327 172.4772
802.235296 85.293 172.4323
808.048623 85.257 172.3840
813.904077 85.220 172.3339
819.801961 85.180 172.2842
825.742584 85.137 172.2375
831.726255 85.092 172.1978
837.753287 85.045 172.1693
843.823992 84.995 172.1572
849.938689 84.942 172.1666
856.097695 84.888 172.2032
862.301332 84.832 172.2721
868.549922 84.776 172.3779
874.843793 84.720 172.5240
881.183272 84.666 172.7121
887.568689 84.615 172.9416
894.000378 84.568 173.2093
900.478673 84.528 173.5096
907.003913 84.494 173.8350
913.576437 84.468 174.1768
920.196588 84.450 174.5257
926.864712 84.440 174.8730
933.581156 84.438 175.2110
940.346270 84.443 175.5335
947.160407 84.455 175.8358
954.023921 84.473 176.1148
960.937172 84.496 176.3685
967.900519 84.524 176.5961
974.914325 84.555 176.7975
981.978956 84.591 176.9733
989.094780 84.629 177.1249
996.262169 84.670 177.2542
1003.481495 84.712 177.3634
1010.753136 84.757 177.4549
1018.077470 84.803 177.5309
1025.454879 84.850 177.5934
1032.885748 84.899 177.6439
1040.370463 84.948 177.6833
1047.909417 84.998 177.7123
1055.503000 85.050 177.7313
1063.151610 85.101 177.7408
1070.855645 85.152 177.7416
1078.615506 85.204 177.7352
1086.431599 85.255 177.7234
1094.304330 85.305 177.7084
1102.234110 85.354 177.6921
1110.221353 85.402 177.6761
1118.266475 85.450 177.6616
1126.369895 85.497 177.6487
1134.532035 85.543 177.6372
1142.753322 85.589 177.6267
1151.034184 85.634 177.6167
1159.375052 85.678 177.6068
1167.776361 85.722 177.5971
1176.238550 85.765 177.5884
1184.762060 85.807 177.5818
1193.347334 85.849 177.5785
1201.994821 85.890 177.5793
1210.704971 85.931 177.5845
1219.478238 85.972 177.5931
1228.315080 86.014 177.6039
1237.215957 86.057 177.6151
1246.181334 86.100 177.6246
1255.211678 86.144 177.6312
1264.307459 86.188 177.6338
1273.469152 86.232 177.6321
1282.697235 86.277 177.6263
1291.992188 86.321 177.6169
1301.354495 86.364 177.6044
1310.784647 86.407 177.5896
1320.283132 86.450 177.5728
1329.850448 86.492 177.5546
1339.487093 86.533 177.5353
1349.193569 86.574 177.5159
1358.970381 86.614 177.4973
1368.818041 86.654 177.4803
1378.737061 86.694 177.4656
1388.727958 86.734 177.4531
1398.791253 86.774 177.4426
1408.927471 86.814 177.4339
1419.137140 86.855 177.4268
1429.420793 86.897 177.4218
1439.778965 86.939 177.4200
1450.212197 86.981 177.4235
1460.721033 87.024 177.4347
1471.306019 87.068 177.4559
1481.967709 87.112 177.4888
1492.706658 87.156 177.5339
1503.523426 87.202 177.5909
1514.418576 87.248 177.6591
1525.392678 87.295 177.7371
1536.446302 87.342 177.8241
1547.580025 87.389 177.9187
1558.794428 87.436 178.0198
1570.090095 87.481 178.1257
1581.467615 87.526 178.2341
1592.927581 87.569 178.3427
1604.470591 87.611 178.4489
1616.097246 87.650 178.5513
1627.808153 87.685 178.6493
1639.603922 87.717 178.7443
1651.485168 87.744 178.8393
1663.452510 87.766 178.9388
1675.506573 87.784 179.0481
1687.647984 87.798 179.1721
1699.877377 87.808 179.3149
1712.195390 87.817 179.4782
1724.602663 87.824 179.6614
1737.099845 87.831 179.8613
1749.687587 87.839 -179.9271
1762.366544 87.848 -179.7096
1775.137379 87.858 -179.4915
1788.000756 87.869 -179.2768
1800.957346 87.880 -179.0681
1814.007826 87.890 -178.8667
1827.152874 87.900 -178.6729
1840.393177 87.909 -178.4859
1853.729425 87.917 -178.3042
1867.162312 87.922 -178.1254
1880.692540 87.925 -177.9469
1894.320813 87.925 -177.7660
1908.047843 87.924 -177.5808
1921.874344 87.920 -177.3903
1935.801038 87.915 -177.1950
1949.828650 87.909 -176.9965
1963.957912 87.902 -176.7968
1978.189561 87.893 -176.5981
1992.524338 87.883 -176.4019
2006.962991 87.871 -176.2094
2021.506272 87.859 -176.0216
2036.154940 87.845 -175.8391
2050.909758 87.831 -175.6621
2065.771495 87.815 -175.4905
2080.740927 87.799 -175.3241
2095.818833 87.783 -175.1626
2111.006001 87.766 -175.0062
2126.303220 87.750 -174.8556
2141.711290 87.734 -174.7115
2157.231013 87.720 -174.5746
2172.863198 87.706 -174.4451
2188.608660 87.693 -174.3229
2204.468221 87.682 -174.2085
2220.442706 87.672 -174.1025
2236.532950 87.664 -174.0061
2252.739789 87.657 -173.9207
2269.064070 87.653 -173.8478
2285.506644 87.649 -173.7881
2302.068367 87.647 -173.7413
2318.750104 87.645 -173.7060
2335.552723 87.644 -173.6798
2352.477101 87.644 -173.6600
2369.524119 87.645 -173.6439
2386.694668 87.647 -173.6292
2403.989641 87.651 -173.6143
2421.409941 87.657 -173.5991
2438.956476 87.666 -173.5840
2456.630160 87.679 -173.5703
2474.431915 87.694 -173.5596
2492.362668 87.714 -173.5540
2510.423356 87.738 -173.5556
2528.614918 87.765 -173.5662
2546.938304 87.796 -173.5866
2565.394469 87.830 -173.6168
2583.984375 87.867 -173.6555
2602.708991 87.907 -173.7004
2621.569293 87.950 -173.7490
2640.566265 87.995 -173.7987
2659.700897 88.044 -173.8478
2678.974186 88.095 -173.8954
2698.387137 88.151 -173.9417
2717.940763 88.210 -173.9880
2737.636082 88.272 -174.0367
2757.474121 88.339 -174.0907
2777.455915 88.409 -174.1533
2797.582506 88.483 -174.2278
2817.854942 88.558 -174.3162
2838.274281 88.636 -174.4201
2858.841586 88.714 -174.5398
2879.557931 88.792 -174.6748
2900.424394 88.870 -174.8238
2921.442065 88.946 -174.9856
2942.612039 89.021 -175.1590
2963.935418 89.093 -175.3424
2985.413316 89.162 -175.5341
3007.046852 89.227 -175.7324
3028.837153 89.288 -175.9353
3050.785356 89.345 -176.1415
3072.892604 89.397 -176.3499
3095.160050 89.443 -176.5596
3117.588856 89.484 -176.7702
3140.180190 89.519 -176.9815
3162.935230 89.548 -177.1939
3185.855163 89.571 -177.4080
3208.941182 89.587 -177.6245
3232.194493 89.596 -177.8438
3255.616307 89.597 -178.0660
3279.207844 89.591 -178.2905
3302.970336 89.577 -178.5166
3326.905021 89.555 -178.7432
3351.013146 89.525 -178.9690
3375.295969 89.488 -179.1929
3399.754755 89.444 -179.4137
3424.390779 89.392 -179.6297
3449.205326 89.333 -179.8397
3474.199690 89.268 179.9581
3499.375173 89.198 179.7661
3524.733088 89.121 179.5866
3550.274757 89.040 179.4227
3576.001511 88.954 179.2773
3601.914692 88.866 179.1525
3628.015651 88.775 179.0502
3654.305748 88.683 178.9716
3680.786354 88.591 178.9175
3707.458849 88.499 178.8890
3734.324624 88.409 178.8871
3761.385080 88.321 178.9133
3788.641627 88.236 178.9692
3816.095686 88.154 179.0567
3843.748688 88.077 179.1775
3871.602076 88.004 179.3333
3899.657300 87.938 179.5255
3927.915825 87.877 179.7552
3956.379122 87.824 -179.9762
3985.048676 87.778 -179.6677
4013.925981 87.740 -179.3181
4043.012544 87.710 -178.9260
4072.309879 87.689 -178.4907
4101.819515 87.677 -178.0120
4131.542990 87.675 -177.4912
4161.481854 87.684 -176.9311
4191.637667 87.704 -176.3365
4222.012001 87.736 -175.7143
4252.606441 87.780 -175.0735
4283.422580 87.835 -174.4252
4314.462026 87.904 -173.7820
4345.726396 87.983 -173.1580
4377.217321 88.075 -172.5681
4408.936442 88.176 -172.0280
4440.885413 88.286 -171.5529
4473.065899 88.403 -171.1571
4505.479579 88.526 -170.8525
4538.128141 88.651 -170.6483
4571.013288 88.778 -170.5500
4604.136735 88.903 -170.5600
4637.500207 89.025 -170.6775
4671.105446 89.142 -170.8989
4704.954201 89.253 -171.2190
4739.048239 89.356 -171.6308
4773.389336 89.451 -172.1270
4807.979283 89.537 -172.6995
4842.819883 89.614 -173.3408
4877.912952 89.683 -174.0437
4913.260320 89.742 -174.8018
4948.863830 89.792 -175.6095
4984.725337 89.833 -176.4617
5020.846712 89.866 -177.3540
5057.229836 89.888 -178.2814
5093.876609 89.902 -179.2387
5130.788938 89.905 179.7802
5167.968750 89.897 178.7822
5205.417982 89.879 177.7756
5243.138586 89.849 176.7698
5281.132530 89.807 175.7753
5319.401793 89.754 174.8036
5357.948371 89.690 173.8664
5396.774274 89.615 172.9752
5435.881525 89.530 172.1405
5475.272163 89.437 171.3716
5514.948243 89.338 170.6755
5554.911831 89.233 170.0571
5595.165012 89.125 169.5185
5635.709884 89.015 169.0589
5676.548561 88.905 168.6750
5717.683172 88.795 168.3613
5759.115861 88.687 168.1102
5800.848789 88.581 167.9135
5842.884130 88.476 167.7626
5885.224077 88.372 167.6498
5927.870837 88.267 167.5698
5970.826633 88.160 167.5203
6014.093704 88.048 167.5032
6057.674306 87.931 167.5246
6101.570711 87.807 167.5945
6145.785208 87.674 167.7262
6190.320101 87.532 167.9354
6235.177712 87.381 168.2400
6280.360380 87.222 168.6591
6325.870460 87.056 169.2121
6371.710325 86.885 169.9178
6417.882365 86.712 170.7930
6464.388986 86.541 171.8519
6511.232613 86.375 173.1049
6558.415689 86.221 174.5568
6605.940673 86.083 176.2058
6653.810042 85.968 178.0417
6702.026292 85.881 -179.9551
6750.591937 85.829 -177.8154
6799.509509 85.817 -175.5809
6848.781558 85.849 -173.3050
6898.410653 85.929 -171.0506
6948.399380 86.058 -168.8875
6998.750346 86.235 -166.8882
7049.466176 86.456 -165.1222
7100.549514 86.715 -163.6516
7152.003023 87.005 -162.5265
7203.829385 87.317 -161.7826
7256.031302 87.643 -161.4407
7308.611496 87.972 -161.5074
7361.572708 88.296 -161.9775
7414.917698 88.606 -162.8359
7468.649249 88.896 -164.0608
7522.770160 89.159 -165.6259
7577.283253 89.390 -167.5020
7632.191371 89.583 -169.6584
7687.497376 89.735 -172.0634
7743.204151 89.841 -174.6849
7799.314600 89.899 -177.4898
7855.831649 89.905 179.5563
7912.758244 89.857 176.4902
7970.097352 89.751 173.3519
8027.851962 89.585 170.1865
8086.025087 89.355 167.0464
8144.619758 89.061 163.9937
8203.639030 88.700 161.1040
8263.085980 88.272 158.4710
8322.963708 87.776 156.2136
8383.275334 87.216 154.4849
8444.024002 86.597 153.4869
8505.212881 85.927 153.4899
8566.845160 85.222 154.8555
8628.924051 84.502 158.0497
8691.452792 83.796 163.5933
8754.434642 83.143 171.8313
8817.872884 82.586 -177.5703
8881.770826 82.165 -166.0185
8946.131799 81.911 -155.4112
9010.959157 81.833 -146.9475
9076.256282 81.919 -140.7927
9142.026576 82.138 -136.5656
9208.273470 82.457 -133.7909
9275.000415 82.841 -132.0768
9342.210891 83.265 -131.1428
9409.908403 83.707 -130.7996
9478.096478 84.154 -130.9233
9546.778672 84.596 -131.4346
9615.958566 85.026 -132.2833
9685.639765 85.438 -133.4376
9755.825904 85.828 -134.8757
9826.520640 86.191 -136.5812
9897.727659 86.523 -138.5385
9969.450674 86.820 -140.7305
10041.693423 87.078 -143.1370
10114.459673 87.292 -145.7336
10187.753217 87.461 -148.4919
10261.577877 87.582 -151.3795
10335.937500 87.652 -154.3612
10410.835964 87.672 -157.4005
10486.277173 87.642 -160.4612
10562.265060 87.563 -163.5084
10638.803587 87.437 -166.5109
10715.896743 87.268 -169.4416
10793.548548 87.058 -172.2781
10871.763050 86.811 -175.0032
10950.544327 86.531 -177.6047
11029.896485 86.222 179.9257
11109.823662 85.887 177.5927
11190.330024 85.529 175.3991
11271.419768 85.151 173.3464
11353.097122 84.756 171.4365
11435.366344 84.345 169.6721
11518.231722 83.920 168.0579
11601.697577 83.484 166.5994
11685.768261 83.039 165.3026
11770.448155 82.589 164.1710
11855.741674 82.140 163.2029
11941.653265 81.698 162.3879
12028.187408 81.270 161.7038
12115.348612 80.865 161.1155
12203.141422 80.493 160.5757
12291.570415 80.162 160.0264
12380.640201 79.882 159.4019
12470.355424 79.659 158.6317
12560.720760 79.498 157.6437
12651.740920 79.399 156.3666
12743.420650 79.362 154.7331
12835.764729 79.379 152.6833
12928.777972 79.443 150.1678
13022.465227 79.540 147.1494
13116.831378 79.659 143.6049
13211.881345 79.787 139.5250
13307.620084 79.914 134.9126
13404.052584 80.031 129.7805
13501.183875 80.135 124.1476
13599.019019 80.224 118.0346
13697.563116 80.300 111.4597
13796.821305 80.367 104.4355
13896.798760 80.430 96.9680
13997.500692 80.494 89.0580
14098.932352 80.561 80.7037
14201.099028 80.630 71.9065
14304.006046 80.699 62.6751
14407.658770 80.760 53.0316
14512.062604 80.806 43.0151
14617.222992 80.825 32.6829
14723.145416 80.809 22.1100
14829.835397 80.750 11.3851
14937.298497 80.644 0.6023
15045.540320 80.487 -10.1459
15154.566507 80.281 -20.7781
15264.382743 80.031 -31.2291
15374.994752 79.742 -41.4543
15486.408302 79.423 -51.4308
15598.629201 79.084 -61.1567
15711.663298 78.734 -70.6482
15825.516487 78.382 -79.9359
15940.194703 78.034 -89.0582
16055.703925 77.691 -98.0552
16172.050174 77.348 -106.9594
16289.239516 76.998 -115.7907
16407.278061 76.629 -124.5505
16526.171961 76.229 -133.2222
16645.927415 75.787 -141.7737
16766.550667 75.296 -150.1644
16888.048005 74.749 -158.3486
17010.425762 74.146 -166.2780
17133.690320 73.487 -173.9014
17257.848103 72.774 178.8376
17382.905584 72.012 172.0045
17508.869284 71.209 165.6738
17635.745768 70.374 159.9266
17763.541652 69.522 154.8387
17892.263597 68.675 150.4523
18021.918315 67.859 146.7303
18152.512564 67.108 143.5023
18284.053153 66.459 140.4330
18416.546939 65.941 137.0592
18550.000830 65.567 132.9020
18684.421783 65.330 127.6046
18819.816805 65.204 121.0239
18956.192956 65.153 113.2560
19093.557344 65.140 104.6248
19231.917131 65.137 95.6421
19371.279531 65.128 86.9376
19511.651807 65.106 79.1553
19653.041280 65.076 72.8530
19795.455318 65.047 68.4412
19938.901348 65.030 66.1756
