* Measurement data measured by REW V5.31.3
* Source: EXCL: Headset (USB-C to 3.5mm Headphone Jack Adapter), MICROPHONE (Master Volume), 0, volume: 0.750
* Format: 256k Log Swept Sine, 1 sweep at -12.0 dBFS with no timing reference
* Dated: Apr 1, 2025 10:15:40 PM
* REW Settings:
*  C-weighting compensation: Off
*  Target level: 75.0 dB
* Note: ; 
* Measurement: HD6XX R3
* Smoothing: 1/6 octave
* Frequency Step: 96 ppo
* Start Frequency: 20.0 Hz
*
* Freq(Hz) SPL(dB) Phase(degrees)
20.033247 84.695 -93.6590
20.178416 84.763 -93.9810
20.324637 84.835 -94.2981
20.471918 84.910 -94.6112
20.620266 84.989 -94.9218
20.769689 85.073 -95.2315
20.920195 85.160 -95.5417
21.071791 85.251 -95.8535
21.224486 85.346 -96.1675
21.378287 85.443 -96.4837
21.533203 85.542 -96.8014
21.689242 85.643 -97.1195
21.846411 85.744 -97.4361
22.004719 85.845 -97.7495
22.164174 85.946 -98.0578
22.324785 86.045 -98.3593
22.486559 86.143 -98.6529
22.649506 86.239 -98.9384
22.813634 86.332 -99.2159
22.978951 86.421 -99.4863
23.145466 86.508 -99.7509
23.313188 86.590 -100.0114
23.482124 86.668 -100.2689
23.652286 86.741 -100.5248
23.823680 86.810 -100.7794
23.996316 86.873 -101.0327
24.170203 86.932 -101.2840
24.345351 86.985 -101.5322
24.521767 87.035 -101.7761
24.699462 87.082 -102.0150
24.878444 87.126 -102.2485
25.058724 87.168 -102.4775
25.240310 87.210 -102.7039
25.423211 87.251 -102.9307
25.607438 87.294 -103.1618
25.793000 87.338 -103.4014
25.979907 87.382 -103.6538
26.168168 87.428 -103.9224
26.357794 87.474 -104.2094
26.548793 87.520 -104.5153
26.741176 87.564 -104.8388
26.934954 87.607 -105.1770
27.130136 87.649 -105.5257
27.326732 87.688 -105.8801
27.524753 87.725 -106.2353
27.724208 87.761 -106.5875
27.925110 87.796 -106.9340
28.127466 87.831 -107.2742
28.331290 87.867 -107.6089
28.536590 87.904 -107.9409
28.743378 87.942 -108.2735
28.951664 87.982 -108.6105
29.161460 88.023 -108.9551
29.372776 88.064 -109.3092
29.585623 88.106 -109.6731
29.800013 88.148 -110.0456
30.015956 88.190 -110.4238
30.233464 88.232 -110.8042
30.452548 88.274 -111.1829
30.673220 88.318 -111.5563
30.895490 88.363 -111.9219
31.119372 88.411 -112.2784
31.344876 88.463 -112.6259
31.572014 88.520 -112.9654
31.800797 88.581 -113.2990
32.031239 88.648 -113.6292
32.263351 88.720 -113.9583
32.497144 88.798 -114.2885
32.732632 88.881 -114.6213
32.969826 88.967 -114.9576
33.208739 89.058 -115.2976
33.449383 89.152 -115.6409
33.691771 89.249 -115.9867
33.935916 89.347 -116.3338
34.181829 89.448 -116.6809
34.429525 89.549 -117.0267
34.679015 89.652 -117.3705
34.930314 89.755 -117.7117
35.183433 89.859 -118.0506
35.438387 89.963 -118.3877
35.695188 90.067 -118.7242
35.953850 90.170 -119.0616
36.214387 90.273 -119.4011
36.476811 90.374 -119.7439
36.741137 90.474 -120.0909
37.007378 90.571 -120.4424
37.275549 90.666 -120.7983
37.545663 90.759 -121.1582
37.817734 90.848 -121.5215
38.091777 90.934 -121.8872
38.367806 91.018 -122.2542
38.645835 91.098 -122.6213
38.925879 91.175 -122.9871
39.207952 91.250 -123.3506
39.492069 91.322 -123.7108
39.778244 91.392 -124.0672
40.066494 91.461 -124.4202
40.356832 91.528 -124.7705
40.649275 91.595 -125.1194
40.943836 91.660 -125.4684
41.240532 91.725 -125.8189
41.539378 91.788 -126.1720
41.840389 91.851 -126.5284
42.143582 91.912 -126.8881
42.448972 91.973 -127.2508
42.756574 92.031 -127.6157
43.066406 92.088 -127.9822
43.378483 92.144 -128.3492
43.692822 92.198 -128.7160
44.009438 92.250 -129.0821
44.328348 92.300 -129.4470
44.649570 92.348 -129.8105
44.973119 92.395 -130.1725
45.299013 92.439 -130.5331
45.627268 92.482 -130.8924
45.957902 92.522 -131.2507
46.290932 92.561 -131.6081
46.626375 92.597 -131.9650
46.964249 92.631 -132.3215
47.304571 92.663 -132.6781
47.647360 92.693 -133.0350
47.992632 92.721 -133.3925
48.340407 92.747 -133.7505
48.690701 92.770 -134.1089
49.043534 92.792 -134.4671
49.398924 92.811 -134.8241
49.756889 92.829 -135.1788
50.117447 92.845 -135.5298
50.480619 92.859 -135.8757
50.846423 92.871 -136.2151
51.214877 92.882 -136.5469
51.586001 92.893 -136.8703
51.959814 92.902 -137.1853
52.336336 92.911 -137.4918
52.715587 92.919 -137.7903
53.097586 92.927 -138.0810
53.482353 92.935 -138.3644
53.869908 92.942 -138.6406
54.260272 92.948 -138.9097
54.653464 92.955 -139.1717
55.049506 92.961 -139.4267
55.448417 92.967 -139.6746
55.850219 92.973 -139.9156
56.254933 92.980 -140.1498
56.662579 92.988 -140.3774
57.073180 92.997 -140.5989
57.486755 93.008 -140.8153
57.903328 93.021 -141.0280
58.322919 93.037 -141.2393
58.745551 93.057 -141.4523
59.171246 93.081 -141.6706
59.600025 93.109 -141.8976
60.031911 93.141 -142.1356
60.466927 93.175 -142.3859
60.905096 93.213 -142.6480
61.346439 93.254 -142.9202
61.790981 93.297 -143.2004
62.238744 93.342 -143.4860
62.689751 93.388 -143.7746
63.144027 93.437 -144.0639
63.601595 93.487 -144.3522
64.062478 93.538 -144.6380
64.526701 93.591 -144.9203
64.994288 93.645 -145.1991
65.465264 93.700 -145.4749
65.939652 93.757 -145.7492
66.417478 93.814 -146.0238
66.898766 93.871 -146.3007
67.383542 93.929 -146.5818
67.871831 93.986 -146.8685
68.363659 94.042 -147.1615
68.859050 94.097 -147.4608
69.358031 94.150 -147.7661
69.860628 94.201 -148.0766
70.366867 94.249 -148.3912
70.876774 94.296 -148.7090
71.390376 94.339 -149.0292
71.907700 94.380 -149.3512
72.428773 94.418 -149.6745
72.953622 94.453 -149.9986
73.482274 94.485 -150.3230
74.014757 94.514 -150.6477
74.551098 94.541 -150.9724
75.091326 94.564 -151.2975
75.635469 94.586 -151.6232
76.183555 94.604 -151.9499
76.735612 94.621 -152.2780
77.291670 94.636 -152.6074
77.851757 94.648 -152.9382
78.415903 94.659 -153.2700
78.984137 94.669 -153.6023
79.556489 94.678 -153.9344
80.132988 94.685 -154.2655
80.713665 94.692 -154.5948
81.298549 94.698 -154.9216
81.887672 94.703 -155.2456
82.481064 94.708 -155.5668
83.078756 94.713 -155.8855
83.680778 94.717 -156.2018
84.287164 94.721 -156.5162
84.897943 94.724 -156.8287
85.513149 94.727 -157.1399
86.132812 94.729 -157.4499
86.756966 94.730 -157.7589
87.385643 94.731 -158.0670
88.018875 94.732 -158.3738
88.656696 94.732 -158.6792
89.299139 94.733 -158.9832
89.946238 94.733 -159.2858
90.598025 94.734 -159.5874
91.254536 94.735 -159.8884
91.915804 94.736 -160.1891
92.581864 94.736 -160.4895
93.252750 94.737 -160.7896
93.928498 94.737 -161.0892
94.609143 94.737 -161.3882
95.294719 94.736 -161.6863
95.985264 94.735 -161.9834
96.680813 94.733 -162.2794
97.381402 94.732 -162.5742
98.087068 94.729 -162.8676
98.797847 94.727 -163.1596
99.513777 94.725 -163.4501
100.234895 94.723 -163.7386
100.961238 94.721 -164.0252
101.692845 94.720 -164.3098
102.429753 94.720 -164.5923
103.172002 94.720 -164.8733
103.919628 94.721 -165.1529
104.672673 94.723 -165.4317
105.431174 94.726 -165.7102
106.195172 94.730 -165.9888
106.964706 94.735 -166.2679
107.739816 94.741 -166.5476
108.520543 94.748 -166.8281
109.306928 94.755 -167.1093
110.099011 94.763 -167.3909
110.896834 94.772 -167.6724
111.700438 94.782 -167.9534
112.509866 94.792 -168.2333
113.325158 94.802 -168.5116
114.146359 94.812 -168.7877
114.973511 94.822 -169.0616
115.806656 94.831 -169.3334
116.645839 94.841 -169.6032
117.491103 94.850 -169.8716
118.342492 94.858 -170.1388
119.200050 94.866 -170.4052
120.063823 94.873 -170.6709
120.933855 94.880 -170.9355
121.810191 94.886 -171.1984
122.692878 94.892 -171.4588
123.581962 94.897 -171.7156
124.477487 94.902 -171.9678
125.379503 94.906 -172.2147
126.288054 94.909 -172.4557
127.203189 94.911 -172.6911
128.124956 94.912 -172.9212
129.053402 94.912 -173.1473
129.988577 94.912 -173.3706
130.930527 94.911 -173.5925
131.879304 94.909 -173.8143
132.834956 94.906 -174.0371
133.797533 94.903 -174.2616
134.767085 94.898 -174.4881
135.743663 94.893 -174.7169
136.727317 94.887 -174.9475
137.718100 94.880 -175.1794
138.716062 94.871 -175.4119
139.721255 94.861 -175.6445
140.733733 94.850 -175.8767
141.753548 94.838 -176.1079
142.780753 94.824 -176.3380
143.815401 94.809 -176.5665
144.857546 94.793 -176.7931
145.907244 94.777 -177.0176
146.964548 94.759 -177.2397
148.029514 94.740 -177.4592
149.102197 94.721 -177.6759
150.182652 94.702 -177.8898
151.270938 94.681 -178.1011
152.367109 94.661 -178.3100
153.471224 94.640 -178.5170
154.583340 94.619 -178.7224
155.703515 94.598 -178.9264
156.831807 94.577 -179.1293
157.968274 94.555 -179.3310
159.112978 94.534 -179.5314
160.265976 94.513 -179.7307
161.427329 94.492 -179.9289
162.597098 94.472 179.8738
163.775344 94.451 179.6771
164.962128 94.431 179.4811
166.157511 94.411 179.2858
167.361557 94.391 179.0913
168.574328 94.372 178.8981
169.795887 94.352 178.7063
171.026298 94.333 178.5162
172.265625 94.313 178.3278
173.513933 94.293 178.1413
174.771286 94.272 177.9567
176.037751 94.251 177.7742
177.313393 94.230 177.5938
178.598279 94.209 177.4157
179.892476 94.187 177.2400
181.196051 94.165 177.0665
182.509072 94.142 176.8953
183.831608 94.119 176.7263
185.163728 94.096 176.5595
186.505500 94.071 176.3952
187.856996 94.046 176.2332
189.218285 94.020 176.0733
190.589439 93.993 175.9151
191.970529 93.965 175.7581
193.361626 93.936 175.6017
194.762804 93.907 175.4457
196.174136 93.876 175.2901
197.595694 93.845 175.1355
199.027554 93.814 174.9827
200.469790 93.783 174.8328
201.922477 93.752 174.6870
203.385690 93.721 174.5458
204.859507 93.691 174.4099
206.344003 93.661 174.2793
207.839257 93.632 174.1537
209.345346 93.603 174.0323
210.862348 93.574 173.9147
212.390344 93.546 173.8006
213.929412 93.518 173.6900
215.479633 93.491 173.5834
217.041087 93.464 173.4814
218.613856 93.438 173.3843
220.198022 93.413 173.2926
221.793668 93.389 173.2067
223.400876 93.367 173.1267
225.019731 93.345 173.0524
226.650317 93.326 172.9834
228.292718 93.308 172.9186
229.947022 93.292 172.8572
231.613312 93.278 172.7979
233.291678 93.265 172.7394
234.982206 93.254 172.6808
236.684984 93.245 172.6211
238.400101 93.236 172.5596
240.127646 93.229 172.4957
241.867710 93.223 172.4291
243.620383 93.218 172.3594
245.385757 93.214 172.2863
247.163923 93.211 172.2099
248.954975 93.208 172.1304
250.759005 93.206 172.0485
252.576108 93.203 171.9649
254.406379 93.201 171.8807
256.249912 93.199 171.7968
258.106805 93.196 171.7140
259.977153 93.193 171.6325
261.861055 93.189 171.5528
263.758608 93.185 171.4749
265.669911 93.180 171.3990
267.595065 93.174 171.3253
269.534169 93.168 171.2540
271.487325 93.161 171.1848
273.454634 93.154 171.1175
275.436199 93.147 171.0518
277.432123 93.139 170.9875
279.442511 93.132 170.9247
281.467467 93.125 170.8634
283.507096 93.118 170.8041
285.561505 93.112 170.7475
287.630801 93.106 170.6939
289.715093 93.100 170.6440
291.814488 93.095 170.5976
293.929096 93.090 170.5548
296.059027 93.086 170.5151
298.204393 93.082 170.4781
300.365305 93.079 170.4432
302.541876 93.076 170.4103
304.734219 93.074 170.3790
306.942449 93.073 170.3495
309.166680 93.072 170.3216
311.407029 93.071 170.2954
313.663613 93.071 170.2707
315.936549 93.070 170.2474
318.225955 93.070 170.2253
320.531952 93.070 170.2042
322.854659 93.070 170.1837
325.194197 93.070 170.1638
327.550688 93.070 170.1443
329.924255 93.069 170.1252
332.315022 93.068 170.1066
334.723114 93.066 170.0886
337.148655 93.063 170.0714
339.591774 93.060 170.0550
342.052596 93.056 170.0395
344.531250 93.052 170.0247
347.027865 93.045 170.0104
349.542572 93.038 169.9964
352.075502 93.029 169.9824
354.626786 93.019 169.9684
357.196558 93.008 169.9546
359.784951 92.996 169.9413
362.392101 92.982 169.9290
365.018144 92.968 169.9179
367.663216 92.952 169.9085
370.327455 92.937 169.9010
373.011000 92.920 169.8956
375.713992 92.904 169.8926
378.436570 92.887 169.8919
381.178878 92.869 169.8936
383.941057 92.852 169.8978
386.723252 92.835 169.9044
389.525608 92.817 169.9131
392.348271 92.800 169.9238
395.191389 92.782 169.9365
398.055108 92.764 169.9509
400.939580 92.745 169.9669
403.844953 92.726 169.9844
406.771380 92.706 170.0032
409.719013 92.685 170.0230
412.688006 92.663 170.0435
415.678514 92.640 170.0645
418.690692 92.615 170.0857
421.724697 92.590 170.1072
424.780688 92.562 170.1291
427.858824 92.533 170.1517
430.959265 92.503 170.1755
434.082174 92.471 170.2006
437.227712 92.439 170.2271
440.396044 92.405 170.2551
443.587336 92.369 170.2845
446.801752 92.334 170.3155
450.039462 92.297 170.3483
453.300634 92.260 170.3832
456.585437 92.222 170.4205
459.894043 92.184 170.4607
463.226625 92.146 170.5039
466.583356 92.108 170.5503
469.964411 92.071 170.5997
473.369967 92.035 170.6520
476.800201 91.999 170.7067
480.255292 91.964 170.7631
483.735420 91.931 170.8206
487.240766 91.898 170.8787
490.771513 91.868 170.9365
494.327846 91.839 170.9937
497.909949 91.811 171.0496
501.518010 91.786 171.1041
505.152216 91.762 171.1572
508.812758 91.739 171.2090
512.499825 91.718 171.2593
516.213610 91.700 171.3082
519.954306 91.683 171.3556
523.722109 91.667 171.4015
527.517216 91.654 171.4461
531.339823 91.642 171.4895
535.190130 91.633 171.5323
539.068339 91.625 171.5748
542.974650 91.618 171.6176
546.909268 91.614 171.6611
550.872398 91.611 171.7053
554.864247 91.610 171.7505
558.885022 91.610 171.7968
562.934933 91.612 171.8439
567.014192 91.614 171.8921
571.123010 91.618 171.9417
575.261603 91.623 171.9933
579.430186 91.628 172.0476
583.628976 91.633 172.1055
587.858192 91.639 172.1678
592.118055 91.644 172.2350
596.408786 91.650 172.3076
600.730610 91.655 172.3853
605.083752 91.660 172.4675
609.468438 91.665 172.5532
613.884897 91.670 172.6411
618.333360 91.675 172.7297
622.814059 91.679 172.8178
627.327226 91.682 172.9045
631.873098 91.685 172.9893
636.451911 91.688 173.0720
641.063904 91.689 173.1528
645.709317 91.689 173.2321
650.388393 91.688 173.3105
655.101375 91.685 173.3887
659.848510 91.682 173.4672
664.630044 91.678 173.5463
669.446228 91.673 173.6257
674.297311 91.668 173.7048
679.183547 91.662 173.7822
684.105191 91.655 173.8565
689.062499 91.648 173.9264
694.055730 91.640 173.9905
699.085144 91.632 174.0479
704.151003 91.622 174.0980
709.253572 91.610 174.1411
714.393116 91.596 174.1776
719.569903 91.581 174.2090
724.784203 91.562 174.2367
730.036288 91.542 174.2628
735.326432 91.518 174.2895
740.654910 91.492 174.3190
746.022001 91.463 174.3536
751.427984 91.433 174.3954
756.873141 91.400 174.4465
762.357756 91.366 174.5081
767.882114 91.330 174.5806
773.446504 91.294 174.6634
779.051217 91.258 174.7551
784.696543 91.223 174.8533
790.382778 91.188 174.9558
796.110217 91.153 175.0597
801.879160 91.120 175.1622
807.689907 91.089 175.2605
813.542761 91.058 175.3517
819.438027 91.028 175.4335
825.376013 91.000 175.5039
831.357028 90.971 175.5618
837.381383 90.943 175.6072
843.449394 90.914 175.6414
849.561376 90.884 175.6665
855.717648 90.852 175.6862
861.918531 90.818 175.7049
868.164348 90.782 175.7284
874.455424 90.743 175.7628
880.792089 90.702 175.8149
887.174671 90.659 175.8915
893.603505 90.615 175.9988
900.078924 90.570 176.1419
906.601267 90.527 176.3240
913.170874 90.487 176.5457
919.788086 90.451 176.8043
926.453250 90.420 177.0943
933.166712 90.397 177.4074
939.928823 90.381 177.7341
946.739934 90.374 178.0644
953.600402 90.374 178.3894
960.510584 90.381 178.7020
967.470839 90.395 178.9971
974.481532 90.415 179.2718
981.543027 90.440 179.5248
988.655692 90.469 179.7561
995.819899 90.503 179.9666
1003.036020 90.539 -179.8425
1010.304433 90.578 -179.6699
1017.625515 90.620 -179.5140
1024.999649 90.663 -179.3735
1032.427219 90.709 -179.2471
1039.908612 90.756 -179.1336
1047.444219 90.805 -179.0322
1055.034432 90.856 -178.9421
1062.679646 90.907 -178.8625
1070.380261 90.959 -178.7928
1078.136677 91.012 -178.7321
1085.949300 91.065 -178.6799
1093.818536 91.118 -178.6355
1101.744796 91.170 -178.5983
1109.728493 91.222 -178.5672
1117.770043 91.274 -178.5415
1125.869866 91.324 -178.5199
1134.028383 91.373 -178.5015
1142.246020 91.421 -178.4852
1150.523206 91.468 -178.4701
1158.860371 91.513 -178.4552
1167.257951 91.557 -178.4396
1175.716383 91.600 -178.4225
1184.236109 91.641 -178.4028
1192.817572 91.682 -178.3797
1201.461220 91.722 -178.3522
1210.167503 91.762 -178.3201
1218.936876 91.802 -178.2835
1227.769795 91.842 -178.2433
1236.666721 91.883 -178.2003
1245.628118 91.924 -178.1558
1254.654453 91.966 -178.1102
1263.746196 92.008 -178.0642
1272.903822 92.050 -178.0181
1282.127808 92.093 -177.9725
1291.418634 92.137 -177.9280
1300.776786 92.181 -177.8849
1310.202751 92.224 -177.8436
1319.697020 92.268 -177.8036
1329.260089 92.312 -177.7647
1338.892455 92.355 -177.7262
1348.594622 92.398 -177.6872
1358.367094 92.441 -177.6467
1368.210382 92.484 -177.6035
1378.124999 92.527 -177.5568
1388.111461 92.571 -177.5061
1398.170288 92.616 -177.4513
1408.302007 92.662 -177.3927
1418.507144 92.710 -177.3310
1428.786231 92.760 -177.2666
1439.139805 92.812 -177.2004
1449.568405 92.865 -177.1331
1460.072576 92.921 -177.0653
1470.652863 92.979 -176.9978
1481.309820 93.038 -176.9313
1492.044002 93.098 -176.8668
1502.855968 93.160 -176.8051
1513.746282 93.221 -176.7469
1524.715511 93.283 -176.6925
1535.764228 93.343 -176.6419
1546.893009 93.402 -176.5945
1558.102433 93.458 -176.5490
1569.393086 93.512 -176.5037
1580.765555 93.562 -176.4563
1592.220434 93.608 -176.4044
1603.758320 93.651 -176.3464
1615.379813 93.691 -176.2811
1627.085521 93.727 -176.2083
1638.876054 93.760 -176.1287
1650.752025 93.790 -176.0432
1662.714055 93.817 -175.9534
1674.762766 93.842 -175.8604
1686.898788 93.863 -175.7647
1699.122752 93.882 -175.6664
1711.435296 93.898 -175.5645
1723.837061 93.912 -175.4580
1736.328695 93.924 -175.3454
1748.910849 93.934 -175.2257
1761.584178 93.942 -175.0983
1774.349343 93.950 -174.9634
1787.207010 93.957 -174.8228
1800.157848 93.964 -174.6789
1813.202534 93.971 -174.5352
1826.341747 93.977 -174.3949
1839.576172 93.983 -174.2608
1852.906500 93.987 -174.1343
1866.333424 93.989 -174.0155
1879.857645 93.988 -173.9031
1893.479869 93.984 -173.7943
1907.200804 93.976 -173.6854
1921.021168 93.964 -173.5725
1934.941679 93.948 -173.4513
1948.963064 93.928 -173.3181
1963.086054 93.906 -173.1701
1977.311384 93.881 -173.0058
1991.639798 93.854 -172.8256
2006.072041 93.826 -172.6315
2020.608866 93.798 -172.4271
2035.251031 93.771 -172.2172
2049.999299 93.744 -172.0069
2064.854438 93.719 -171.8010
2079.817225 93.693 -171.6033
2094.888438 93.669 -171.4162
2110.068863 93.645 -171.2405
2125.359292 93.620 -171.0758
2140.760521 93.596 -170.9206
2156.273355 93.572 -170.7727
2171.898600 93.547 -170.6297
2187.637073 93.523 -170.4895
2203.489593 93.500 -170.3503
2219.456987 93.478 -170.2112
2235.540087 93.457 -170.0720
2251.739732 93.437 -169.9329
2268.056766 93.420 -169.7949
2284.492041 93.405 -169.6588
2301.046412 93.393 -169.5256
2317.720742 93.383 -169.3962
2334.515902 93.376 -169.2716
2351.432767 93.372 -169.1529
2368.472218 93.371 -169.0411
2385.635144 93.373 -168.9374
2402.922440 93.378 -168.8422
2420.335006 93.387 -168.7556
2437.873752 93.398 -168.6774
2455.539590 93.413 -168.6069
2473.333442 93.431 -168.5434
2491.256235 93.453 -168.4867
2509.308905 93.479 -168.4367
2527.492392 93.509 -168.3940
2545.807644 93.543 -168.3594
2564.255615 93.581 -168.3339
2582.837268 93.623 -168.3186
2601.553572 93.670 -168.3144
2620.405502 93.720 -168.3216
2639.394040 93.773 -168.3400
2658.520177 93.830 -168.3688
2677.784910 93.889 -168.4066
2697.189244 93.952 -168.4521
2716.734189 94.017 -168.5041
2736.420765 94.085 -168.5626
2756.249998 94.156 -168.6282
2776.222921 94.230 -168.7023
2796.340577 94.306 -168.7866
2816.604013 94.384 -168.8827
2837.014287 94.464 -168.9919
2857.572462 94.545 -169.1150
2878.279610 94.627 -169.2524
2899.136811 94.708 -169.4041
2920.145151 94.789 -169.5701
2941.305727 94.869 -169.7506
2962.619641 94.947 -169.9456
2984.088004 95.022 -170.1554
3005.711935 95.093 -170.3798
3027.492563 95.160 -170.6177
3049.431022 95.222 -170.8675
3071.528457 95.278 -171.1266
3093.786018 95.328 -171.3923
3116.204867 95.370 -171.6620
3138.786172 95.406 -171.9334
3161.531110 95.435 -172.2052
3184.440868 95.456 -172.4762
3207.516639 95.469 -172.7460
3230.759627 95.475 -173.0139
3254.171043 95.472 -173.2796
3277.752108 95.462 -173.5425
3301.504051 95.445 -173.8020
3325.428110 95.419 -174.0577
3349.525533 95.386 -174.3087
3373.797576 95.345 -174.5539
3398.245504 95.297 -174.7923
3422.870591 95.242 -175.0226
3447.674123 95.181 -175.2434
3472.657391 95.114 -175.4534
3497.821698 95.041 -175.6509
3523.168356 94.963 -175.8344
3548.698686 94.881 -176.0021
3574.414019 94.795 -176.1521
3600.315697 94.707 -176.2829
3626.405068 94.618 -176.3926
3652.683494 94.527 -176.4803
3679.152345 94.437 -176.5450
3705.812999 94.349 -176.5864
3732.666848 94.262 -176.6044
3759.715291 94.179 -176.5986
3786.959737 94.099 -176.5690
3814.401609 94.024 -176.5153
3842.042335 93.954 -176.4371
3869.883358 93.889 -176.3344
3897.926128 93.831 -176.2069
3926.172107 93.780 -176.0544
3954.622769 93.736 -175.8766
3983.279596 93.699 -175.6734
4012.144082 93.669 -175.4443
4041.217732 93.647 -175.1892
4070.502061 93.633 -174.9080
4099.998597 93.627 -174.6010
4129.708877 93.629 -174.2691
4159.634450 93.639 -173.9141
4189.776876 93.658 -173.5387
4220.137726 93.685 -173.1471
4250.718584 93.721 -172.7451
4281.521043 93.765 -172.3406
4312.546709 93.819 -171.9427
4343.797200 93.880 -171.5625
4375.274146 93.949 -171.2115
4406.979186 94.025 -170.9014
4438.913974 94.107 -170.6434
4471.080174 94.193 -170.4479
4503.479464 94.283 -170.3246
4536.113533 94.374 -170.2812
4568.984081 94.465 -170.3242
4602.092823 94.554 -170.4573
4635.441485 94.640 -170.6821
4669.031805 94.720 -170.9979
4702.865534 94.795 -171.4018
4736.944436 94.861 -171.8891
4771.270288 94.918 -172.4537
4805.844880 94.966 -173.0887
4840.670013 95.004 -173.7864
4875.747503 95.031 -174.5391
4911.079179 95.047 -175.3389
4946.666884 95.051 -176.1779
4982.512471 95.045 -177.0484
5018.617810 95.026 -177.9425
5054.984784 94.997 -178.8521
5091.615287 94.956 -179.7688
5128.511230 94.903 179.3162
5165.674537 94.838 178.4122
5203.107144 94.761 177.5297
5240.811003 94.673 176.6801
5278.788080 94.573 175.8756
5317.040355 94.462 175.1298
5355.569821 94.340 174.4567
5394.378487 94.209 173.8712
5433.468378 94.070 173.3878
5472.841529 93.924 173.0204
5512.499995 93.775 172.7811
5552.445842 93.625 172.6791
5592.681154 93.478 172.7201
5633.208027 93.337 172.9051
5674.028574 93.205 173.2293
5715.144924 93.087 173.6818
5756.559221 92.986 174.2449
5798.273622 92.903 174.8952
5840.290302 92.840 175.6045
5882.611454 92.797 176.3421
5925.239281 92.773 177.0772
5968.176007 92.767 177.7815
6011.423871 92.774 178.4313
6054.985126 92.792 179.0091
6098.862045 92.815 179.5043
6143.056913 92.841 179.9135
6187.572036 92.863 -179.7602
6232.409733 92.881 -179.5072
6277.572344 92.889 -179.3134
6323.062220 92.886 -179.1608
6368.881736 92.870 -179.0283
6415.033278 92.841 -178.8926
6461.519254 92.798 -178.7289
6508.342086 92.741 -178.5110
6555.504216 92.673 -178.2118
6603.008102 92.597 -177.8046
6650.856220 92.515 -177.2642
6699.051066 92.434 -176.5686
6747.595151 92.360 -175.7027
6796.491007 92.300 -174.6614
6845.741183 92.263 -173.4540
6895.348246 92.259 -172.1080
6945.314781 92.295 -170.6711
6995.643395 92.378 -169.2100
7046.336711 92.511 -167.8068
7097.397372 92.695 -166.5503
7148.828039 92.926 -165.5271
7200.631394 93.197 -164.8134
7252.810137 93.498 -164.4685
7305.366989 93.820 -164.5329
7358.304690 94.151 -165.0281
7411.625999 94.480 -165.9595
7465.333696 94.796 -167.3188
7519.430581 95.091 -169.0878
7573.919475 95.356 -171.2407
7628.803218 95.584 -173.7465
7684.084670 95.767 -176.5705
7739.766716 95.902 -179.6747
7795.852256 95.981 176.9814
7852.344215 96.002 173.4410
7909.245538 95.959 169.7505
7966.559191 95.849 165.9603
8024.288163 95.670 162.1256
8082.435463 95.418 158.3075
8141.004122 95.091 154.5742
8199.997194 94.689 151.0027
8259.417754 94.212 147.6804
8319.268900 93.660 144.7082
8379.553752 93.036 142.2053
8440.275452 92.345 140.3179
8501.437168 91.592 139.2310
8563.042086 90.787 139.1883
8625.093419 89.942 140.5165
8687.594401 89.076 143.6464
8750.548291 88.212 149.0898
8813.958371 87.384 157.2691
8877.827947 86.632 168.0632
8942.160348 86.001 -179.7156
9006.958928 85.532 -168.0238
9072.227065 85.253 -158.3593
9137.968162 85.166 -151.1221
9204.185647 85.253 -146.0097
9270.882970 85.480 -142.5429
9338.063610 85.806 -140.3052
9405.731068 86.196 -138.9923
9473.888873 86.621 -138.3955
9542.540577 87.059 -138.3750
9611.689759 87.494 -138.8366
9681.340025 87.915 -139.7149
9751.495006 88.314 -140.9625
9822.158359 88.683 -142.5414
9893.333767 89.017 -144.4189
9965.024942 89.312 -146.5633
10037.235620 89.564 -148.9429
10109.969567 89.770 -151.5244
10183.230574 89.928 -154.2731
10257.022461 90.035 -157.1530
10331.349074 90.092 -160.1279
10406.214288 90.099 -163.1620
10481.622007 90.056 -166.2216
10557.576160 89.965 -169.2750
10634.080709 89.828 -172.2944
10711.139642 89.647 -175.2549
10788.756975 89.426 -178.1354
10866.936755 89.167 179.0822
10945.683059 88.873 176.4133
11024.999990 88.546 173.8713
11104.891685 88.190 171.4677
11185.362308 87.808 169.2115
11266.416054 87.403 167.1095
11348.057149 86.980 165.1642
11430.289849 86.542 163.3735
11513.118441 86.093 161.7287
11596.547243 85.640 160.2143
11680.580605 85.185 158.8085
11765.222907 84.735 157.4843
11850.478562 84.291 156.2122
11936.352015 83.857 154.9630
12022.847742 83.434 153.7112
12109.970253 83.022 152.4376
12197.724089 82.621 151.1298
12286.113826 82.230 149.7822
12375.144072 81.850 148.3936
12464.819467 81.483 146.9643
12555.144687 81.132 145.4919
12646.124441 80.804 143.9682
12737.763472 80.506 142.3763
12830.066557 80.248 140.6894
12923.038508 80.039 138.8699
13016.684172 79.889 136.8701
13111.008431 79.807 134.6335
13206.016203 79.796 132.0985
13301.712440 79.855 129.2025
13398.102132 79.980 125.8888
13495.190303 80.158 122.1127
13592.982015 80.376 117.8474
13691.482366 80.620 113.0876
13790.696491 80.875 107.8503
13890.629563 81.133 102.1711
13991.286791 81.387 96.1003
14092.673422 81.636 89.6949
14194.794743 81.881 83.0124
14297.656077 82.125 76.1051
14401.262787 82.372 69.0168
14505.620274 82.628 61.7803
14610.733978 82.894 54.4185
14716.609379 83.170 46.9449
14823.251997 83.454 39.3659
14930.667392 83.744 31.6830
15038.861162 84.033 23.8953
15147.838950 84.314 16.0009
15257.606435 84.583 7.9987
15368.169341 84.831 -0.1109
15479.533431 85.054 -8.3260
15591.704511 85.245 -16.6433
15704.688430 85.398 -25.0568
15818.491076 85.508 -33.5576
15933.118383 85.570 -42.1323
16048.576327 85.581 -50.7631
16164.870926 85.536 -59.4279
16282.008245 85.433 -68.1027
16399.994388 85.273 -76.7617
16518.835508 85.053 -85.3786
16638.537799 84.773 -93.9254
16759.107503 84.436 -102.3734
16880.550905 84.041 -110.6927
17002.874335 83.593 -118.8571
17126.084171 83.098 -126.8459
17250.186837 82.567 -134.6510
17375.188802 82.012 -142.2804
17501.096582 81.455 -149.7639
17627.916743 80.920 -157.1557
17755.655894 80.433 -164.5353
17884.320696 80.024 -172.0055
18013.917856 79.714 -179.6882
18144.454131 79.514 172.2828
18275.936325 79.419 163.7689
18408.371293 79.411 154.6285
18541.765940 79.465 144.7183
18676.127219 79.551 133.8864
18811.462136 79.642 121.9803
18947.777745 79.719 108.8835
19085.081153 79.766 94.6235
19223.379519 79.778 79.5636
19362.680051 79.755 64.5711
19502.990012 79.705 50.9155
19644.316718 79.644 39.8370
19786.667534 79.588 32.1606
19930.049884 79.556 28.2653
