* Measurement data measured by REW V5.31.3
* Source: EXCL: Headset (USB-C to 3.5mm Headphone Jack Adapter), MICROPHONE (Master Volume), 0, volume: 0.750
* Format: 256k Log Swept Sine, 1 sweep at -12.0 dBFS with no timing reference
* Dated: Apr 1, 2025 10:17:22 PM
* REW Settings:
*  C-weighting compensation: Off
*  Target level: 75.0 dB
* Note: ; 
* Measurement: HD6XX R10
* Smoothing: 1/6 octave
* Frequency Step: 96 ppo
* Start Frequency: 20.0 Hz
*
* Freq(Hz) SPL(dB) Phase(degrees)
20.033247 84.767 -95.7827
20.178416 84.850 -96.1097
20.324637 84.935 -96.4620
20.471918 85.019 -96.8345
20.620266 85.103 -97.2202
20.769689 85.186 -97.6116
20.920195 85.270 -98.0013
21.071791 85.353 -98.3826
21.224486 85.438 -98.7502
21.378287 85.524 -99.1010
21.533203 85.612 -99.4337
21.689242 85.703 -99.7491
21.846411 85.797 -100.0499
22.004719 85.893 -100.3395
22.164174 85.992 -100.6224
22.324785 86.091 -100.9026
22.486559 86.190 -101.1837
22.649506 86.287 -101.4678
22.813634 86.382 -101.7563
22.978951 86.473 -102.0491
23.145466 86.560 -102.3452
23.313188 86.642 -102.6433
23.482124 86.718 -102.9421
23.652286 86.789 -103.2406
23.823680 86.854 -103.5385
23.996316 86.915 -103.8364
24.170203 86.971 -104.1355
24.345351 87.023 -104.4374
24.521767 87.071 -104.7438
24.699462 87.116 -105.0560
24.878444 87.157 -105.3743
25.058724 87.194 -105.6982
25.240310 87.229 -106.0266
25.423211 87.261 -106.3571
25.607438 87.291 -106.6874
25.793000 87.319 -107.0154
25.979907 87.347 -107.3395
26.168168 87.375 -107.6595
26.357794 87.403 -107.9762
26.548793 87.433 -108.2915
26.741176 87.465 -108.6083
26.934954 87.498 -108.9297
27.130136 87.533 -109.2584
27.326732 87.569 -109.5964
27.524753 87.607 -109.9442
27.724208 87.644 -110.3010
27.925110 87.681 -110.6647
28.127466 87.718 -111.0320
28.331290 87.755 -111.3997
28.536590 87.791 -111.7644
28.743378 87.828 -112.1237
28.951664 87.865 -112.4762
29.161460 87.904 -112.8220
29.372776 87.945 -113.1622
29.585623 87.988 -113.4990
29.800013 88.034 -113.8347
30.015956 88.082 -114.1719
30.233464 88.134 -114.5128
30.452548 88.188 -114.8586
30.673220 88.245 -115.2103
30.895490 88.306 -115.5677
31.119372 88.369 -115.9304
31.344876 88.435 -116.2975
31.572014 88.505 -116.6684
31.800797 88.578 -117.0421
32.031239 88.654 -117.4178
32.263351 88.734 -117.7951
32.497144 88.818 -118.1732
32.732632 88.904 -118.5514
32.969826 88.994 -118.9292
33.208739 89.086 -119.3060
33.449383 89.181 -119.6813
33.691771 89.279 -120.0549
33.935916 89.378 -120.4268
34.181829 89.479 -120.7968
34.429525 89.581 -121.1652
34.679015 89.684 -121.5320
34.930314 89.787 -121.8974
35.183433 89.891 -122.2614
35.438387 89.994 -122.6238
35.695188 90.097 -122.9847
35.953850 90.199 -123.3442
36.214387 90.300 -123.7023
36.476811 90.399 -124.0594
36.741137 90.497 -124.4160
37.007378 90.593 -124.7723
37.275549 90.687 -125.1285
37.545663 90.779 -125.4846
37.817734 90.868 -125.8403
38.091777 90.955 -126.1952
38.367806 91.039 -126.5488
38.645835 91.121 -126.9014
38.925879 91.201 -127.2529
39.207952 91.278 -127.6044
39.492069 91.353 -127.9566
39.778244 91.425 -128.3107
40.066494 91.495 -128.6672
40.356832 91.563 -129.0266
40.649275 91.629 -129.3885
40.943836 91.692 -129.7526
41.240532 91.753 -130.1183
41.539378 91.812 -130.4854
41.840389 91.869 -130.8538
42.143582 91.925 -131.2238
42.448972 91.980 -131.5962
42.756574 92.033 -131.9716
43.066406 92.086 -132.3506
43.378483 92.137 -132.7336
43.692822 92.188 -133.1208
44.009438 92.237 -133.5125
44.328348 92.286 -133.9087
44.649570 92.334 -134.3098
44.973119 92.381 -134.7158
45.299013 92.426 -135.1268
45.627268 92.471 -135.5427
45.957902 92.513 -135.9630
46.290932 92.554 -136.3867
46.626375 92.593 -136.8128
46.964249 92.629 -137.2394
47.304571 92.662 -137.6644
47.647360 92.693 -138.0852
47.992632 92.721 -138.4988
48.340407 92.746 -138.9026
48.690701 92.769 -139.2949
49.043534 92.790 -139.6749
49.398924 92.810 -140.0439
49.756889 92.830 -140.4042
50.117447 92.848 -140.7585
50.480619 92.865 -141.1100
50.846423 92.882 -141.4604
51.214877 92.897 -141.8106
51.586001 92.910 -142.1603
51.959814 92.922 -142.5085
52.336336 92.933 -142.8539
52.715587 92.942 -143.1954
53.097586 92.950 -143.5319
53.482353 92.958 -143.8630
53.869908 92.965 -144.1886
54.260272 92.972 -144.5088
54.653464 92.980 -144.8237
55.049506 92.987 -145.1334
55.448417 92.995 -145.4379
55.850219 93.004 -145.7366
56.254933 93.013 -146.0293
56.662579 93.023 -146.3157
57.073180 93.034 -146.5958
57.486755 93.047 -146.8701
57.903328 93.061 -147.1399
58.322919 93.078 -147.4070
58.745551 93.097 -147.6738
59.171246 93.118 -147.9427
59.600025 93.142 -148.2157
60.031911 93.167 -148.4940
60.466927 93.195 -148.7776
60.905096 93.225 -149.0662
61.346439 93.257 -149.3588
61.790981 93.292 -149.6550
62.238744 93.330 -149.9548
62.689751 93.371 -150.2585
63.144027 93.414 -150.5660
63.601595 93.461 -150.8774
64.062478 93.510 -151.1925
64.526701 93.561 -151.5109
64.994288 93.615 -151.8324
65.465264 93.671 -152.1570
65.939652 93.727 -152.4844
66.417478 93.785 -152.8138
66.898766 93.842 -153.1444
67.383542 93.899 -153.4750
67.871831 93.955 -153.8047
68.363659 94.010 -154.1332
68.859050 94.063 -154.4607
69.358031 94.114 -154.7880
69.860628 94.164 -155.1159
70.366867 94.211 -155.4453
70.876774 94.255 -155.7770
71.390376 94.297 -156.1114
71.907700 94.336 -156.4487
72.428773 94.372 -156.7889
72.953622 94.406 -157.1316
73.482274 94.436 -157.4764
74.014757 94.465 -157.8230
74.551098 94.490 -158.1713
75.091326 94.513 -158.5209
75.635469 94.534 -158.8721
76.183555 94.553 -159.2249
76.735612 94.570 -159.5789
77.291670 94.584 -159.9340
77.851757 94.597 -160.2899
78.415903 94.608 -160.6464
78.984137 94.617 -161.0034
79.556489 94.625 -161.3609
80.132988 94.631 -161.7190
80.713665 94.637 -162.0775
81.298549 94.641 -162.4361
81.887672 94.645 -162.7946
82.481064 94.648 -163.1526
83.078756 94.651 -163.5099
83.680778 94.653 -163.8660
84.287164 94.654 -164.2202
84.897943 94.655 -164.5724
85.513149 94.656 -164.9221
86.132812 94.657 -165.2693
86.756966 94.657 -165.6143
87.385643 94.656 -165.9576
88.018875 94.655 -166.2995
88.656696 94.654 -166.6406
89.299139 94.653 -166.9811
89.946238 94.651 -167.3211
90.598025 94.649 -167.6605
91.254536 94.646 -167.9989
91.915804 94.643 -168.3361
92.581864 94.640 -168.6716
93.252750 94.637 -169.0057
93.928498 94.634 -169.3383
94.609143 94.631 -169.6697
95.294719 94.628 -170.0004
95.985264 94.626 -170.3307
96.680813 94.623 -170.6609
97.381402 94.621 -170.9914
98.087068 94.618 -171.3220
98.797847 94.616 -171.6529
99.513777 94.614 -171.9838
100.234895 94.612 -172.3143
100.961238 94.611 -172.6444
101.692845 94.610 -172.9734
102.429753 94.609 -173.3011
103.172002 94.609 -173.6272
103.919628 94.610 -173.9515
104.672673 94.612 -174.2743
105.431174 94.614 -174.5956
106.195172 94.617 -174.9159
106.964706 94.621 -175.2354
107.739816 94.625 -175.5544
108.520543 94.630 -175.8728
109.306928 94.636 -176.1906
110.099011 94.643 -176.5076
110.896834 94.650 -176.8232
111.700438 94.658 -177.1375
112.509866 94.666 -177.4496
113.325158 94.675 -177.7596
114.146359 94.684 -178.0671
114.973511 94.693 -178.3721
115.806656 94.702 -178.6746
116.645839 94.712 -178.9749
117.491103 94.721 -179.2734
118.342492 94.730 -179.5703
119.200050 94.739 -179.8662
120.063823 94.747 179.8385
120.933855 94.755 179.5433
121.810191 94.763 179.2477
122.692878 94.770 178.9514
123.581962 94.777 178.6544
124.477487 94.783 178.3570
125.379503 94.788 178.0593
126.288054 94.791 177.7616
127.203189 94.794 177.4641
128.124956 94.796 177.1671
129.053402 94.796 176.8707
129.988577 94.795 176.5753
130.930527 94.792 176.2814
131.879304 94.789 175.9893
132.834956 94.784 175.6997
133.797533 94.777 175.4131
134.767085 94.770 175.1299
135.743663 94.762 174.8502
136.727317 94.752 174.5739
137.718100 94.742 174.3004
138.716062 94.730 174.0292
139.721255 94.717 173.7598
140.733733 94.704 173.4915
141.753548 94.689 173.2239
142.780753 94.673 172.9569
143.815401 94.656 172.6905
144.857546 94.638 172.4250
145.907244 94.620 172.1608
146.964548 94.600 171.8980
148.029514 94.580 171.6368
149.102197 94.559 171.3771
150.182652 94.538 171.1187
151.270938 94.516 170.8613
152.367109 94.494 170.6048
153.471224 94.471 170.3491
154.583340 94.448 170.0947
155.703515 94.426 169.8417
156.831807 94.403 169.5905
157.968274 94.380 169.3412
159.112978 94.357 169.0940
160.265976 94.335 168.8483
161.427329 94.312 168.6039
162.597098 94.290 168.3601
163.775344 94.268 168.1165
164.962128 94.246 167.8727
166.157511 94.225 167.6287
167.361557 94.203 167.3846
168.574328 94.182 167.1411
169.795887 94.162 166.8989
171.026298 94.141 166.6590
172.265625 94.120 166.4224
173.513933 94.099 166.1897
174.771286 94.078 165.9611
176.037751 94.056 165.7366
177.313393 94.034 165.5153
178.598279 94.012 165.2963
179.892476 93.989 165.0787
181.196051 93.965 164.8615
182.509072 93.941 164.6443
183.831608 93.917 164.4272
185.163728 93.892 164.2106
186.505500 93.866 163.9948
187.856996 93.840 163.7805
189.218285 93.814 163.5681
190.589439 93.787 163.3574
191.970529 93.759 163.1481
193.361626 93.731 162.9397
194.762804 93.702 162.7318
196.174136 93.672 162.5244
197.595694 93.641 162.3181
199.027554 93.610 162.1140
200.469790 93.579 161.9135
201.922477 93.547 161.7181
203.385690 93.515 161.5287
204.859507 93.484 161.3458
206.344003 93.453 161.1690
207.839257 93.422 160.9979
209.345346 93.392 160.8316
210.862348 93.362 160.6696
212.390344 93.333 160.5111
213.929412 93.304 160.3562
215.479633 93.276 160.2046
217.041087 93.249 160.0564
218.613856 93.223 159.9114
220.198022 93.198 159.7695
221.793668 93.174 159.6307
223.400876 93.152 159.4948
225.019731 93.132 159.3618
226.650317 93.113 159.2313
228.292718 93.096 159.1033
229.947022 93.081 158.9775
231.613312 93.068 158.8533
233.291678 93.057 158.7303
234.982206 93.048 158.6083
236.684984 93.040 158.4866
238.400101 93.034 158.3650
240.127646 93.028 158.2432
241.867710 93.024 158.1203
243.620383 93.021 157.9956
245.385757 93.018 157.8683
247.163923 93.015 157.7378
248.954975 93.012 157.6044
250.759005 93.008 157.4688
252.576108 93.004 157.3320
254.406379 93.000 157.1950
256.249912 92.995 157.0587
258.106805 92.989 156.9233
259.977153 92.983 156.7889
261.861055 92.976 156.6553
263.758608 92.970 156.5219
265.669911 92.963 156.3884
267.595065 92.957 156.2545
269.534169 92.951 156.1200
271.487325 92.945 155.9850
273.454634 92.939 155.8500
275.436199 92.934 155.7157
277.432123 92.928 155.5827
279.442511 92.922 155.4516
281.467467 92.917 155.3230
283.507096 92.911 155.1972
285.561505 92.906 155.0742
287.630801 92.901 154.9535
289.715093 92.896 154.8347
291.814488 92.891 154.7172
293.929096 92.886 154.6006
296.059027 92.882 154.4844
298.204393 92.878 154.3689
300.365305 92.875 154.2542
302.541876 92.872 154.1406
304.734219 92.870 154.0291
306.942449 92.868 153.9202
309.166680 92.866 153.8142
311.407029 92.864 153.7115
313.663613 92.863 153.6122
315.936549 92.862 153.5163
318.225955 92.862 153.4235
320.531952 92.861 153.3333
322.854659 92.861 153.2455
325.194197 92.860 153.1597
327.550688 92.860 153.0753
329.924255 92.859 152.9921
332.315022 92.858 152.9097
334.723114 92.856 152.8279
337.148655 92.854 152.7461
339.591774 92.851 152.6643
342.052596 92.847 152.5823
344.531250 92.841 152.4999
347.027865 92.835 152.4170
349.542572 92.827 152.3337
352.075502 92.818 152.2501
354.626786 92.807 152.1664
357.196558 92.796 152.0829
359.784951 92.783 151.9997
362.392101 92.770 151.9171
365.018144 92.755 151.8352
367.663216 92.740 151.7542
370.327455 92.724 151.6742
373.011000 92.708 151.5952
375.713992 92.692 151.5172
378.436570 92.675 151.4406
381.178878 92.658 151.3653
383.941057 92.641 151.2916
386.723252 92.624 151.2197
389.525608 92.606 151.1497
392.348271 92.589 151.0817
395.191389 92.571 151.0156
398.055108 92.553 150.9517
400.939580 92.534 150.8899
403.844953 92.516 150.8304
406.771380 92.496 150.7729
409.719013 92.476 150.7175
412.688006 92.455 150.6635
415.678514 92.433 150.6106
418.690692 92.409 150.5582
421.724697 92.385 150.5060
424.780688 92.359 150.4539
427.858824 92.332 150.4019
430.959265 92.303 150.3500
434.082174 92.273 150.2982
437.227712 92.241 150.2468
440.396044 92.208 150.1960
443.587336 92.173 150.1458
446.801752 92.138 150.0966
450.039462 92.101 150.0486
453.300634 92.064 150.0024
456.585437 92.026 149.9586
459.894043 91.988 149.9178
463.226625 91.950 149.8804
466.583356 91.912 149.8467
469.964411 91.874 149.8164
473.369967 91.838 149.7892
476.800201 91.802 149.7643
480.255292 91.768 149.7407
483.735420 91.735 149.7173
487.240766 91.703 149.6931
490.771513 91.672 149.6674
494.327846 91.643 149.6398
497.909949 91.615 149.6102
501.518010 91.589 149.5786
505.152216 91.564 149.5455
508.812758 91.541 149.5115
512.499825 91.519 149.4769
516.213610 91.500 149.4419
519.954306 91.483 149.4065
523.722109 91.468 149.3706
527.517216 91.454 149.3340
531.339823 91.443 149.2964
535.190130 91.434 149.2576
539.068339 91.426 149.2174
542.974650 91.420 149.1761
546.909268 91.417 149.1337
550.872398 91.415 149.0906
554.864247 91.414 149.0474
558.885022 91.416 149.0047
562.934933 91.418 148.9633
567.014192 91.423 148.9239
571.123010 91.428 148.8868
575.261603 91.434 148.8521
579.430186 91.440 148.8200
583.628976 91.447 148.7906
587.858192 91.454 148.7642
592.118055 91.461 148.7415
596.408786 91.467 148.7230
600.730610 91.474 148.7093
605.083752 91.480 148.7003
609.468438 91.485 148.6960
613.884897 91.490 148.6956
618.333360 91.494 148.6983
622.814059 91.497 148.7030
627.327226 91.500 148.7085
631.873098 91.502 148.7137
636.451911 91.503 148.7176
641.063904 91.503 148.7195
645.709317 91.503 148.7191
650.388393 91.502 148.7164
655.101375 91.500 148.7120
659.848510 91.497 148.7067
664.630044 91.494 148.7012
669.446228 91.490 148.6958
674.297311 91.485 148.6904
679.183547 91.480 148.6842
684.105191 91.475 148.6759
689.062499 91.469 148.6639
694.055730 91.463 148.6467
699.085144 91.457 148.6227
704.151003 91.449 148.5909
709.253572 91.441 148.5509
714.393116 91.431 148.5027
719.569903 91.420 148.4469
724.784203 91.406 148.3846
730.036288 91.390 148.3172
735.326432 91.371 148.2462
740.654910 91.350 148.1735
746.022001 91.325 148.1008
751.427984 91.297 148.0306
756.873141 91.267 147.9652
762.357756 91.233 147.9069
767.882114 91.197 147.8578
773.446504 91.159 147.8199
779.051217 91.120 147.7944
784.696543 91.080 147.7816
790.382778 91.040 147.7812
796.110217 91.001 147.7917
801.879160 90.963 147.8109
807.689907 90.927 147.8351
813.542761 90.894 147.8605
819.438027 90.863 147.8826
825.376013 90.834 147.8972
831.357028 90.807 147.9010
837.381383 90.781 147.8916
843.449394 90.756 147.8679
849.561376 90.731 147.8306
855.717648 90.706 147.7816
861.918531 90.679 147.7242
868.164348 90.650 147.6631
874.455424 90.618 147.6037
880.792089 90.585 147.5525
887.174671 90.549 147.5162
893.603505 90.511 147.5015
900.078924 90.472 147.5143
906.601267 90.433 147.5596
913.170874 90.395 147.6399
919.788086 90.360 147.7551
926.453250 90.330 147.9023
933.166712 90.305 148.0759
939.928823 90.287 148.2682
946.739934 90.276 148.4706
953.600402 90.273 148.6744
960.510584 90.277 148.8724
967.470839 90.288 149.0585
974.481532 90.305 149.2288
981.543027 90.327 149.3810
988.655692 90.354 149.5140
995.819899 90.385 149.6281
1003.036020 90.420 149.7238
1010.304433 90.458 149.8024
1017.625515 90.498 149.8654
1024.999649 90.540 149.9142
1032.427219 90.585 149.9504
1039.908612 90.631 149.9755
1047.444219 90.678 149.9906
1055.034432 90.727 149.9968
1062.679646 90.776 149.9950
1070.380261 90.827 149.9860
1078.136677 90.878 149.9705
1085.949300 90.929 149.9488
1093.818536 90.981 149.9214
1101.744796 91.033 149.8884
1109.728493 91.084 149.8503
1117.770043 91.136 149.8074
1125.869866 91.187 149.7603
1134.028383 91.237 149.7097
1142.246020 91.286 149.6564
1150.523206 91.334 149.6013
1158.860371 91.381 149.5452
1167.257951 91.428 149.4890
1175.716383 91.473 149.4335
1184.236109 91.518 149.3794
1192.817572 91.562 149.3276
1201.461220 91.606 149.2787
1210.167503 91.649 149.2334
1218.936876 91.692 149.1913
1227.769795 91.736 149.1520
1236.666721 91.780 149.1147
1245.628118 91.825 149.0785
1254.654453 91.870 149.0428
1263.746196 91.916 149.0073
1272.903822 91.963 148.9716
1282.127808 92.009 148.9351
1291.418634 92.057 148.8971
1300.776786 92.104 148.8569
1310.202751 92.152 148.8143
1319.697020 92.199 148.7695
1329.260089 92.247 148.7230
1338.892455 92.294 148.6757
1348.594622 92.340 148.6286
1358.367094 92.386 148.5833
1368.210382 92.432 148.5410
1378.124999 92.478 148.5032
1388.111461 92.525 148.4706
1398.170288 92.573 148.4434
1408.302007 92.622 148.4214
1418.507144 92.673 148.4039
1428.786231 92.725 148.3903
1439.139805 92.780 148.3795
1449.568405 92.837 148.3705
1460.072576 92.895 148.3624
1470.652863 92.956 148.3547
1481.309820 93.018 148.3466
1492.044002 93.082 148.3372
1502.855968 93.147 148.3257
1513.746282 93.212 148.3116
1524.715511 93.278 148.2947
1535.764228 93.342 148.2748
1546.893009 93.405 148.2528
1558.102433 93.466 148.2294
1569.393086 93.524 148.2064
1580.765555 93.579 148.1853
1592.220434 93.631 148.1682
1603.758320 93.679 148.1564
1615.379813 93.724 148.1506
1627.085521 93.765 148.1508
1638.876054 93.804 148.1566
1650.752025 93.839 148.1677
1662.714055 93.870 148.1838
1674.762766 93.899 148.2051
1686.898788 93.925 148.2321
1699.122752 93.948 148.2655
1711.435296 93.968 148.3065
1723.837061 93.986 148.3559
1736.328695 94.003 148.4144
1748.910849 94.019 148.4817
1761.584178 94.034 148.5573
1774.349343 94.048 148.6399
1787.207010 94.063 148.7274
1800.157848 94.077 148.8175
1813.202534 94.091 148.9072
1826.341747 94.106 148.9938
1839.576172 94.119 149.0748
1852.906500 94.132 149.1488
1866.333424 94.143 149.2153
1879.857645 94.152 149.2750
1893.479869 94.158 149.3298
1907.200804 94.161 149.3820
1921.021168 94.161 149.4343
1934.941679 94.158 149.4896
1948.963064 94.152 149.5504
1963.086054 94.143 149.6184
1977.311384 94.131 149.6946
1991.639798 94.118 149.7787
2006.072041 94.104 149.8693
2020.608866 94.089 149.9633
2035.251031 94.074 150.0576
2049.999299 94.058 150.1481
2064.854438 94.043 150.2315
2079.817225 94.028 150.3049
2094.888438 94.012 150.3665
2110.068863 93.996 150.4160
2125.359292 93.979 150.4542
2140.760521 93.961 150.4828
2156.273355 93.943 150.5042
2171.898600 93.923 150.5212
2187.637073 93.903 150.5365
2203.489593 93.882 150.5527
2219.456987 93.862 150.5720
2235.540087 93.842 150.5961
2251.739732 93.822 150.6262
2268.056766 93.804 150.6627
2284.492041 93.787 150.7059
2301.046412 93.773 150.7550
2317.720742 93.761 150.8091
2334.515902 93.752 150.8667
2351.432767 93.747 150.9257
2368.472218 93.746 150.9836
2385.635144 93.748 151.0381
2402.922440 93.754 151.0868
2420.335006 93.765 151.1279
2437.873752 93.779 151.1604
2455.539590 93.797 151.1836
2473.333442 93.820 151.1976
2491.256235 93.846 151.2029
2509.308905 93.876 151.1998
2527.492392 93.910 151.1884
2545.807644 93.948 151.1680
2564.255615 93.991 151.1373
2582.837268 94.037 151.0949
2601.553572 94.088 151.0393
2620.405502 94.142 150.9701
2639.394040 94.200 150.8877
2658.520177 94.260 150.7936
2677.784910 94.322 150.6897
2697.189244 94.387 150.5782
2716.734189 94.454 150.4602
2736.420765 94.524 150.3361
2756.249998 94.596 150.2053
2776.222921 94.670 150.0662
2796.340577 94.746 149.9172
2816.604013 94.824 149.7567
2837.014287 94.902 149.5834
2857.572462 94.981 149.3969
2878.279610 95.059 149.1978
2899.136811 95.136 148.9868
2920.145151 95.212 148.7651
2941.305727 95.286 148.5338
2962.619641 95.357 148.2935
2984.088004 95.426 148.0447
3005.711935 95.490 147.7878
3027.492563 95.551 147.5235
3049.431022 95.606 147.2526
3071.528457 95.655 146.9764
3093.786018 95.699 146.6968
3116.204867 95.735 146.4156
3138.786172 95.764 146.1353
3161.531110 95.785 145.8577
3184.440868 95.798 145.5850
3207.516639 95.803 145.3186
3230.759627 95.800 145.0599
3254.171043 95.788 144.8097
3277.752108 95.769 144.5688
3301.504051 95.741 144.3378
3325.428110 95.706 144.1173
3349.525533 95.662 143.9083
3373.797576 95.612 143.7114
3398.245504 95.554 143.5276
3422.870591 95.489 143.3579
3447.674123 95.418 143.2031
3472.657391 95.340 143.0647
3497.821698 95.258 142.9438
3523.168356 95.170 142.8422
3548.698686 95.079 142.7614
3574.414019 94.984 142.7034
3600.315697 94.886 142.6700
3626.405068 94.787 142.6629
3652.683494 94.687 142.6838
3679.152345 94.587 142.7338
3705.812999 94.487 142.8140
3732.666848 94.390 142.9248
3759.715291 94.296 143.0668
3786.959737 94.206 143.2402
3814.401609 94.120 143.4455
3842.042335 94.039 143.6829
3869.883358 93.964 143.9528
3897.926128 93.895 144.2557
3926.172107 93.834 144.5918
3954.622769 93.779 144.9617
3983.279596 93.733 145.3657
4012.144082 93.694 145.8044
4041.217732 93.663 146.2786
4070.502061 93.641 146.7882
4099.998597 93.627 147.3333
4129.708877 93.623 147.9126
4159.634450 93.627 148.5242
4189.776876 93.640 149.1643
4220.137726 93.663 149.8278
4250.718584 93.696 150.5078
4281.521043 93.738 151.1958
4312.546709 93.789 151.8822
4343.797200 93.848 152.5560
4375.274146 93.916 153.2059
4406.979186 93.991 153.8209
4438.913974 94.071 154.3900
4471.080174 94.157 154.9039
4503.479464 94.245 155.3541
4536.113533 94.336 155.7340
4568.984081 94.427 156.0389
4602.092823 94.517 156.2662
4635.441485 94.604 156.4152
4669.031805 94.688 156.4872
4702.865534 94.767 156.4852
4736.944436 94.840 156.4135
4771.270288 94.907 156.2770
4805.844880 94.968 156.0814
4840.670013 95.021 155.8324
4875.747503 95.067 155.5356
4911.079179 95.106 155.1965
4946.666884 95.138 154.8199
4982.512471 95.163 154.4105
5018.617810 95.181 153.9722
5054.984784 95.192 153.5093
5091.615287 95.195 153.0261
5128.511230 95.191 152.5278
5165.674537 95.179 152.0204
5203.107144 95.158 151.5112
5240.811003 95.130 151.0085
5278.788080 95.092 150.5219
5317.040355 95.047 150.0615
5355.569821 94.993 149.6382
5394.378487 94.932 149.2628
5433.468378 94.864 148.9448
5472.841529 94.792 148.6923
5512.499995 94.717 148.5107
5552.445842 94.640 148.4026
5592.681154 94.564 148.3672
5633.208027 94.489 148.4005
5674.028574 94.417 148.4952
5715.144924 94.350 148.6419
5756.559221 94.286 148.8286
5798.273622 94.227 149.0425
5840.290302 94.170 149.2705
5882.611454 94.115 149.5010
5925.239281 94.060 149.7250
5968.176007 94.001 149.9376
6011.423871 93.936 150.1392
6054.985126 93.862 150.3357
6098.862045 93.777 150.5394
6143.056913 93.677 150.7686
6187.572036 93.561 151.0466
6232.409733 93.428 151.4017
6277.572344 93.279 151.8655
6323.062220 93.113 152.4717
6368.881736 92.934 153.2551
6415.033278 92.744 154.2497
6461.519254 92.548 155.4873
6508.342086 92.352 156.9962
6555.504216 92.163 158.7985
6603.008102 91.989 160.9078
6650.856220 91.839 163.3251
6699.051066 91.722 166.0353
6747.595151 91.647 169.0026
6796.491007 91.624 172.1685
6845.741183 91.660 175.4505
6895.348246 91.759 178.7462
6945.314781 91.922 -178.0593
6995.643395 92.146 -175.0820
7046.336711 92.426 -172.4268
7097.397372 92.751 -170.1783
7148.828039 93.112 -168.3953
7200.631394 93.496 -167.1107
7252.810137 93.891 -166.3353
7305.366989 94.287 -166.0623
7358.304690 94.673 -166.2722
7411.625999 95.040 -166.9369
7465.333696 95.380 -168.0231
7519.430581 95.686 -169.4944
7573.919475 95.953 -171.3123
7628.803218 96.174 -173.4373
7684.084670 96.346 -175.8295
7739.766716 96.465 -178.4484
7795.852256 96.526 178.7475
7852.344215 96.528 175.8005
7909.245538 96.466 172.7550
7966.559191 96.340 169.6575
8024.288163 96.147 166.5584
8082.435463 95.885 163.5126
8141.004122 95.553 160.5809
8199.997194 95.152 157.8320
8259.417754 94.680 155.3447
8319.268900 94.140 153.2108
8379.553752 93.534 151.5408
8440.275452 92.867 150.4715
8501.437168 92.145 150.1770
8563.042086 91.376 150.8859
8625.093419 90.576 152.9006
8687.594401 89.762 156.6118
8750.548291 88.959 162.4705
8813.958371 88.201 170.8370
8877.827947 87.526 -178.3947
8942.160348 86.974 -166.2213
9006.958928 86.578 -154.3329
9072.227065 86.358 -144.1369
9137.968162 86.311 -136.1276
9204.185647 86.414 -130.1201
9270.882970 86.637 -125.7038
9338.063610 86.944 -122.4885
9405.731068 87.305 -120.1758
9473.888873 87.696 -118.5557
9542.540577 88.099 -117.4856
9611.689759 88.502 -116.8703
9681.340025 88.895 -116.6464
9751.495006 89.271 -116.7704
9822.158359 89.624 -117.2114
9893.333767 89.950 -117.9447
9965.024942 90.244 -118.9481
10037.235620 90.503 -120.1996
10109.969567 90.721 -121.6752
10183.230574 90.897 -123.3483
10257.022461 91.026 -125.1892
10331.349074 91.106 -127.1651
10406.214288 91.135 -129.2408
10481.622007 91.111 -131.3792
10557.576160 91.035 -133.5417
10634.080709 90.904 -135.6895
10711.139642 90.721 -137.7839
10788.756975 90.487 -139.7872
10866.936755 90.202 -141.6628
10945.683059 89.870 -143.3759
11024.999990 89.494 -144.8934
11104.891685 89.076 -146.1848
11185.362308 88.621 -147.2223
11266.416054 88.133 -147.9825
11348.057149 87.616 -148.4478
11430.289849 87.078 -148.6083
11513.118441 86.523 -148.4639
11596.547243 85.958 -148.0251
11680.580605 85.389 -147.3142
11765.222907 84.822 -146.3627
11850.478562 84.262 -145.2089
11936.352015 83.714 -143.8932
12022.847742 83.181 -142.4529
12109.970253 82.665 -140.9186
12197.724089 82.167 -139.3121
12286.113826 81.690 -137.6470
12375.144072 81.235 -135.9326
12464.819467 80.807 -134.1794
12555.144687 80.409 -132.4057
12646.124441 80.049 -130.6421
12737.763472 79.735 -128.9356
12830.066557 79.474 -127.3497
12923.038508 79.273 -125.9626
13016.684172 79.139 -124.8632
13111.008431 79.074 -124.1443
13206.016203 79.075 -123.8963
13301.712440 79.137 -124.1982
13398.102132 79.248 -125.1119
13495.190303 79.393 -126.6773
13592.982015 79.558 -128.9106
13691.482366 79.727 -131.8052
13790.696491 79.888 -135.3343
13890.629563 80.032 -139.4546
13991.286791 80.155 -144.1107
14092.673422 80.257 -149.2393
14194.794743 80.344 -154.7739
14297.656077 80.425 -160.6487
14401.262787 80.514 -166.8015
14505.620274 80.627 -173.1762
14610.733978 80.779 -179.7247
14716.609379 80.984 173.5917
14823.251997 81.248 166.8013
14930.667392 81.574 159.9209
15038.861162 81.955 152.9561
15147.838950 82.380 145.9024
15257.606435 82.832 138.7478
15368.169341 83.294 131.4759
15479.533431 83.747 124.0699
15591.704511 84.172 116.5174
15704.688430 84.554 108.8137
15818.491076 84.878 100.9661
15933.118383 85.130 92.9960
16048.576327 85.302 84.9394
16164.870926 85.387 76.8447
16282.008245 85.380 68.7698
16399.994388 85.279 60.7767
16518.835508 85.086 52.9278
16638.537799 84.802 45.2824
16759.107503 84.434 37.8928
16880.550905 83.986 30.8029
17002.874335 83.469 24.0458
17126.084171 82.891 17.6459
17250.186837 82.265 11.6168
17375.188802 81.606 5.9615
17501.096582 80.935 0.6696
17627.916743 80.277 -4.2883
17755.655894 79.664 -8.9685
17884.320696 79.136 -13.4639
18013.917856 78.730 -17.9138
18144.454131 78.477 -22.5089
18275.936325 78.390 -27.4852
18408.371293 78.454 -33.1042
18541.765940 78.637 -39.6208
18676.127219 78.894 -47.2473
18811.462136 79.181 -56.1089
18947.777745 79.463 -66.1895
19085.081153 79.716 -77.2580
19223.379519 79.926 -88.8049
19362.680051 80.086 -100.0635
19502.990012 80.199 -110.1590
19644.316718 80.271 -118.3191
19786.667534 80.312 -124.0043
19930.049884 80.330 -126.9104
