* Measurement data measured by REW V5.31.3
* Source: EXCL: Headset (USB-C to 3.5mm Headphone Jack Adapter), MICROPHONE (Master Volume), 0, volume: 0.750
* Format: 256k Log Swept Sine, 1 sweep at -12.0 dBFS with no timing reference
* Dated: Apr 7, 2025 12:19:35 PM
* REW Settings:
*  C-weighting compensation: Off
*  Target level: 75.0 dB
* Note: ; 
* Measurement: HD6XX R5
* Smoothing: 1/6 octave
* Frequency Step: 96 ppo
* Start Frequency: 20.0 Hz
*
* Freq(Hz) SPL(dB) Phase(degrees)
20.187378 80.148 -103.4115
20.333664 80.188 -103.4123
20.481010 80.242 -103.4154
20.629424 80.306 -103.4234
20.778913 80.377 -103.4394
20.929486 80.454 -103.4665
21.081150 80.533 -103.5076
21.233912 80.612 -103.5649
21.387782 80.690 -103.6395
21.542767 80.765 -103.7311
21.698874 80.837 -103.8383
21.856113 80.905 -103.9583
22.014492 80.969 -104.0873
22.174018 81.030 -104.2213
22.334700 81.089 -104.3563
22.496546 81.147 -104.4890
22.659566 81.205 -104.6179
22.823766 81.265 -104.7432
22.989157 81.327 -104.8674
23.155745 81.393 -104.9951
23.323542 81.462 -105.1330
23.492554 81.534 -105.2886
23.662790 81.609 -105.4698
23.834261 81.684 -105.6836
24.006973 81.759 -105.9356
24.180938 81.832 -106.2288
24.356163 81.902 -106.5633
24.532658 81.966 -106.9369
24.710431 82.025 -107.3448
24.889493 82.077 -107.7804
25.069853 82.122 -108.2365
25.251519 82.163 -108.7056
25.434502 82.198 -109.1812
25.618811 82.231 -109.6578
25.804456 82.263 -110.1320
25.991445 82.294 -110.6018
26.179790 82.327 -111.0667
26.369500 82.362 -111.5267
26.560584 82.399 -111.9820
26.753053 82.439 -112.4319
26.946917 82.479 -112.8745
27.142185 82.520 -113.3065
27.338869 82.561 -113.7232
27.536977 82.600 -114.1189
27.736522 82.636 -114.4881
27.937512 82.670 -114.8262
28.139959 82.701 -115.1303
28.343872 82.730 -115.4003
28.549264 82.758 -115.6392
28.756143 82.784 -115.8530
28.964522 82.811 -116.0505
29.174411 82.839 -116.2427
29.385821 82.869 -116.4414
29.598763 82.902 -116.6581
29.813248 82.938 -116.9032
30.029287 82.978 -117.1847
30.246891 83.021 -117.5078
30.466073 83.068 -117.8746
30.686842 83.119 -118.2842
30.909212 83.174 -118.7327
31.133193 83.233 -119.2143
31.358797 83.296 -119.7213
31.586035 83.364 -120.2450
31.814921 83.435 -120.7765
32.045465 83.510 -121.3070
32.277680 83.590 -121.8290
32.511577 83.672 -122.3360
32.747169 83.758 -122.8234
32.984469 83.847 -123.2886
33.223488 83.939 -123.7307
33.464239 84.033 -124.1505
33.706735 84.128 -124.5501
33.950987 84.225 -124.9324
34.197010 84.322 -125.3006
34.444816 84.420 -125.6576
34.694417 84.518 -126.0065
34.945827 84.617 -126.3496
35.199059 84.715 -126.6893
35.454126 84.814 -127.0275
35.711041 84.912 -127.3663
35.969818 85.011 -127.7076
36.230470 85.109 -128.0533
36.493011 85.207 -128.4048
36.757455 85.304 -128.7632
37.023814 85.400 -129.1291
37.292104 85.493 -129.5025
37.562338 85.583 -129.8834
37.834530 85.670 -130.2713
38.108695 85.753 -130.6659
38.384846 85.833 -131.0665
38.662999 85.909 -131.4724
38.943167 85.981 -131.8825
39.225365 86.051 -132.2956
39.509608 86.118 -132.7103
39.795911 86.184 -133.1253
40.084289 86.247 -133.5395
40.374756 86.309 -133.9519
40.667328 86.369 -134.3613
40.962020 86.428 -134.7662
41.258848 86.483 -135.1647
41.557827 86.536 -135.5543
41.858972 86.587 -135.9327
42.162299 86.634 -136.2983
42.467824 86.679 -136.6508
42.775564 86.722 -136.9920
43.085533 86.765 -137.3257
43.397749 86.809 -137.6566
43.712227 86.853 -137.9905
44.028983 86.899 -138.3321
44.348036 86.945 -138.6855
44.669400 86.992 -139.0527
44.993093 87.040 -139.4344
45.319131 87.086 -139.8297
45.647532 87.131 -140.2361
45.978313 87.173 -140.6505
46.311491 87.212 -141.0695
46.647083 87.247 -141.4897
46.985107 87.279 -141.9088
47.325581 87.308 -142.3254
47.668521 87.334 -142.7397
48.013947 87.358 -143.1521
48.361876 87.379 -143.5632
48.712326 87.399 -143.9721
49.065315 87.418 -144.3770
49.420863 87.434 -144.7743
49.778987 87.450 -145.1603
50.139706 87.464 -145.5314
50.503039 87.477 -145.8852
50.869005 87.490 -146.2213
51.237623 87.502 -146.5406
51.608912 87.514 -146.8451
51.982891 87.526 -147.1373
52.359580 87.538 -147.4198
52.739000 87.550 -147.6947
53.121168 87.561 -147.9644
53.506106 87.573 -148.2309
53.893833 87.584 -148.4963
54.284370 87.596 -148.7621
54.677737 87.608 -149.0291
55.073955 87.620 -149.2975
55.473043 87.633 -149.5668
55.875024 87.647 -149.8365
56.279917 87.662 -150.1067
56.687745 87.680 -150.3778
57.098527 87.700 -150.6505
57.512287 87.722 -150.9259
57.929045 87.747 -151.2053
58.348822 87.774 -151.4904
58.771642 87.803 -151.7836
59.197525 87.834 -152.0871
59.626495 87.866 -152.4025
60.058573 87.900 -152.7306
60.493782 87.935 -153.0708
60.932145 87.972 -153.4217
61.373685 88.010 -153.7811
61.818424 88.051 -154.1468
62.266386 88.094 -154.5161
62.717593 88.139 -154.8867
63.172071 88.186 -155.2561
63.629842 88.234 -155.6228
64.090930 88.283 -155.9858
64.555359 88.334 -156.3451
65.023154 88.385 -156.7011
65.494339 88.437 -157.0548
65.968938 88.489 -157.4072
66.446976 88.541 -157.7596
66.928478 88.593 -158.1131
67.413469 88.644 -158.4688
67.901975 88.694 -158.8277
68.394021 88.743 -159.1904
68.889632 88.791 -159.5575
69.388835 88.836 -159.9288
69.891655 88.879 -160.3038
70.398118 88.920 -160.6820
70.908252 88.959 -161.0624
71.422083 88.995 -161.4444
71.939636 89.029 -161.8271
72.460941 89.061 -162.2097
72.986023 89.090 -162.5917
73.514909 89.116 -162.9733
74.047629 89.141 -163.3547
74.584208 89.162 -163.7368
75.124676 89.182 -164.1205
75.669061 89.199 -164.5066
76.217390 89.214 -164.8960
76.769692 89.227 -165.2889
77.325997 89.237 -165.6858
77.886333 89.246 -166.0867
78.450730 89.254 -166.4914
79.019216 89.259 -166.8991
79.591822 89.264 -167.3080
80.168577 89.267 -167.7151
80.749512 89.269 -168.1166
81.334656 89.270 -168.5081
81.924040 89.269 -168.8862
82.517696 89.266 -169.2495
83.115653 89.262 -169.5989
83.717943 89.257 -169.9371
84.324598 89.251 -170.2681
84.935649 89.245 -170.5953
85.551128 89.239 -170.9211
86.171066 89.233 -171.2475
86.795497 89.227 -171.5753
87.424453 89.221 -171.9052
88.057967 89.215 -172.2379
88.696071 89.209 -172.5734
89.338800 89.204 -172.9116
89.986185 89.198 -173.2522
90.638262 89.193 -173.5945
91.295065 89.189 -173.9380
91.956626 89.184 -174.2820
92.622982 89.179 -174.6260
93.294166 89.173 -174.9697
93.970214 89.168 -175.3130
94.651161 89.162 -175.6557
95.337042 89.156 -175.9976
96.027894 89.150 -176.3384
96.723752 89.144 -176.6776
97.424652 89.138 -177.0145
98.130631 89.132 -177.3485
98.841726 89.126 -177.6790
99.557974 89.121 -178.0057
100.279412 89.116 -178.3286
101.006078 89.112 -178.6482
101.738010 89.109 -178.9653
102.475245 89.106 -179.2812
103.217823 89.104 -179.5970
103.965782 89.103 -179.9136
104.719161 89.103 179.7678
105.477999 89.102 179.4464
106.242336 89.102 179.1216
107.012212 89.103 178.7932
107.787666 89.104 178.4611
108.568740 89.105 178.1257
109.355474 89.108 177.7877
110.147909 89.111 177.4478
110.946086 89.115 177.1066
111.750047 89.120 176.7652
112.559834 89.126 176.4245
113.375489 89.133 176.0853
114.197055 89.140 175.7483
115.024574 89.148 175.4139
115.858089 89.157 175.0825
116.697645 89.165 174.7541
117.543284 89.174 174.4291
118.395051 89.182 174.1076
119.252990 89.190 173.7897
120.117147 89.197 173.4753
120.987565 89.203 173.1642
121.864291 89.209 172.8559
122.747370 89.215 172.5502
123.636848 89.219 172.2468
124.532771 89.222 171.9457
125.435187 89.224 171.6469
126.344142 89.226 171.3505
127.259684 89.225 171.0565
128.181860 89.224 170.7647
129.110718 89.222 170.4750
130.046308 89.218 170.1870
130.988677 89.213 169.9002
131.937875 89.207 169.6141
132.893951 89.199 169.3282
133.856956 89.191 169.0420
134.826938 89.182 168.7551
135.803950 89.172 168.4671
136.788041 89.161 168.1779
137.779264 89.149 167.8874
138.777669 89.136 167.5959
139.783309 89.122 167.3036
140.796237 89.107 167.0111
141.816504 89.091 166.7191
142.844165 89.073 166.4282
143.879273 89.055 166.1389
144.921881 89.035 165.8517
145.972045 89.015 165.5665
147.029819 88.993 165.2832
148.095257 88.972 165.0015
149.168417 88.949 164.7210
150.249353 88.926 164.4414
151.338121 88.903 164.1624
152.434780 88.880 163.8839
153.539385 88.857 163.6059
154.651995 88.834 163.3284
155.772667 88.812 163.0515
156.901460 88.789 162.7753
158.038432 88.767 162.5003
159.183644 88.745 162.2269
160.337154 88.724 161.9555
161.499023 88.703 161.6864
162.669312 88.681 161.4197
163.848081 88.660 161.1549
165.035392 88.638 160.8914
166.231306 88.616 160.6285
167.435887 88.594 160.3658
168.649196 88.572 160.1033
169.871298 88.550 159.8411
171.102255 88.528 159.5794
172.342133 88.505 159.3181
173.590995 88.483 159.0571
174.848907 88.461 158.7963
176.115934 88.438 158.5356
177.392143 88.416 158.2751
178.677599 88.392 158.0151
179.972371 88.368 157.7560
181.276525 88.343 157.4987
182.590129 88.317 157.2439
183.913252 88.291 156.9922
185.245964 88.263 156.7443
186.588332 88.235 156.5000
187.940428 88.205 156.2593
189.302322 88.175 156.0217
190.674085 88.144 155.7866
192.055788 88.112 155.5536
193.447503 88.079 155.3226
194.849303 88.046 155.0934
196.261262 88.013 154.8664
197.683452 87.979 154.6419
199.115948 87.945 154.4201
200.558824 87.912 154.2012
202.012156 87.878 153.9851
203.476019 87.845 153.7716
204.950490 87.811 153.5600
206.435646 87.777 153.3499
207.931564 87.743 153.1412
209.438322 87.709 152.9345
210.955998 87.675 152.7310
212.484672 87.641 152.5320
214.024424 87.607 152.3388
215.575333 87.574 152.1521
217.137481 87.543 151.9724
218.710948 87.512 151.7996
220.295818 87.484 151.6333
221.892172 87.457 151.4728
223.500094 87.432 151.3175
225.119668 87.409 151.1666
226.750978 87.388 151.0192
228.394109 87.370 150.8745
230.049147 87.353 150.7313
231.716178 87.338 150.5886
233.395289 87.326 150.4448
235.086567 87.314 150.2986
236.790102 87.304 150.1493
238.505980 87.295 149.9962
240.234293 87.286 149.8394
241.975130 87.277 149.6790
243.728581 87.269 149.5152
245.494739 87.260 149.3483
247.273695 87.250 149.1792
249.065542 87.240 149.0091
250.870374 87.230 148.8395
252.688284 87.220 148.6718
254.519367 87.209 148.5072
256.363720 87.198 148.3461
258.221437 87.188 148.1884
260.092616 87.178 148.0335
261.977354 87.170 147.8814
263.875750 87.162 147.7322
265.787903 87.154 147.5858
267.713911 87.148 147.4413
269.653877 87.142 147.2971
271.607900 87.136 147.1511
273.576083 87.129 147.0010
275.558528 87.123 146.8455
277.555338 87.116 146.6842
279.566619 87.109 146.5179
281.592474 87.102 146.3479
283.633009 87.094 146.1758
285.688331 87.087 146.0031
287.758546 87.079 145.8317
289.843763 87.071 145.6635
291.944090 87.063 145.5002
294.059638 87.056 145.3437
296.190515 87.049 145.1947
298.336833 87.043 145.0534
300.498705 87.037 144.9190
302.676243 87.032 144.7902
304.869559 87.028 144.6655
307.078770 87.024 144.5434
309.303989 87.020 144.4229
311.545334 87.017 144.3033
313.802919 87.015 144.1841
316.076865 87.012 144.0652
318.367288 87.010 143.9465
320.674309 87.008 143.8279
322.998047 87.005 143.7096
325.338624 87.002 143.5915
327.696162 86.998 143.4740
330.070783 86.994 143.3571
332.462612 86.988 143.2410
334.871773 86.981 143.1255
337.298392 86.973 143.0103
339.742595 86.964 142.8950
342.204510 86.954 142.7795
344.684265 86.943 142.6639
347.181989 86.930 142.5488
349.697813 86.917 142.4352
352.231868 86.903 142.3242
354.784285 86.887 142.2170
357.355198 86.871 142.1151
359.944741 86.854 142.0191
362.553049 86.836 141.9294
365.180258 86.817 141.8453
367.826505 86.798 141.7655
370.491927 86.779 141.6879
373.176665 86.759 141.6107
375.880856 86.739 141.5322
378.604644 86.719 141.4513
381.348169 86.698 141.3674
384.111575 86.678 141.2804
386.895006 86.657 141.1906
389.698607 86.636 141.0990
392.522524 86.614 141.0064
395.366904 86.593 140.9135
398.231895 86.571 140.8205
401.117648 86.550 140.7272
404.024312 86.528 140.6335
406.952038 86.506 140.5392
409.900981 86.483 140.4448
412.871292 86.460 140.3504
415.863128 86.435 140.2567
418.876643 86.409 140.1641
421.911996 86.382 140.0729
424.969344 86.353 139.9832
428.048847 86.323 139.8948
431.150666 86.291 139.8077
434.274961 86.258 139.7214
437.421897 86.224 139.6353
440.591636 86.189 139.5486
443.784345 86.152 139.4608
447.000189 86.115 139.3713
450.239337 86.077 139.2803
453.501956 86.038 139.1884
456.788219 85.998 139.0965
460.098294 85.958 139.0058
463.432356 85.917 138.9171
466.790578 85.876 138.8310
470.173135 85.836 138.7479
473.580203 85.795 138.6678
477.011961 85.755 138.5905
480.468586 85.716 138.5161
483.950259 85.678 138.4443
487.457163 85.640 138.3752
490.989478 85.604 138.3090
494.547390 85.569 138.2458
498.131084 85.535 138.1861
501.740748 85.503 138.1302
505.376568 85.472 138.0783
509.038735 85.443 138.0302
512.727439 85.416 137.9854
516.442874 85.392 137.9432
520.185232 85.370 137.9026
523.954708 85.350 137.8627
527.751500 85.334 137.8224
531.575805 85.319 137.7805
535.427822 85.308 137.7361
539.307753 85.298 137.6882
543.215800 85.291 137.6363
547.152165 85.285 137.5804
551.117055 85.281 137.5208
555.110677 85.279 137.4579
559.133237 85.278 137.3928
563.184947 85.278 137.3260
567.266018 85.280 137.2584
571.376661 85.281 137.1909
575.517092 85.283 137.1240
579.687526 85.286 137.0584
583.888181 85.287 136.9945
588.119275 85.289 136.9330
592.381030 85.290 136.8747
596.673667 85.290 136.8205
600.997410 85.289 136.7716
605.352485 85.288 136.7290
609.739119 85.286 136.6934
614.157540 85.283 136.6654
618.607979 85.279 136.6451
623.090667 85.275 136.6324
627.605839 85.271 136.6267
632.153730 85.267 136.6272
636.734576 85.262 136.6327
641.348617 85.258 136.6415
645.996094 85.254 136.6519
650.677248 85.251 136.6619
655.392323 85.247 136.6696
660.141566 85.243 136.6732
664.925224 85.240 136.6708
669.743546 85.236 136.6613
674.596784 85.232 136.6436
679.485191 85.227 136.6176
684.409020 85.221 136.5832
689.368530 85.214 136.5413
694.363979 85.207 136.4927
699.395626 85.198 136.4385
704.463736 85.187 136.3800
709.568570 85.175 136.3181
714.710396 85.161 136.2535
719.889483 85.146 136.1870
725.106099 85.128 136.1188
730.360516 85.108 136.0496
735.653010 85.087 135.9797
740.983855 85.063 135.9096
746.353329 85.038 135.8397
751.761713 85.011 135.7703
757.209288 84.982 135.7017
762.696339 84.951 135.6341
768.223151 84.920 135.5676
773.790013 84.887 135.5023
779.397214 84.854 135.4382
785.045047 84.820 135.3749
790.733808 84.786 135.3119
796.463791 84.751 135.2479
802.235296 84.717 135.1814
808.048623 84.683 135.1104
813.904077 84.649 135.0330
819.801961 84.615 134.9474
825.742584 84.581 134.8524
831.726255 84.547 134.7473
837.753287 84.512 134.6326
843.823992 84.475 134.5094
849.938689 84.437 134.3801
856.097695 84.397 134.2480
862.301332 84.354 134.1175
868.549922 84.308 133.9943
874.843793 84.260 133.8850
881.183272 84.208 133.7976
887.568689 84.153 133.7405
894.000378 84.097 133.7224
900.478673 84.040 133.7509
907.003913 83.983 133.8316
913.576437 83.929 133.9670
920.196588 83.879 134.1556
926.864712 83.836 134.3920
933.581156 83.801 134.6667
940.346270 83.775 134.9681
947.160407 83.759 135.2827
954.023921 83.754 135.5974
960.937172 83.759 135.9007
967.900519 83.773 136.1830
974.914325 83.795 136.4376
981.978956 83.824 136.6604
989.094780 83.858 136.8495
996.262169 83.898 137.0053
1003.481495 83.940 137.1293
1010.753136 83.986 137.2242
1018.077470 84.033 137.2935
1025.454879 84.082 137.3408
1032.885748 84.132 137.3700
1040.370463 84.182 137.3846
1047.909417 84.234 137.3877
1055.503000 84.285 137.3818
1063.151610 84.337 137.3690
1070.855645 84.390 137.3509
1078.615506 84.443 137.3290
1086.431599 84.496 137.3044
1094.304330 84.549 137.2776
1102.234110 84.604 137.2490
1110.221353 84.658 137.2182
1118.266475 84.713 137.1850
1126.369895 84.768 137.1492
1134.532035 84.822 137.1102
1142.753322 84.877 137.0679
1151.034184 84.932 137.0217
1159.375052 84.987 136.9710
1167.776361 85.042 136.9153
1176.238550 85.096 136.8540
1184.762060 85.150 136.7868
1193.347334 85.203 136.7135
1201.994821 85.256 136.6343
1210.704971 85.308 136.5496
1219.478238 85.359 136.4601
1228.315080 85.410 136.3668
1237.215957 85.460 136.2705
1246.181334 85.509 136.1727
1255.211678 85.557 136.0748
1264.307459 85.605 135.9781
1273.469152 85.652 135.8841
1282.697235 85.699 135.7935
1291.992188 85.746 135.7069
1301.354495 85.793 135.6245
1310.784647 85.840 135.5459
1320.283132 85.887 135.4708
1329.850448 85.935 135.3979
1339.487093 85.983 135.3260
1349.193569 86.032 135.2537
1358.970381 86.082 135.1796
1368.818041 86.131 135.1031
1378.737061 86.181 135.0242
1388.727958 86.231 134.9433
1398.791253 86.281 134.8614
1408.927471 86.332 134.7797
1419.137140 86.383 134.7000
1429.420793 86.434 134.6236
1439.778965 86.487 134.5521
1450.212197 86.540 134.4864
1460.721033 86.594 134.4276
1471.306019 86.650 134.3760
1481.967709 86.707 134.3318
1492.706658 86.765 134.2944
1503.523426 86.824 134.2629
1514.418576 86.884 134.2364
1525.392678 86.945 134.2138
1536.446302 87.005 134.1945
1547.580025 87.065 134.1779
1558.794428 87.123 134.1639
1570.090095 87.180 134.1523
1581.467615 87.234 134.1433
1592.927581 87.286 134.1372
1604.470591 87.335 134.1343
1616.097246 87.380 134.1355
1627.808153 87.422 134.1423
1639.603922 87.461 134.1563
1651.485168 87.496 134.1794
1663.452510 87.528 134.2130
1675.506573 87.558 134.2578
1687.647984 87.586 134.3136
1699.877377 87.612 134.3791
1712.195390 87.638 134.4520
1724.602663 87.663 134.5296
1737.099845 87.688 134.6089
1749.687587 87.712 134.6874
1762.366544 87.736 134.7629
1775.137379 87.760 134.8347
1788.000756 87.783 134.9028
1800.957346 87.805 134.9683
1814.007826 87.826 135.0321
1827.152874 87.846 135.0951
1840.393177 87.865 135.1576
1853.729425 87.883 135.2193
1867.162312 87.900 135.2798
1880.692540 87.916 135.3381
1894.320813 87.930 135.3936
1908.047843 87.943 135.4459
1921.874344 87.954 135.4946
1935.801038 87.962 135.5395
1949.828650 87.969 135.5803
1963.957912 87.973 135.6165
1978.189561 87.976 135.6479
1992.524338 87.976 135.6738
2006.962991 87.974 135.6940
2021.506272 87.970 135.7084
2036.154940 87.965 135.7170
2050.909758 87.958 135.7198
2065.771495 87.949 135.7166
2080.740927 87.940 135.7067
2095.818833 87.929 135.6896
2111.006001 87.918 135.6642
2126.303220 87.906 135.6301
2141.711290 87.894 135.5869
2157.231013 87.882 135.5347
2172.863198 87.868 135.4742
2188.608660 87.855 135.4064
2204.468221 87.840 135.3325
2220.442706 87.825 135.2545
2236.532950 87.810 135.1747
2252.739789 87.794 135.0958
2269.064070 87.777 135.0213
2285.506644 87.760 134.9543
2302.068367 87.744 134.8979
2318.750104 87.728 134.8541
2335.552723 87.714 134.8239
2352.477101 87.703 134.8069
2369.524119 87.694 134.8013
2386.694668 87.690 134.8039
2403.989641 87.690 134.8103
2421.409941 87.696 134.8157
2438.956476 87.706 134.8157
2456.630160 87.721 134.8069
2474.431915 87.740 134.7871
2492.362668 87.763 134.7556
2510.423356 87.790 134.7130
2528.614918 87.821 134.6603
2546.938304 87.856 134.5993
2565.394469 87.893 134.5318
2583.984375 87.934 134.4594
2602.708991 87.979 134.3829
2621.569293 88.027 134.3029
2640.566265 88.079 134.2192
2659.700897 88.135 134.1311
2678.974186 88.194 134.0380
2698.387137 88.257 133.9390
2717.940763 88.323 133.8334
2737.636082 88.393 133.7202
2757.474121 88.465 133.5985
2777.455915 88.540 133.4669
2797.582506 88.618 133.3237
2817.854942 88.697 133.1674
2838.274281 88.778 132.9966
2858.841586 88.860 132.8107
2879.557931 88.941 132.6098
2900.424394 89.021 132.3947
2921.442065 89.100 132.1667
2942.612039 89.177 131.9273
2963.935418 89.250 131.6780
2985.413316 89.321 131.4202
3007.046852 89.387 131.1552
3028.837153 89.449 130.8841
3050.785356 89.505 130.6083
3072.892604 89.556 130.3290
3095.160050 89.600 130.0478
3117.588856 89.637 129.7665
3140.180190 89.667 129.4871
3162.935230 89.690 129.2118
3185.855163 89.704 128.9425
3208.941182 89.710 128.6810
3232.194493 89.709 128.4286
3255.616307 89.699 128.1863
3279.207844 89.682 127.9547
3302.970336 89.657 127.7342
3326.905021 89.624 127.5252
3351.013146 89.583 127.3284
3375.295969 89.536 127.1444
3399.754755 89.481 126.9741
3424.390779 89.420 126.8182
3449.205326 89.352 126.6779
3474.199690 89.279 126.5544
3499.375173 89.201 126.4489
3524.733088 89.119 126.3626
3550.274757 89.033 126.2967
3576.001511 88.944 126.2522
3601.914692 88.853 126.2302
3628.015651 88.760 126.2316
3654.305748 88.668 126.2573
3680.786354 88.577 126.3080
3707.458849 88.487 126.3839
3734.324624 88.399 126.4852
3761.385080 88.315 126.6117
3788.641627 88.235 126.7630
3816.095686 88.159 126.9390
3843.748688 88.088 127.1399
3871.602076 88.023 127.3664
3899.657300 87.963 127.6200
3927.915825 87.909 127.9023
3956.379122 87.862 128.2152
3985.048676 87.821 128.5605
4013.925981 87.786 128.9399
4043.012544 87.759 129.3546
4072.309879 87.740 129.8052
4101.819515 87.728 130.2921
4131.542990 87.724 130.8142
4161.481854 87.728 131.3697
4191.637667 87.742 131.9553
4222.012001 87.764 132.5662
4252.606441 87.795 133.1960
4283.422580 87.835 133.8366
4314.462026 87.884 134.4783
4345.726396 87.941 135.1101
4377.217321 88.006 135.7204
4408.936442 88.078 136.2975
4440.885413 88.156 136.8300
4473.065899 88.238 137.3075
4505.479579 88.323 137.7209
4538.128141 88.410 138.0632
4571.013288 88.497 138.3294
4604.136735 88.582 138.5171
4637.500207 88.664 138.6259
4671.105446 88.742 138.6574
4704.954201 88.815 138.6148
4739.048239 88.881 138.5025
4773.389336 88.941 138.3258
4807.979283 88.993 138.0907
4842.819883 89.037 137.8032
4877.912952 89.074 137.4692
4913.260320 89.102 137.0946
4948.863830 89.123 136.6843
4984.725337 89.136 136.2432
5020.846712 89.141 135.7757
5057.229836 89.139 135.2859
5093.876609 89.128 134.7779
5130.788938 89.110 134.2559
5167.968750 89.083 133.7247
5205.417982 89.047 133.1898
5243.138586 89.003 132.6581
5281.132530 88.949 132.1373
5319.401793 88.885 131.6366
5357.948371 88.811 131.1660
5396.774274 88.727 130.7363
5435.881525 88.634 130.3586
5475.272163 88.531 130.0443
5514.948243 88.420 129.8038
5554.911831 88.302 129.6469
5595.165012 88.178 129.5816
5635.709884 88.049 129.6141
5676.548561 87.917 129.7481
5717.683172 87.784 129.9846
5759.115861 87.651 130.3219
5800.848789 87.519 130.7549
5842.884130 87.390 131.2762
5885.224077 87.264 131.8766
5927.870837 87.140 132.5463
5970.826633 87.019 133.2766
6014.093704 86.900 134.0607
6057.674306 86.780 134.8960
6101.570711 86.658 135.7841
6145.785208 86.534 136.7318
6190.320101 86.405 137.7513
6235.177712 86.270 138.8600
6280.360380 86.131 140.0801
6325.870460 85.987 141.4373
6371.710325 85.840 142.9597
6417.882365 85.694 144.6768
6464.388986 85.553 146.6165
6511.232613 85.422 148.8032
6558.415689 85.309 151.2539
6605.940673 85.221 153.9734
6653.810042 85.167 156.9495
6702.026292 85.157 160.1473
6750.591937 85.198 163.5068
6799.509509 85.296 166.9425
6848.781558 85.454 170.3488
6898.410653 85.672 173.6093
6948.399380 85.945 176.6098
6998.750346 86.267 179.2497
7049.466176 86.627 -178.5486
7100.549514 87.014 -176.8355
7152.003023 87.416 -175.6352
7203.829385 87.821 -174.9495
7256.031302 88.218 -174.7634
7308.611496 88.598 -175.0497
7361.572708 88.951 -175.7734
7414.917698 89.270 -176.8940
7468.649249 89.549 -178.3677
7522.770160 89.781 179.8515
7577.283253 89.962 177.8110
7632.191371 90.089 175.5587
7687.497376 90.158 173.1423
7743.204151 90.168 170.6094
7799.314600 90.118 168.0066
7855.831649 90.006 165.3802
7912.758244 89.832 162.7760
7970.097352 89.597 160.2404
8027.851962 89.300 157.8212
8086.025087 88.943 155.5687
8144.619758 88.526 153.5377
8203.639030 88.050 151.7895
8263.085980 87.520 150.3946
8322.963708 86.936 149.4373
8383.275334 86.303 149.0195
8444.024002 85.627 149.2676
8505.212881 84.917 150.3393
8566.845160 84.184 152.4283
8628.924051 83.445 155.7625
8691.452792 82.721 160.5775
8754.434642 82.039 167.0447
8817.872884 81.432 175.1298
8881.770826 80.932 -175.5702
8946.131799 80.568 -165.8440
9010.959157 80.356 -156.6042
9076.256282 80.297 -148.5153
9142.026576 80.375 -141.8389
9208.273470 80.565 -136.5300
9275.000415 80.838 -132.4042
9342.210891 81.165 -129.2527
9409.908403 81.525 -126.8925
9478.096478 81.898 -125.1797
9546.778672 82.271 -124.0064
9615.958566 82.634 -123.2929
9685.639765 82.978 -122.9795
9755.825904 83.298 -123.0197
9826.520640 83.588 -123.3748
9897.727659 83.843 -124.0094
9969.450674 84.059 -124.8892
10041.693423 84.231 -125.9789
10114.459673 84.358 -127.2416
10187.753217 84.437 -128.6384
10261.577877 84.466 -130.1290
10335.937500 84.443 -131.6728
10410.835964 84.370 -133.2292
10486.277173 84.246 -134.7589
10562.265060 84.073 -136.2246
10638.803587 83.853 -137.5912
10715.896743 83.588 -138.8263
10793.548548 83.281 -139.9000
10871.763050 82.934 -140.7850
10950.544327 82.551 -141.4561
11029.896485 82.136 -141.8912
11109.823662 81.692 -142.0709
11190.330024 81.223 -141.9806
11271.419768 80.736 -141.6115
11353.097122 80.234 -140.9635
11435.366344 79.722 -140.0466
11518.231722 79.208 -138.8823
11601.697577 78.695 -137.5034
11685.768261 78.188 -135.9511
11770.448155 77.689 -134.2703
11855.741674 77.201 -132.5029
11941.653265 76.723 -130.6815
12028.187408 76.254 -128.8235
12115.348612 75.791 -126.9278
12203.141422 75.333 -124.9755
12291.570415 74.877 -122.9319
12380.640201 74.423 -120.7529
12470.355424 73.973 -118.3908
12560.720760 73.531 -115.8022
12651.740920 73.104 -112.9541
12743.420650 72.701 -109.8322
12835.764729 72.333 -106.4491
12928.777972 72.014 -102.8532
13022.465227 71.757 -99.1369
13116.831378 71.574 -95.4372
13211.881345 71.471 -91.9258
13307.620084 71.452 -88.7871
13404.052584 71.509 -86.1885
13501.183875 71.628 -84.2556
13599.019019 71.790 -83.0581
13697.563116 71.973 -82.6098
13796.821305 72.156 -82.8770
13896.798760 72.318 -83.7910
13997.500692 72.444 -85.2611
14098.932352 72.526 -87.1844
14201.099028 72.558 -89.4560
14304.006046 72.541 -91.9763
14407.658770 72.482 -94.6587
14512.062604 72.392 -97.4354
14617.222992 72.288 -100.2628
14723.145416 72.190 -103.1247
14829.835397 72.121 -106.0330
14937.298497 72.101 -109.0273
15045.540320 72.148 -112.1700
15154.566507 72.272 -115.5393
15264.382743 72.472 -119.2196
15374.994752 72.740 -123.2916
15486.408302 73.056 -127.8227
15598.629201 73.400 -132.8599
15711.663298 73.746 -138.4255
15825.516487 74.071 -144.5146
15940.194703 74.354 -151.0950
16055.703925 74.575 -158.1082
16172.050174 74.720 -165.4711
16289.239516 74.777 -173.0807
16407.278061 74.741 179.1796
16526.171961 74.608 171.4303
16645.927415 74.384 163.7863
16766.550667 74.076 156.3456
16888.048005 73.699 149.1840
17010.425762 73.269 142.3506
17133.690320 72.812 135.8669
17257.848103 72.356 129.7274
17382.905584 71.938 123.8998
17508.869284 71.597 118.3253
17635.745768 71.374 112.9181
17763.541652 71.299 107.5648
17892.263597 71.388 102.1247
18021.918315 71.632 96.4313
18152.512564 72.005 90.2975
18284.053153 72.467 83.5233
18416.546939 72.975 75.9079
18550.000830 73.492 67.2634
18684.421783 73.986 57.4398
18819.816805 74.436 46.3693
18956.192956 74.827 34.1422
19093.557344 75.151 21.1073
19231.917131 75.406 7.9260
19371.279531 75.596 -4.5148
19511.651807 75.728 -15.3324
19653.041280 75.812 -23.8571
19795.455318 75.860 -29.6907
19938.901348 75.881 -32.6425
