* Measurement data measured by REW V5.31.3
* Source: EXCL: Headset (USB-C to 3.5mm Headphone Jack Adapter), MICROPHONE (Master Volume), 0, volume: 0.750
* Format: 256k Log Swept Sine, 1 sweep at -12.0 dBFS with no timing reference
* Dated: Apr 7, 2025 12:10:21 PM
* REW Settings:
*  C-weighting compensation: Off
*  Target level: 75.0 dB
* Note: ; 
* Measurement: HD6XX (Forward) L8
* Smoothing: 1/6 octave
* Frequency Step: 96 ppo
* Start Frequency: 20.0 Hz
*
* Freq(Hz) SPL(dB) Phase(degrees)
20.187378 78.312 -92.3527
20.333664 78.366 -92.5103
20.481010 78.437 -92.7252
20.629424 78.519 -92.9962
20.778913 78.608 -93.3201
20.929486 78.701 -93.6919
21.081150 78.792 -94.1041
21.233912 78.877 -94.5471
21.387782 78.955 -95.0093
21.542767 79.023 -95.4780
21.698874 79.080 -95.9401
21.856113 79.126 -96.3829
22.014492 79.162 -96.7951
22.174018 79.189 -97.1674
22.334700 79.211 -97.4937
22.496546 79.229 -97.7716
22.659566 79.247 -98.0022
22.823766 79.268 -98.1908
22.989157 79.295 -98.3462
23.155745 79.330 -98.4798
23.323542 79.376 -98.6046
23.492554 79.433 -98.7343
23.662790 79.501 -98.8815
23.834261 79.581 -99.0567
24.006973 79.670 -99.2678
24.180938 79.766 -99.5195
24.356163 79.867 -99.8133
24.532658 79.970 -100.1478
24.710431 80.072 -100.5196
24.889493 80.171 -100.9235
25.069853 80.263 -101.3535
25.251519 80.347 -101.8032
25.434502 80.420 -102.2663
25.618811 80.482 -102.7366
25.804456 80.531 -103.2083
25.991445 80.567 -103.6759
26.179790 80.591 -104.1343
26.369500 80.605 -104.5786
26.560584 80.610 -105.0044
26.753053 80.609 -105.4083
26.946917 80.607 -105.7876
27.142185 80.606 -106.1419
27.338869 80.612 -106.4726
27.536977 80.627 -106.7839
27.736522 80.654 -107.0826
27.937512 80.696 -107.3774
28.139959 80.752 -107.6781
28.343872 80.821 -107.9939
28.549264 80.899 -108.3319
28.756143 80.984 -108.6955
28.964522 81.069 -109.0838
29.174411 81.151 -109.4912
29.385821 81.225 -109.9081
29.598763 81.289 -110.3224
29.813248 81.339 -110.7214
30.029287 81.377 -111.0937
30.246891 81.403 -111.4316
30.466073 81.421 -111.7324
30.686842 81.435 -111.9994
30.909212 81.448 -112.2414
31.133193 81.465 -112.4718
31.358797 81.489 -112.7055
31.586035 81.522 -112.9569
31.814921 81.566 -113.2362
32.045465 81.621 -113.5481
32.277680 81.687 -113.8909
32.511577 81.762 -114.2570
32.747169 81.844 -114.6350
32.984469 81.932 -115.0119
33.223488 82.026 -115.3752
33.464239 82.123 -115.7155
33.706735 82.223 -116.0271
33.950987 82.325 -116.3085
34.197010 82.428 -116.5616
34.444816 82.531 -116.7914
34.694417 82.634 -117.0040
34.945827 82.737 -117.2061
35.199059 82.840 -117.4043
35.454126 82.941 -117.6040
35.711041 83.041 -117.8092
35.969818 83.140 -118.0227
36.230470 83.237 -118.2462
36.493011 83.332 -118.4802
36.757455 83.425 -118.7248
37.023814 83.514 -118.9804
37.292104 83.600 -119.2476
37.562338 83.682 -119.5283
37.834530 83.760 -119.8250
38.108695 83.834 -120.1410
38.384846 83.903 -120.4792
38.662999 83.967 -120.8419
38.943167 84.027 -121.2296
39.225365 84.083 -121.6408
39.509608 84.135 -122.0720
39.795911 84.185 -122.5181
40.084289 84.233 -122.9726
40.374756 84.281 -123.4285
40.667328 84.330 -123.8787
40.962020 84.380 -124.3168
41.258848 84.431 -124.7370
41.557827 84.485 -125.1352
41.858972 84.540 -125.5088
42.162299 84.596 -125.8575
42.467824 84.651 -126.1831
42.775564 84.707 -126.4893
43.085533 84.760 -126.7810
43.397749 84.812 -127.0636
43.712227 84.862 -127.3419
44.028983 84.911 -127.6197
44.348036 84.959 -127.8997
44.669400 85.008 -128.1837
44.993093 85.059 -128.4730
45.319131 85.113 -128.7686
45.647532 85.171 -129.0699
45.978313 85.230 -129.3746
46.311491 85.291 -129.6777
46.647083 85.351 -129.9714
46.985107 85.408 -130.2464
47.325581 85.461 -130.4942
47.668521 85.509 -130.7096
48.013947 85.555 -130.8923
48.361876 85.597 -131.0473
48.712326 85.639 -131.1834
49.065315 85.680 -131.3109
49.420863 85.721 -131.4388
49.778987 85.763 -131.5731
50.139706 85.805 -131.7170
50.503039 85.846 -131.8717
50.869005 85.887 -132.0378
51.237623 85.925 -132.2164
51.608912 85.960 -132.4094
51.982891 85.992 -132.6187
52.359580 86.019 -132.8454
52.739000 86.042 -133.0901
53.121168 86.060 -133.3527
53.506106 86.076 -133.6329
53.893833 86.090 -133.9311
54.284370 86.104 -134.2477
54.677737 86.117 -134.5831
55.073955 86.132 -134.9377
55.473043 86.148 -135.3114
55.875024 86.164 -135.7037
56.279917 86.182 -136.1141
56.687745 86.201 -136.5416
57.098527 86.221 -136.9846
57.512287 86.243 -137.4406
57.929045 86.268 -137.9055
58.348822 86.296 -138.3733
58.771642 86.327 -138.8350
59.197525 86.363 -139.2799
59.626495 86.403 -139.6963
60.058573 86.448 -140.0744
60.493782 86.497 -140.4091
60.932145 86.550 -140.7007
61.373685 86.605 -140.9554
61.818424 86.662 -141.1830
62.266386 86.720 -141.3945
62.717593 86.778 -141.5997
63.172071 86.836 -141.8062
63.629842 86.892 -142.0186
64.090930 86.949 -142.2393
64.555359 87.004 -142.4687
65.023154 87.060 -142.7061
65.494339 87.115 -142.9509
65.968938 87.170 -143.2027
66.446976 87.225 -143.4614
66.928478 87.280 -143.7274
67.413469 87.335 -144.0010
67.901975 87.391 -144.2821
68.394021 87.447 -144.5702
68.889632 87.502 -144.8646
69.388835 87.556 -145.1642
69.891655 87.609 -145.4677
70.398118 87.660 -145.7743
70.908252 87.708 -146.0833
71.422083 87.752 -146.3944
71.939636 87.794 -146.7075
72.460941 87.832 -147.0224
72.986023 87.866 -147.3391
73.514909 87.897 -147.6575
74.047629 87.926 -147.9772
74.584208 87.952 -148.2982
75.124676 87.975 -148.6203
75.669061 87.997 -148.9434
76.217390 88.016 -149.2670
76.769692 88.034 -149.5910
77.325997 88.051 -149.9153
77.886333 88.066 -150.2399
78.450730 88.081 -150.5649
79.019216 88.094 -150.8900
79.591822 88.107 -151.2151
80.168577 88.119 -151.5393
80.749512 88.130 -151.8617
81.334656 88.142 -152.1814
81.924040 88.152 -152.4972
82.517696 88.163 -152.8084
83.115653 88.172 -153.1143
83.717943 88.181 -153.4150
84.324598 88.189 -153.7107
84.935649 88.196 -154.0024
85.551128 88.203 -154.2913
86.171066 88.209 -154.5786
86.795497 88.215 -154.8658
87.424453 88.221 -155.1538
88.057967 88.226 -155.4435
88.696071 88.230 -155.7355
89.338800 88.235 -156.0305
89.986185 88.238 -156.3288
90.638262 88.242 -156.6310
91.295065 88.245 -156.9369
91.956626 88.248 -157.2464
92.622982 88.251 -157.5589
93.294166 88.253 -157.8739
93.970214 88.256 -158.1909
94.651161 88.259 -158.5094
95.337042 88.262 -158.8293
96.027894 88.265 -159.1502
96.723752 88.269 -159.4720
97.424652 88.274 -159.7941
98.130631 88.279 -160.1160
98.841726 88.285 -160.4366
99.557974 88.291 -160.7548
100.279412 88.297 -161.0696
101.006078 88.304 -161.3801
101.738010 88.312 -161.6859
102.475245 88.320 -161.9870
103.217823 88.329 -162.2836
103.965782 88.339 -162.5761
104.719161 88.348 -162.8649
105.477999 88.358 -163.1509
106.242336 88.368 -163.4357
107.012212 88.378 -163.7208
107.787666 88.387 -164.0079
108.568740 88.396 -164.2980
109.355474 88.405 -164.5916
110.147909 88.415 -164.8885
110.946086 88.424 -165.1882
111.750047 88.435 -165.4899
112.559834 88.446 -165.7923
113.375489 88.459 -166.0944
114.197055 88.471 -166.3954
115.024574 88.485 -166.6944
115.858089 88.499 -166.9910
116.697645 88.514 -167.2847
117.543284 88.528 -167.5753
118.395051 88.543 -167.8628
119.252990 88.557 -168.1470
120.117147 88.570 -168.4281
120.987565 88.583 -168.7062
121.864291 88.594 -168.9816
122.747370 88.605 -169.2549
123.636848 88.614 -169.5270
124.532771 88.622 -169.7989
125.435187 88.629 -170.0714
126.344142 88.635 -170.3448
127.259684 88.641 -170.6194
128.181860 88.646 -170.8952
129.110718 88.650 -171.1723
130.046308 88.653 -171.4501
130.988677 88.656 -171.7279
131.937875 88.657 -172.0045
132.893951 88.658 -172.2786
133.856956 88.658 -172.5488
134.826938 88.656 -172.8140
135.803950 88.654 -173.0737
136.788041 88.650 -173.3277
137.779264 88.645 -173.5762
138.777669 88.639 -173.8196
139.783309 88.631 -174.0586
140.796237 88.622 -174.2937
141.816504 88.612 -174.5256
142.844165 88.600 -174.7550
143.879273 88.587 -174.9827
144.921881 88.572 -175.2089
145.972045 88.557 -175.4341
147.029819 88.540 -175.6586
148.095257 88.522 -175.8825
149.168417 88.504 -176.1058
150.249353 88.485 -176.3283
151.338121 88.466 -176.5498
152.434780 88.446 -176.7696
153.539385 88.427 -176.9870
154.651995 88.407 -177.2015
155.772667 88.387 -177.4128
156.901460 88.368 -177.6212
158.038432 88.348 -177.8271
159.183644 88.329 -178.0312
160.337154 88.311 -178.2343
161.499023 88.292 -178.4370
162.669312 88.274 -178.6397
163.848081 88.257 -178.8425
165.035392 88.239 -179.0452
166.231306 88.222 -179.2472
167.435887 88.206 -179.4481
168.649196 88.190 -179.6474
169.871298 88.174 -179.8447
171.102255 88.159 179.9600
172.342133 88.144 179.7665
173.590995 88.129 179.5747
174.848907 88.113 179.3841
176.115934 88.098 179.1943
177.392143 88.082 179.0049
178.677599 88.065 178.8157
179.972371 88.047 178.6265
181.276525 88.029 178.4373
182.590129 88.010 178.2484
183.913252 87.991 178.0604
185.245964 87.971 177.8737
186.588332 87.950 177.6891
187.940428 87.930 177.5069
189.302322 87.908 177.3278
190.674085 87.887 177.1522
192.055788 87.864 176.9806
193.447503 87.842 176.8130
194.849303 87.819 176.6492
196.261262 87.796 176.4881
197.683452 87.773 176.3285
199.115948 87.749 176.1687
200.558824 87.726 176.0072
202.012156 87.703 175.8429
203.476019 87.680 175.6754
204.950490 87.657 175.5051
206.435646 87.634 175.3328
207.931564 87.612 175.1596
209.438322 87.589 174.9872
210.955998 87.567 174.8172
212.484672 87.545 174.6510
214.024424 87.523 174.4897
215.575333 87.501 174.3339
217.137481 87.480 174.1837
218.710948 87.460 174.0386
220.295818 87.441 173.8978
221.892172 87.422 173.7603
223.500094 87.404 173.6244
225.119668 87.388 173.4885
226.750978 87.372 173.3513
228.394109 87.358 173.2119
230.049147 87.344 173.0701
231.716178 87.331 172.9267
233.395289 87.320 172.7829
235.086567 87.309 172.6406
236.790102 87.300 172.5014
238.505980 87.292 172.3668
240.234293 87.285 172.2373
241.975130 87.279 172.1129
243.728581 87.274 171.9927
245.494739 87.270 171.8759
247.273695 87.266 171.7614
249.065542 87.262 171.6486
250.870374 87.258 171.5370
252.688284 87.254 171.4267
254.519367 87.250 171.3177
256.363720 87.246 171.2097
258.221437 87.240 171.1024
260.092616 87.234 170.9948
261.977354 87.228 170.8857
263.875750 87.220 170.7738
265.787903 87.213 170.6584
267.713911 87.205 170.5400
269.653877 87.197 170.4201
271.607900 87.190 170.3013
273.576083 87.183 170.1859
275.558528 87.177 170.0749
277.555338 87.170 169.9684
279.566619 87.164 169.8655
281.592474 87.158 169.7652
283.633009 87.151 169.6665
285.688331 87.145 169.5689
287.758546 87.140 169.4722
289.843763 87.136 169.3769
291.944090 87.132 169.2836
294.059638 87.129 169.1932
296.190515 87.127 169.1064
298.336833 87.125 169.0234
300.498705 87.124 168.9443
302.676243 87.123 168.8689
304.869559 87.122 168.7969
307.078770 87.122 168.7281
309.303989 87.121 168.6626
311.545334 87.121 168.6002
313.802919 87.120 168.5410
316.076865 87.119 168.4851
318.367288 87.117 168.4322
320.674309 87.116 168.3819
322.998047 87.114 168.3337
325.338624 87.112 168.2870
327.696162 87.111 168.2411
330.070783 87.109 168.1954
332.462612 87.107 168.1494
334.871773 87.104 168.1024
337.298392 87.101 168.0542
339.742595 87.097 168.0047
342.204510 87.093 167.9540
344.684265 87.087 167.9026
347.181989 87.080 167.8508
349.697813 87.072 167.7992
352.231868 87.062 167.7487
354.784285 87.051 167.7002
357.355198 87.038 167.6549
359.944741 87.024 167.6139
362.553049 87.008 167.5776
365.180258 86.992 167.5460
367.826505 86.976 167.5185
370.491927 86.959 167.4940
373.176665 86.941 167.4716
375.880856 86.924 167.4504
378.604644 86.906 167.4300
381.348169 86.889 167.4102
384.111575 86.871 167.3909
386.895006 86.854 167.3723
389.698607 86.836 167.3543
392.522524 86.819 167.3366
395.366904 86.802 167.3191
398.231895 86.784 167.3017
401.117648 86.766 167.2845
404.024312 86.748 167.2678
406.952038 86.729 167.2520
409.900981 86.709 167.2374
412.871292 86.688 167.2244
415.863128 86.666 167.2132
418.876643 86.643 167.2038
421.911996 86.619 167.1960
424.969344 86.593 167.1895
428.048847 86.566 167.1842
431.150666 86.537 167.1796
434.274961 86.508 167.1758
437.421897 86.476 167.1726
440.591636 86.444 167.1702
443.784345 86.410 167.1687
447.000189 86.376 167.1682
450.239337 86.340 167.1687
453.501956 86.304 167.1705
456.788219 86.267 167.1741
460.098294 86.230 167.1798
463.432356 86.193 167.1880
466.790578 86.155 167.1989
470.173135 86.119 167.2121
473.580203 86.083 167.2275
477.011961 86.047 167.2447
480.468586 86.013 167.2632
483.950259 85.980 167.2827
487.457163 85.948 167.3024
490.989478 85.917 167.3218
494.547390 85.887 167.3406
498.131084 85.859 167.3587
501.740748 85.832 167.3763
505.376568 85.806 167.3937
509.038735 85.782 167.4112
512.727439 85.759 167.4291
516.442874 85.738 167.4472
520.185232 85.719 167.4653
523.954708 85.701 167.4829
527.751500 85.686 167.4993
531.575805 85.672 167.5139
535.427822 85.660 167.5263
539.307753 85.651 167.5363
543.215800 85.644 167.5443
547.152165 85.638 167.5509
551.117055 85.634 167.5572
555.110677 85.632 167.5641
559.133237 85.631 167.5728
563.184947 85.631 167.5844
567.266018 85.632 167.5995
571.376661 85.635 167.6190
575.517092 85.637 167.6435
579.687526 85.641 167.6737
583.888181 85.644 167.7101
588.119275 85.648 167.7531
592.381030 85.652 167.8029
596.673667 85.656 167.8592
600.997410 85.660 167.9216
605.352485 85.665 167.9890
609.739119 85.669 168.0600
614.157540 85.674 168.1328
618.607979 85.678 168.2055
623.090667 85.682 168.2764
627.605839 85.685 168.3440
632.153730 85.688 168.4074
636.734576 85.690 168.4661
641.348617 85.691 168.5204
645.996094 85.691 168.5709
650.677248 85.690 168.6185
655.392323 85.687 168.6646
660.141566 85.683 168.7101
664.925224 85.678 168.7554
669.743546 85.673 168.8008
674.596784 85.666 168.8459
679.485191 85.659 168.8900
684.409020 85.651 168.9322
689.368530 85.642 168.9722
694.363979 85.632 169.0097
699.395626 85.621 169.0452
704.463736 85.608 169.0799
709.568570 85.594 169.1152
714.710396 85.578 169.1527
719.889483 85.562 169.1936
725.106099 85.544 169.2385
730.360516 85.524 169.2871
735.653010 85.504 169.3388
740.983855 85.484 169.3922
746.353329 85.462 169.4460
751.761713 85.440 169.4988
757.209288 85.417 169.5488
762.696339 85.394 169.5948
768.223151 85.370 169.6355
773.790013 85.346 169.6703
779.397214 85.321 169.6986
785.045047 85.295 169.7204
790.733808 85.269 169.7356
796.463791 85.242 169.7442
802.235296 85.215 169.7462
808.048623 85.187 169.7415
813.904077 85.158 169.7300
819.801961 85.129 169.7119
825.742584 85.099 169.6870
831.726255 85.069 169.6559
837.753287 85.037 169.6195
843.823992 85.004 169.5795
849.938689 84.969 169.5387
856.097695 84.932 169.5007
862.301332 84.893 169.4705
868.549922 84.851 169.4541
874.843793 84.807 169.4581
881.183272 84.761 169.4889
887.568689 84.715 169.5520
894.000378 84.669 169.6512
900.478673 84.624 169.7879
907.003913 84.584 169.9611
913.576437 84.547 170.1670
920.196588 84.517 170.3998
926.864712 84.494 170.6519
933.581156 84.478 170.9147
940.346270 84.470 171.1792
947.160407 84.470 171.4373
954.023921 84.477 171.6817
960.937172 84.490 171.9070
967.900519 84.508 172.1099
974.914325 84.532 172.2889
981.978956 84.559 172.4445
989.094780 84.590 172.5780
996.262169 84.624 172.6918
1003.481495 84.660 172.7883
1010.753136 84.699 172.8700
1018.077470 84.740 172.9384
1025.454879 84.783 172.9944
1032.885748 84.828 173.0382
1040.370463 84.874 173.0695
1047.909417 84.923 173.0875
1055.503000 84.972 173.0912
1063.151610 85.023 173.0804
1070.855645 85.073 173.0554
1078.615506 85.124 173.0177
1086.431599 85.174 172.9694
1094.304330 85.223 172.9129
1102.234110 85.271 172.8506
1110.221353 85.319 172.7844
1118.266475 85.365 172.7155
1126.369895 85.411 172.6443
1134.532035 85.456 172.5710
1142.753322 85.500 172.4949
1151.034184 85.543 172.4156
1159.375052 85.584 172.3333
1167.776361 85.624 172.2485
1176.238550 85.663 172.1625
1184.762060 85.700 172.0773
1193.347334 85.735 171.9947
1201.994821 85.770 171.9164
1210.704971 85.803 171.8433
1219.478238 85.837 171.7756
1228.315080 85.870 171.7125
1237.215957 85.903 171.6524
1246.181334 85.936 171.5938
1255.211678 85.969 171.5352
1264.307459 86.003 171.4759
1273.469152 86.036 171.4155
1282.697235 86.069 171.3546
1291.992188 86.102 171.2939
1301.354495 86.135 171.2343
1310.784647 86.167 171.1762
1320.283132 86.198 171.1198
1329.850448 86.230 171.0646
1339.487093 86.262 171.0098
1349.193569 86.294 170.9548
1358.970381 86.325 170.8992
1368.818041 86.357 170.8430
1378.737061 86.388 170.7862
1388.727958 86.420 170.7291
1398.791253 86.452 170.6715
1408.927471 86.484 170.6132
1419.137140 86.516 170.5535
1429.420793 86.549 170.4921
1439.778965 86.582 170.4291
1450.212197 86.614 170.3660
1460.721033 86.646 170.3053
1471.306019 86.677 170.2504
1481.967709 86.707 170.2052
1492.706658 86.736 170.1729
1503.523426 86.765 170.1563
1514.418576 86.793 170.1574
1525.392678 86.820 170.1776
1536.446302 86.846 170.2178
1547.580025 86.873 170.2780
1558.794428 86.899 170.3575
1570.090095 86.924 170.4541
1581.467615 86.950 170.5643
1592.927581 86.976 170.6836
1604.470591 87.001 170.8068
1616.097246 87.025 170.9287
1627.808153 87.048 171.0446
1639.603922 87.068 171.1509
1651.485168 87.086 171.2461
1663.452510 87.099 171.3311
1675.506573 87.107 171.4093
1687.647984 87.110 171.4863
1699.877377 87.108 171.5688
1712.195390 87.101 171.6635
1724.602663 87.089 171.7762
1737.099845 87.074 171.9113
1749.687587 87.057 172.0715
1762.366544 87.039 172.2577
1775.137379 87.020 172.4693
1788.000756 87.001 172.7040
1800.957346 86.984 172.9576
1814.007826 86.968 173.2245
1827.152874 86.954 173.4987
1840.393177 86.942 173.7746
1853.729425 86.931 174.0473
1867.162312 86.920 174.3132
1880.692540 86.910 174.5698
1894.320813 86.899 174.8163
1908.047843 86.886 175.0525
1921.874344 86.871 175.2794
1935.801038 86.854 175.4986
1949.828650 86.834 175.7128
1963.957912 86.811 175.9252
1978.189561 86.784 176.1393
1992.524338 86.755 176.3576
2006.962991 86.724 176.5817
2021.506272 86.691 176.8118
2036.154940 86.656 177.0470
2050.909758 86.621 177.2861
2065.771495 86.585 177.5283
2080.740927 86.549 177.7724
2095.818833 86.513 178.0168
2111.006001 86.479 178.2592
2126.303220 86.445 178.4969
2141.711290 86.413 178.7277
2157.231013 86.382 178.9501
2172.863198 86.351 179.1639
2188.608660 86.322 179.3695
2204.468221 86.294 179.5680
2220.442706 86.266 179.7607
2236.532950 86.239 179.9492
2252.739789 86.214 -179.8648
2269.064070 86.189 -179.6798
2285.506644 86.166 -179.4951
2302.068367 86.145 -179.3105
2318.750104 86.126 -179.1261
2335.552723 86.109 -178.9424
2352.477101 86.095 -178.7598
2369.524119 86.083 -178.5787
2386.694668 86.075 -178.4002
2403.989641 86.070 -178.2255
2421.409941 86.069 -178.0559
2438.956476 86.071 -177.8926
2456.630160 86.076 -177.7359
2474.431915 86.085 -177.5856
2492.362668 86.098 -177.4411
2510.423356 86.114 -177.3020
2528.614918 86.134 -177.1675
2546.938304 86.157 -177.0371
2565.394469 86.184 -176.9102
2583.984375 86.215 -176.7861
2602.708991 86.250 -176.6642
2621.569293 86.289 -176.5437
2640.566265 86.332 -176.4242
2659.700897 86.378 -176.3055
2678.974186 86.429 -176.1878
2698.387137 86.484 -176.0720
2717.940763 86.543 -175.9583
2737.636082 86.605 -175.8472
2757.474121 86.671 -175.7386
2777.455915 86.741 -175.6330
2797.582506 86.814 -175.5317
2817.854942 86.890 -175.4365
2838.274281 86.970 -175.3496
2858.841586 87.051 -175.2728
2879.557931 87.134 -175.2074
2900.424394 87.219 -175.1538
2921.442065 87.303 -175.1121
2942.612039 87.388 -175.0819
2963.935418 87.471 -175.0624
2985.413316 87.553 -175.0528
3007.046852 87.633 -175.0527
3028.837153 87.709 -175.0615
3050.785356 87.783 -175.0785
3072.892604 87.852 -175.1024
3095.160050 87.917 -175.1320
3117.588856 87.977 -175.1656
3140.180190 88.032 -175.2018
3162.935230 88.081 -175.2394
3185.855163 88.125 -175.2782
3208.941182 88.164 -175.3192
3232.194493 88.197 -175.3640
3255.616307 88.225 -175.4152
3279.207844 88.248 -175.4749
3302.970336 88.264 -175.5445
3326.905021 88.274 -175.6244
3351.013146 88.278 -175.7137
3375.295969 88.275 -175.8104
3399.754755 88.265 -175.9117
3424.390779 88.249 -176.0147
3449.205326 88.227 -176.1167
3474.199690 88.199 -176.2156
3499.375173 88.168 -176.3098
3524.733088 88.132 -176.3988
3550.274757 88.094 -176.4822
3576.001511 88.053 -176.5594
3601.914692 88.011 -176.6294
3628.015651 87.968 -176.6906
3654.305748 87.925 -176.7406
3680.786354 87.883 -176.7774
3707.458849 87.843 -176.7991
3734.324624 87.805 -176.8046
3761.385080 87.772 -176.7939
3788.641627 87.743 -176.7680
3816.095686 87.721 -176.7285
3843.748688 87.704 -176.6769
3871.602076 87.694 -176.6142
3899.657300 87.690 -176.5400
3927.915825 87.693 -176.4530
3956.379122 87.704 -176.3511
3985.048676 87.722 -176.2323
4013.925981 87.747 -176.0955
4043.012544 87.781 -175.9408
4072.309879 87.824 -175.7696
4101.819515 87.875 -175.5841
4131.542990 87.936 -175.3871
4161.481854 88.006 -175.1814
4191.637667 88.085 -174.9704
4222.012001 88.173 -174.7581
4252.606441 88.272 -174.5505
4283.422580 88.381 -174.3558
4314.462026 88.500 -174.1854
4345.726396 88.631 -174.0540
4377.217321 88.771 -173.9790
4408.936442 88.921 -173.9796
4440.885413 89.079 -174.0746
4473.065899 89.243 -174.2815
4505.479579 89.410 -174.6149
4538.128141 89.577 -175.0860
4571.013288 89.742 -175.7027
4604.136735 89.902 -176.4688
4637.500207 90.053 -177.3847
4671.105446 90.192 -178.4471
4704.954201 90.317 -179.6489
4739.048239 90.426 179.0199
4773.389336 90.515 177.5717
4807.979283 90.585 176.0202
4842.819883 90.633 174.3801
4877.912952 90.659 172.6660
4913.260320 90.661 170.8925
4948.863830 90.640 169.0745
4984.725337 90.593 167.2276
5020.846712 90.521 165.3687
5057.229836 90.424 163.5161
5093.876609 90.300 161.6895
5130.788938 90.149 159.9103
5167.968750 89.972 158.2014
5205.417982 89.770 156.5874
5243.138586 89.543 155.0943
5281.132530 89.292 153.7499
5319.401793 89.020 152.5822
5357.948371 88.730 151.6186
5396.774274 88.426 150.8839
5435.881525 88.115 150.3978
5475.272163 87.801 150.1730
5514.948243 87.492 150.2129
5554.911831 87.195 150.5095
5595.165012 86.919 151.0427
5635.709884 86.669 151.7806
5676.548561 86.451 152.6805
5717.683172 86.270 153.6917
5759.115861 86.127 154.7589
5800.848789 86.021 155.8270
5842.884130 85.950 156.8449
5885.224077 85.911 157.7687
5927.870837 85.896 158.5636
5970.826633 85.900 159.2048
6014.093704 85.916 159.6774
6057.674306 85.937 159.9754
6101.570711 85.957 160.1014
6145.785208 85.970 160.0651
6190.320101 85.969 159.8824
6235.177712 85.951 159.5745
6280.360380 85.910 159.1678
6325.870460 85.843 158.6927
6371.710325 85.748 158.1838
6417.882365 85.622 157.6793
6464.388986 85.465 157.2198
6511.232613 85.276 156.8478
6558.415689 85.057 156.6068
6605.940673 84.810 156.5399
6653.810042 84.539 156.6882
6702.026292 84.249 157.0901
6750.591937 83.946 157.7778
6799.509509 83.637 158.7756
6848.781558 83.331 160.0950
6898.410653 83.037 161.7307
6948.399380 82.765 163.6560
6998.750346 82.526 165.8196
7049.466176 82.328 168.1452
7100.549514 82.177 170.5361
7152.003023 82.076 172.8843
7203.829385 82.025 175.0826
7256.031302 82.019 177.0368
7308.611496 82.049 178.6756
7361.572708 82.105 179.9545
7414.917698 82.175 -179.1436
7468.649249 82.247 -178.6126
7522.770160 82.309 -178.4274
7577.283253 82.352 -178.5489
7632.191371 82.366 -178.9276
7687.497376 82.345 -179.5052
7743.204151 82.283 179.7852
7799.314600 82.174 179.0207
7855.831649 82.017 178.2921
7912.758244 81.810 177.7095
7970.097352 81.557 177.4108
8027.851962 81.262 177.5723
8086.025087 80.936 178.4224
8144.619758 80.597 -179.7464
8203.639030 80.270 -176.5813
8263.085980 79.989 -171.7214
8322.963708 79.789 -164.9611
8383.275334 79.706 -156.5436
8444.024002 79.761 -147.3754
8505.212881 79.957 -138.7495
8566.845160 80.277 -131.6675
8628.924051 80.690 -126.4723
8691.452792 81.162 -123.0123
8754.434642 81.662 -120.9454
8817.872884 82.167 -119.9251
8881.770826 82.662 -119.6667
8946.131799 83.139 -119.9558
9010.959157 83.593 -120.6377
9076.256282 84.023 -121.6047
9142.026576 84.432 -122.7846
9208.273470 84.821 -124.1317
9275.000415 85.192 -125.6203
9342.210891 85.548 -127.2392
9409.908403 85.891 -128.9879
9478.096478 86.219 -130.8724
9546.778672 86.534 -132.9029
9615.958566 86.833 -135.0909
9685.639765 87.115 -137.4469
9755.825904 87.374 -139.9788
9826.520640 87.608 -142.6901
9897.727659 87.812 -145.5786
9969.450674 87.980 -148.6359
10041.693423 88.109 -151.8460
10114.459673 88.192 -155.1856
10187.753217 88.227 -158.6245
10261.577877 88.210 -162.1259
10335.937500 88.139 -165.6485
10410.835964 88.013 -169.1479
10486.277173 87.833 -172.5795
10562.265060 87.603 -175.9012
10638.803587 87.324 -179.0753
10715.896743 87.004 177.9288
10793.548548 86.649 175.1328
10871.763050 86.266 172.5475
10950.544327 85.865 170.1715
11029.896485 85.456 167.9891
11109.823662 85.051 165.9697
11190.330024 84.661 164.0670
11271.419768 84.296 162.2208
11353.097122 83.965 160.3589
11435.366344 83.675 158.4024
11518.231722 83.428 156.2722
11601.697577 83.218 153.8961
11685.768261 83.038 151.2163
11770.448155 82.872 148.1962
11855.741674 82.705 144.8238
11941.653265 82.518 141.1136
12028.187408 82.295 137.1055
12115.348612 82.020 132.8595
12203.141422 81.684 128.4478
12291.570415 81.282 123.9443
12380.640201 80.812 119.4148
12470.355424 80.279 114.9088
12560.720760 79.688 110.4537
12651.740920 79.050 106.0518
12743.420650 78.377 101.6783
12835.764729 77.684 97.2820
12928.777972 76.990 92.7873
13022.465227 76.314 88.1001
13116.831378 75.676 83.1163
13211.881345 75.094 77.7352
13307.620084 74.583 71.8743
13404.052584 74.150 65.4841
13501.183875 73.792 58.5594
13599.019019 73.503 51.1450
13697.563116 73.272 43.3337
13796.821305 73.088 35.2557
13896.798760 72.943 27.0607
13997.500692 72.837 18.8982
14098.932352 72.770 10.8976
14201.099028 72.752 3.1544
14304.006046 72.790 -4.2770
14407.658770 72.893 -11.3826
14512.062604 73.066 -18.1844
14617.222992 73.308 -24.7319
14723.145416 73.615 -31.0925
14829.835397 73.974 -37.3420
14937.298497 74.373 -43.5563
15045.540320 74.796 -49.8046
15154.566507 75.230 -56.1452
15264.382743 75.660 -62.6226
15374.994752 76.079 -69.2669
15486.408302 76.478 -76.0959
15598.629201 76.853 -83.1174
15711.663298 77.204 -90.3333
15825.516487 77.532 -97.7437
15940.194703 77.836 -105.3521
16055.703925 78.118 -113.1683
16172.050174 78.376 -121.2084
16289.239516 78.604 -129.4923
16407.278061 78.796 -138.0376
16526.171961 78.939 -146.8531
16645.927415 79.025 -155.9324
16766.550667 79.040 -165.2513
16888.048005 78.978 -174.7684
17010.425762 78.829 175.5726
17133.690320 78.591 165.8388
17257.848103 78.260 156.1031
17382.905584 77.839 146.4418
17508.869284 77.328 136.9310
17635.745768 76.731 127.6462
17763.541652 76.051 118.6635
17892.263597 75.295 110.0585
18021.918315 74.467 101.9064
18152.512564 73.571 94.2759
18284.053153 72.616 87.2195
18416.546939 71.607 80.7593
18550.000830 70.553 74.8679
18684.421783 69.465 69.4556
18819.816805 68.356 64.3686
18956.192956 67.245 59.4178
19093.557344 66.156 54.4442
19231.917131 65.117 49.4009
19371.279531 64.165 44.4097
19511.651807 63.340 39.7518
19653.041280 62.680 35.7983
19795.455318 62.220 32.9180
19938.901348 61.984 31.3993
