* Measurement data measured by REW V5.31.3
* Source: EXCL: Headset (USB-C to 3.5mm Headphone Jack Adapter), MICROPHONE (Master Volume), 0, volume: 0.750
* Format: 256k Log Swept Sine, 1 sweep at -12.0 dBFS with no timing reference
* Dated: Apr 7, 2025 5:21:37 PM
* REW Settings:
*  C-weighting compensation: Off
*  Target level: 75.0 dB
* Note: ; 
* Measurement: HD 6XX (Geekeria) R3
* Smoothing: 1/6 octave
* Frequency Step: 96 ppo
* Start Frequency: 20.0 Hz
*
* Freq(Hz) SPL(dB) Phase(degrees)
20.187378 77.938 -101.9097
20.333664 77.964 -102.0748
20.481010 77.999 -102.2931
20.629424 78.043 -102.5543
20.778913 78.095 -102.8473
20.929486 78.154 -103.1609
21.081150 78.221 -103.4847
21.233912 78.296 -103.8094
21.387782 78.377 -104.1275
21.542767 78.466 -104.4332
21.698874 78.560 -104.7223
21.856113 78.661 -104.9924
22.014492 78.766 -105.2426
22.174018 78.876 -105.4730
22.334700 78.988 -105.6852
22.496546 79.102 -105.8815
22.659566 79.216 -106.0650
22.823766 79.329 -106.2396
22.989157 79.439 -106.4100
23.155745 79.545 -106.5812
23.323542 79.645 -106.7588
23.492554 79.738 -106.9486
23.662790 79.823 -107.1561
23.834261 79.899 -107.3866
24.006973 79.965 -107.6443
24.180938 80.020 -107.9320
24.356163 80.065 -108.2507
24.532658 80.098 -108.5995
24.710431 80.120 -108.9753
24.889493 80.131 -109.3733
25.069853 80.133 -109.7869
25.251519 80.128 -110.2087
25.434502 80.116 -110.6310
25.618811 80.101 -111.0468
25.804456 80.084 -111.4505
25.991445 80.069 -111.8386
26.179790 80.057 -112.2099
26.369500 80.051 -112.5656
26.560584 80.051 -112.9089
26.753053 80.058 -113.2445
26.946917 80.073 -113.5775
27.142185 80.095 -113.9126
27.338869 80.122 -114.2538
27.536977 80.154 -114.6034
27.736522 80.189 -114.9624
27.937512 80.226 -115.3303
28.139959 80.263 -115.7058
28.343872 80.300 -116.0869
28.549264 80.337 -116.4715
28.756143 80.373 -116.8572
28.964522 80.409 -117.2419
29.174411 80.444 -117.6233
29.385821 80.480 -117.9987
29.598763 80.516 -118.3652
29.813248 80.554 -118.7196
30.029287 80.594 -119.0587
30.246891 80.638 -119.3802
30.466073 80.685 -119.6828
30.686842 80.738 -119.9673
30.909212 80.798 -120.2366
31.133193 80.864 -120.4958
31.358797 80.937 -120.7513
31.586035 81.017 -121.0102
31.814921 81.103 -121.2792
32.045465 81.195 -121.5631
32.277680 81.291 -121.8642
32.511577 81.391 -122.1822
32.747169 81.493 -122.5143
32.984469 81.597 -122.8558
33.223488 81.702 -123.2016
33.464239 81.808 -123.5471
33.706735 81.915 -123.8889
33.950987 82.023 -124.2254
34.197010 82.131 -124.5568
34.444816 82.239 -124.8846
34.694417 82.345 -125.2107
34.945827 82.449 -125.5374
35.199059 82.550 -125.8660
35.454126 82.648 -126.1975
35.711041 82.741 -126.5324
35.969818 82.831 -126.8710
36.230470 82.916 -127.2137
36.493011 82.999 -127.5616
36.757455 83.078 -127.9164
37.023814 83.155 -128.2800
37.292104 83.229 -128.6547
37.562338 83.302 -129.0423
37.834530 83.374 -129.4442
38.108695 83.443 -129.8607
38.384846 83.511 -130.2911
38.662999 83.577 -130.7335
38.943167 83.641 -131.1851
39.225365 83.704 -131.6419
39.509608 83.764 -132.0989
39.795911 83.824 -132.5506
40.084289 83.883 -132.9906
40.374756 83.942 -133.4126
40.667328 84.002 -133.8103
40.962020 84.063 -134.1785
41.258848 84.125 -134.5131
41.557827 84.189 -134.8114
41.858972 84.255 -135.0732
42.162299 84.322 -135.3000
42.467824 84.390 -135.4957
42.775564 84.458 -135.6662
43.085533 84.525 -135.8186
43.397749 84.590 -135.9614
43.712227 84.653 -136.1033
44.028983 84.712 -136.2531
44.348036 84.767 -136.4191
44.669400 84.818 -136.6084
44.993093 84.865 -136.8269
45.319131 84.907 -137.0783
45.647532 84.946 -137.3643
45.978313 84.980 -137.6841
46.311491 85.011 -138.0345
46.647083 85.037 -138.4100
46.985107 85.060 -138.8043
47.325581 85.080 -139.2099
47.668521 85.096 -139.6202
48.013947 85.109 -140.0297
48.361876 85.121 -140.4352
48.712326 85.131 -140.8352
49.065315 85.140 -141.2308
49.420863 85.150 -141.6242
49.778987 85.160 -142.0183
50.139706 85.170 -142.4157
50.503039 85.182 -142.8181
50.869005 85.195 -143.2255
51.237623 85.208 -143.6367
51.608912 85.222 -144.0490
51.982891 85.236 -144.4583
52.359580 85.250 -144.8596
52.739000 85.264 -145.2474
53.121168 85.277 -145.6158
53.506106 85.291 -145.9600
53.893833 85.306 -146.2766
54.284370 85.320 -146.5650
54.677737 85.336 -146.8276
55.073955 85.353 -147.0696
55.473043 85.371 -147.2983
55.875024 85.391 -147.5222
56.279917 85.411 -147.7498
56.687745 85.433 -147.9883
57.098527 85.457 -148.2430
57.512287 85.483 -148.5171
57.929045 85.511 -148.8113
58.348822 85.540 -149.1240
58.771642 85.571 -149.4512
59.197525 85.601 -149.7870
59.626495 85.631 -150.1247
60.058573 85.660 -150.4574
60.493782 85.688 -150.7802
60.932145 85.718 -151.0904
61.373685 85.749 -151.3884
61.818424 85.782 -151.6765
62.266386 85.819 -151.9581
62.717593 85.860 -152.2365
63.172071 85.903 -152.5151
63.629842 85.949 -152.7966
64.090930 85.997 -153.0839
64.555359 86.046 -153.3796
65.023154 86.096 -153.6858
65.494339 86.147 -154.0038
65.968938 86.197 -154.3339
66.446976 86.247 -154.6752
66.928478 86.297 -155.0259
67.413469 86.347 -155.3838
67.901975 86.395 -155.7461
68.394021 86.441 -156.1102
68.889632 86.486 -156.4738
69.388835 86.530 -156.8350
69.891655 86.571 -157.1926
70.398118 86.610 -157.5459
70.908252 86.648 -157.8948
71.422083 86.683 -158.2400
71.939636 86.715 -158.5822
72.460941 86.746 -158.9222
72.986023 86.773 -159.2608
73.514909 86.798 -159.5987
74.047629 86.821 -159.9364
74.584208 86.841 -160.2744
75.124676 86.858 -160.6134
75.669061 86.873 -160.9538
76.217390 86.886 -161.2961
76.769692 86.896 -161.6403
77.325997 86.904 -161.9860
77.886333 86.910 -162.3324
78.450730 86.914 -162.6782
79.019216 86.916 -163.0222
79.591822 86.918 -163.3632
80.168577 86.918 -163.7007
80.749512 86.918 -164.0347
81.334656 86.918 -164.3655
81.924040 86.917 -164.6935
82.517696 86.917 -165.0192
83.115653 86.917 -165.3426
83.717943 86.917 -165.6633
84.324598 86.917 -165.9811
84.935649 86.918 -166.2958
85.551128 86.918 -166.6074
86.171066 86.919 -166.9166
86.795497 86.919 -167.2242
87.424453 86.919 -167.5311
88.057967 86.919 -167.8378
88.696071 86.918 -168.1447
89.338800 86.917 -168.4518
89.986185 86.916 -168.7589
90.638262 86.914 -169.0658
91.295065 86.912 -169.3723
91.956626 86.909 -169.6786
92.622982 86.907 -169.9850
93.294166 86.905 -170.2916
93.970214 86.902 -170.5990
94.651161 86.900 -170.9075
95.337042 86.898 -171.2171
96.027894 86.896 -171.5279
96.723752 86.894 -171.8395
97.424652 86.892 -172.1515
98.130631 86.890 -172.4635
98.841726 86.889 -172.7753
99.557974 86.888 -173.0868
100.279412 86.888 -173.3982
101.006078 86.888 -173.7097
101.738010 86.889 -174.0213
102.475245 86.890 -174.3333
103.217823 86.892 -174.6456
103.965782 86.894 -174.9581
104.719161 86.898 -175.2707
105.477999 86.901 -175.5829
106.242336 86.906 -175.8947
107.012212 86.911 -176.2058
107.787666 86.918 -176.5163
108.568740 86.925 -176.8263
109.355474 86.932 -177.1356
110.147909 86.941 -177.4440
110.946086 86.950 -177.7509
111.750047 86.959 -178.0557
112.559834 86.969 -178.3579
113.375489 86.978 -178.6571
114.197055 86.988 -178.9534
115.024574 86.998 -179.2471
115.858089 87.008 -179.5389
116.697645 87.018 -179.8292
117.543284 87.027 179.8813
118.395051 87.036 179.5923
119.252990 87.045 179.3033
120.117147 87.054 179.0143
120.987565 87.063 178.7251
121.864291 87.072 178.4362
122.747370 87.080 178.1478
123.636848 87.087 177.8604
124.532771 87.094 177.5740
125.435187 87.099 177.2886
126.344142 87.104 177.0039
127.259684 87.107 176.7195
128.181860 87.108 176.4352
129.110718 87.109 176.1509
130.046308 87.109 175.8666
130.988677 87.107 175.5826
131.937875 87.104 175.2991
132.893951 87.101 175.0164
133.856956 87.096 174.7345
134.826938 87.090 174.4534
135.803950 87.083 174.1729
136.788041 87.075 173.8929
137.779264 87.066 173.6135
138.777669 87.056 173.3344
139.783309 87.045 173.0555
140.796237 87.032 172.7773
141.816504 87.019 172.4998
142.844165 87.005 172.2235
143.879273 86.989 171.9487
144.921881 86.973 171.6755
145.972045 86.957 171.4041
147.029819 86.939 171.1339
148.095257 86.920 170.8647
149.168417 86.901 170.5963
150.249353 86.880 170.3285
151.338121 86.859 170.0611
152.434780 86.837 169.7944
153.539385 86.815 169.5287
154.651995 86.792 169.2645
155.772667 86.768 169.0020
156.901460 86.745 168.7417
158.038432 86.722 168.4841
159.183644 86.699 168.2294
160.337154 86.676 167.9780
161.499023 86.654 167.7296
162.669312 86.632 167.4842
163.848081 86.610 167.2414
165.035392 86.589 167.0006
166.231306 86.568 166.7614
167.435887 86.547 166.5233
168.649196 86.527 166.2861
169.871298 86.506 166.0496
171.102255 86.485 165.8136
172.342133 86.464 165.5784
173.590995 86.443 165.3442
174.848907 86.422 165.1114
176.115934 86.400 164.8802
177.392143 86.378 164.6511
178.677599 86.355 164.4244
179.972371 86.332 164.2005
181.276525 86.309 163.9796
182.590129 86.285 163.7617
183.913252 86.260 163.5466
185.245964 86.236 163.3342
186.588332 86.211 163.1245
187.940428 86.185 162.9176
189.302322 86.159 162.7135
190.674085 86.132 162.5125
192.055788 86.105 162.3143
193.447503 86.078 162.1188
194.849303 86.049 161.9252
196.261262 86.020 161.7328
197.683452 85.991 161.5405
199.115948 85.962 161.3472
200.558824 85.932 161.1520
202.012156 85.902 160.9543
203.476019 85.873 160.7546
204.950490 85.843 160.5536
206.435646 85.814 160.3531
207.931564 85.786 160.1548
209.438322 85.757 159.9601
210.955998 85.729 159.7699
212.484672 85.701 159.5844
214.024424 85.674 159.4034
215.575333 85.646 159.2264
217.137481 85.619 159.0529
218.710948 85.593 158.8827
220.295818 85.567 158.7156
221.892172 85.541 158.5519
223.500094 85.517 158.3919
225.119668 85.494 158.2357
226.750978 85.473 158.0834
228.394109 85.454 157.9353
230.049147 85.436 157.7910
231.716178 85.420 157.6502
233.395289 85.407 157.5120
235.086567 85.395 157.3754
236.790102 85.384 157.2393
238.505980 85.375 157.1025
240.234293 85.367 156.9641
241.975130 85.360 156.8235
243.728581 85.354 156.6806
245.494739 85.349 156.5354
247.273695 85.344 156.3883
249.065542 85.339 156.2401
250.870374 85.335 156.0912
252.688284 85.331 155.9421
254.519367 85.326 155.7928
256.363720 85.322 155.6433
258.221437 85.317 155.4930
260.092616 85.312 155.3416
261.977354 85.307 155.1890
263.875750 85.302 155.0352
265.787903 85.296 154.8803
267.713911 85.289 154.7242
269.653877 85.283 154.5671
271.607900 85.276 154.4091
273.576083 85.268 154.2508
275.558528 85.261 154.0928
277.555338 85.253 153.9357
279.566619 85.245 153.7800
281.592474 85.237 153.6262
283.633009 85.229 153.4744
285.688331 85.222 153.3246
287.758546 85.214 153.1767
289.843763 85.208 153.0305
291.944090 85.202 152.8858
294.059638 85.196 152.7429
296.190515 85.191 152.6021
298.336833 85.186 152.4639
300.498705 85.182 152.3286
302.676243 85.179 152.1962
304.869559 85.176 152.0665
307.078770 85.174 151.9392
309.303989 85.172 151.8138
311.545334 85.170 151.6901
313.802919 85.169 151.5679
316.076865 85.167 151.4475
318.367288 85.166 151.3287
320.674309 85.164 151.2119
322.998047 85.163 151.0969
325.338624 85.161 150.9839
327.696162 85.159 150.8728
330.070783 85.156 150.7631
332.462612 85.152 150.6543
334.871773 85.148 150.5457
337.298392 85.142 150.4367
339.742595 85.136 150.3270
342.204510 85.128 150.2169
344.684265 85.119 150.1066
347.181989 85.109 149.9970
349.697813 85.098 149.8889
352.231868 85.085 149.7829
354.784285 85.072 149.6797
357.355198 85.057 149.5798
359.944741 85.041 149.4835
362.553049 85.025 149.3908
365.180258 85.007 149.3015
367.826505 84.989 149.2148
370.491927 84.970 149.1296
373.176665 84.951 149.0447
375.880856 84.931 148.9592
378.604644 84.911 148.8724
381.348169 84.891 148.7839
384.111575 84.872 148.6937
386.895006 84.852 148.6018
389.698607 84.833 148.5084
392.522524 84.813 148.4136
395.366904 84.794 148.3178
398.231895 84.774 148.2214
401.117648 84.754 148.1246
404.024312 84.732 148.0281
406.952038 84.711 147.9323
409.900981 84.688 147.8377
412.871292 84.664 147.7449
415.863128 84.639 147.6543
418.876643 84.613 147.5661
421.911996 84.586 147.4803
424.969344 84.557 147.3967
428.048847 84.527 147.3149
431.150666 84.496 147.2346
434.274961 84.463 147.1555
437.421897 84.428 147.0772
440.591636 84.393 146.9996
443.784345 84.356 146.9226
447.000189 84.317 146.8462
450.239337 84.278 146.7705
453.501956 84.237 146.6960
456.788219 84.197 146.6228
460.098294 84.156 146.5516
463.432356 84.114 146.4825
466.790578 84.073 146.4155
470.173135 84.033 146.3508
473.580203 83.993 146.2878
477.011961 83.953 146.2266
480.468586 83.915 146.1666
483.950259 83.877 146.1078
487.457163 83.841 146.0498
490.989478 83.806 145.9922
494.547390 83.772 145.9346
498.131084 83.739 145.8767
501.740748 83.707 145.8182
505.376568 83.677 145.7590
509.038735 83.648 145.6993
512.727439 83.621 145.6393
516.442874 83.596 145.5793
520.185232 83.572 145.5195
523.954708 83.551 145.4602
527.751500 83.531 145.4017
531.575805 83.514 145.3439
535.427822 83.499 145.2869
539.307753 83.487 145.2303
543.215800 83.476 145.1740
547.152165 83.468 145.1176
551.117055 83.462 145.0609
555.110677 83.457 145.0039
559.133237 83.454 144.9465
563.184947 83.453 144.8887
567.266018 83.452 144.8306
571.376661 83.453 144.7723
575.517092 83.454 144.7141
579.687526 83.456 144.6566
583.888181 83.458 144.6003
588.119275 83.461 144.5461
592.381030 83.463 144.4947
596.673667 83.465 144.4469
600.997410 83.466 144.4032
605.352485 83.468 144.3636
609.739119 83.469 144.3279
614.157540 83.469 144.2955
618.607979 83.469 144.2658
623.090667 83.468 144.2382
627.605839 83.466 144.2122
632.153730 83.463 144.1872
636.734576 83.460 144.1630
641.348617 83.455 144.1392
645.996094 83.450 144.1157
650.677248 83.444 144.0920
655.392323 83.437 144.0681
660.141566 83.429 144.0436
664.925224 83.421 144.0183
669.743546 83.412 143.9915
674.596784 83.402 143.9627
679.485191 83.392 143.9315
684.409020 83.382 143.8971
689.368530 83.370 143.8591
694.363979 83.359 143.8171
699.395626 83.346 143.7706
704.463736 83.332 143.7192
709.568570 83.318 143.6627
714.710396 83.302 143.6011
719.889483 83.285 143.5349
725.106099 83.266 143.4646
730.360516 83.246 143.3914
735.653010 83.223 143.3164
740.983855 83.198 143.2407
746.353329 83.172 143.1650
751.761713 83.144 143.0905
757.209288 83.114 143.0177
762.696339 83.083 142.9471
768.223151 83.050 142.8791
773.790013 83.017 142.8136
779.397214 82.983 142.7501
785.045047 82.948 142.6880
790.733808 82.913 142.6263
796.463791 82.878 142.5637
802.235296 82.843 142.4987
808.048623 82.809 142.4297
813.904077 82.775 142.3547
819.801961 82.742 142.2719
825.742584 82.709 142.1796
831.726255 82.676 142.0771
837.753287 82.644 141.9641
843.823992 82.610 141.8411
849.938689 82.576 141.7097
856.097695 82.541 141.5720
862.301332 82.505 141.4311
868.549922 82.466 141.2907
874.843793 82.425 141.1555
881.183272 82.382 141.0307
887.568689 82.337 140.9220
894.000378 82.290 140.8358
900.478673 82.241 140.7778
907.003913 82.192 140.7533
913.576437 82.144 140.7658
920.196588 82.098 140.8167
926.864712 82.056 140.9044
933.581156 82.019 141.0250
940.346270 81.989 141.1715
947.160407 81.967 141.3351
954.023921 81.953 141.5061
960.937172 81.947 141.6747
967.900519 81.949 141.8322
974.914325 81.958 141.9719
981.978956 81.974 142.0892
989.094780 81.995 142.1821
996.262169 82.020 142.2502
1003.481495 82.049 142.2949
1010.753136 82.081 142.3180
1018.077470 82.116 142.3221
1025.454879 82.153 142.3094
1032.885748 82.191 142.2822
1040.370463 82.231 142.2421
1047.909417 82.273 142.1903
1055.503000 82.315 142.1276
1063.151610 82.359 142.0546
1070.855645 82.403 141.9717
1078.615506 82.448 141.8792
1086.431599 82.493 141.7769
1094.304330 82.539 141.6646
1102.234110 82.585 141.5419
1110.221353 82.630 141.4091
1118.266475 82.675 141.2661
1126.369895 82.719 141.1135
1134.532035 82.761 140.9521
1142.753322 82.802 140.7825
1151.034184 82.842 140.6057
1159.375052 82.880 140.4230
1167.776361 82.916 140.2355
1176.238550 82.950 140.0446
1184.762060 82.983 139.8515
1193.347334 83.013 139.6577
1201.994821 83.042 139.4642
1210.704971 83.069 139.2720
1219.478238 83.095 139.0818
1228.315080 83.120 138.8936
1237.215957 83.144 138.7074
1246.181334 83.168 138.5232
1255.211678 83.190 138.3410
1264.307459 83.212 138.1609
1273.469152 83.234 137.9830
1282.697235 83.254 137.8076
1291.992188 83.274 137.6351
1301.354495 83.293 137.4660
1310.784647 83.311 137.3005
1320.283132 83.328 137.1386
1329.850448 83.344 136.9803
1339.487093 83.359 136.8257
1349.193569 83.373 136.6752
1358.970381 83.386 136.5297
1368.818041 83.398 136.3904
1378.737061 83.410 136.2582
1388.727958 83.422 136.1339
1398.791253 83.433 136.0179
1408.927471 83.445 135.9100
1419.137140 83.457 135.8103
1429.420793 83.470 135.7186
1439.778965 83.484 135.6350
1450.212197 83.499 135.5601
1460.721033 83.514 135.4947
1471.306019 83.530 135.4396
1481.967709 83.547 135.3959
1492.706658 83.564 135.3646
1503.523426 83.582 135.3463
1514.418576 83.599 135.3413
1525.392678 83.617 135.3499
1536.446302 83.635 135.3724
1547.580025 83.651 135.4091
1558.794428 83.667 135.4605
1570.090095 83.681 135.5271
1581.467615 83.694 135.6090
1592.927581 83.705 135.7056
1604.470591 83.715 135.8158
1616.097246 83.722 135.9385
1627.808153 83.728 136.0726
1639.603922 83.731 136.2179
1651.485168 83.732 136.3744
1663.452510 83.730 136.5428
1675.506573 83.727 136.7238
1687.647984 83.722 136.9174
1699.877377 83.716 137.1234
1712.195390 83.709 137.3408
1724.602663 83.702 137.5679
1737.099845 83.694 137.8026
1749.687587 83.688 138.0426
1762.366544 83.681 138.2857
1775.137379 83.675 138.5303
1788.000756 83.670 138.7752
1800.957346 83.664 139.0200
1814.007826 83.658 139.2647
1827.152874 83.652 139.5099
1840.393177 83.646 139.7565
1853.729425 83.639 140.0053
1867.162312 83.631 140.2570
1880.692540 83.623 140.5118
1894.320813 83.615 140.7697
1908.047843 83.606 141.0295
1921.874344 83.597 141.2898
1935.801038 83.588 141.5482
1949.828650 83.579 141.8018
1963.957912 83.569 142.0471
1978.189561 83.560 142.2811
1992.524338 83.550 142.5009
2006.962991 83.539 142.7050
2021.506272 83.527 142.8925
2036.154940 83.514 143.0638
2050.909758 83.500 143.2196
2065.771495 83.484 143.3617
2080.740927 83.466 143.4918
2095.818833 83.447 143.6121
2111.006001 83.427 143.7249
2126.303220 83.405 143.8319
2141.711290 83.384 143.9341
2157.231013 83.362 144.0320
2172.863198 83.341 144.1253
2188.608660 83.321 144.2131
2204.468221 83.302 144.2940
2220.442706 83.284 144.3664
2236.532950 83.267 144.4289
2252.739789 83.252 144.4806
2269.064070 83.237 144.5213
2285.506644 83.224 144.5516
2302.068367 83.211 144.5728
2318.750104 83.199 144.5865
2335.552723 83.188 144.5945
2352.477101 83.177 144.5978
2369.524119 83.169 144.5971
2386.694668 83.162 144.5923
2403.989641 83.156 144.5831
2421.409941 83.153 144.5692
2438.956476 83.151 144.5504
2456.630160 83.152 144.5272
2474.431915 83.155 144.4996
2492.362668 83.160 144.4685
2510.423356 83.168 144.4345
2528.614918 83.178 144.3989
2546.938304 83.190 144.3628
2565.394469 83.206 144.3275
2583.984375 83.223 144.2943
2602.708991 83.244 144.2640
2621.569293 83.268 144.2371
2640.566265 83.296 144.2137
2659.700897 83.327 144.1935
2678.974186 83.361 144.1763
2698.387137 83.399 144.1613
2717.940763 83.440 144.1476
2737.636082 83.485 144.1341
2757.474121 83.533 144.1196
2777.455915 83.584 144.1031
2797.582506 83.638 144.0836
2817.854942 83.694 144.0602
2838.274281 83.752 144.0319
2858.841586 83.812 143.9977
2879.557931 83.872 143.9567
2900.424394 83.934 143.9082
2921.442065 83.995 143.8517
2942.612039 84.055 143.7874
2963.935418 84.114 143.7155
2985.413316 84.170 143.6368
3007.046852 84.224 143.5523
3028.837153 84.275 143.4627
3050.785356 84.321 143.3689
3072.892604 84.363 143.2715
3095.160050 84.401 143.1712
3117.588856 84.432 143.0692
3140.180190 84.457 142.9662
3162.935230 84.476 142.8636
3185.855163 84.489 142.7624
3208.941182 84.494 142.6636
3232.194493 84.491 142.5686
3255.616307 84.481 142.4784
3279.207844 84.464 142.3943
3302.970336 84.439 142.3176
3326.905021 84.407 142.2493
3351.013146 84.367 142.1905
3375.295969 84.321 142.1422
3399.754755 84.267 142.1055
3424.390779 84.208 142.0815
3449.205326 84.143 142.0714
3474.199690 84.072 142.0766
3499.375173 83.997 142.0985
3524.733088 83.918 142.1384
3550.274757 83.837 142.1975
3576.001511 83.753 142.2770
3601.914692 83.668 142.3776
3628.015651 83.582 142.5000
3654.305748 83.498 142.6447
3680.786354 83.415 142.8120
3707.458849 83.334 143.0025
3734.324624 83.256 143.2165
3761.385080 83.183 143.4545
3788.641627 83.115 143.7170
3816.095686 83.052 144.0043
3843.748688 82.996 144.3166
3871.602076 82.946 144.6541
3899.657300 82.904 145.0168
3927.915825 82.870 145.4045
3956.379122 82.844 145.8174
3985.048676 82.827 146.2552
4013.925981 82.819 146.7175
4043.012544 82.820 147.2039
4072.309879 82.830 147.7132
4101.819515 82.850 148.2433
4131.542990 82.879 148.7914
4161.481854 82.918 149.3539
4191.637667 82.966 149.9258
4222.012001 83.024 150.5016
4252.606441 83.092 151.0744
4283.422580 83.168 151.6357
4314.462026 83.253 152.1761
4345.726396 83.347 152.6848
4377.217321 83.447 153.1500
4408.936442 83.554 153.5598
4440.885413 83.666 153.9028
4473.065899 83.781 154.1689
4505.479579 83.898 154.3494
4538.128141 84.015 154.4377
4571.013288 84.130 154.4293
4604.136735 84.242 154.3218
4637.500207 84.348 154.1150
4671.105446 84.448 153.8105
4704.954201 84.540 153.4113
4739.048239 84.622 152.9221
4773.389336 84.695 152.3479
4807.979283 84.755 151.6949
4842.819883 84.804 150.9697
4877.912952 84.840 150.1796
4913.260320 84.861 149.3324
4948.863830 84.869 148.4367
4984.725337 84.861 147.5020
5020.846712 84.837 146.5378
5057.229836 84.797 145.5554
5093.876609 84.740 144.5665
5130.788938 84.665 143.5847
5167.968750 84.572 142.6252
5205.417982 84.461 141.7051
5243.138586 84.331 140.8434
5281.132530 84.183 140.0608
5319.401793 84.017 139.3798
5357.948371 83.834 138.8240
5396.774274 83.637 138.4175
5435.881525 83.429 138.1834
5475.272163 83.212 138.1423
5514.948243 82.991 138.3104
5554.911831 82.772 138.6981
5595.165012 82.559 139.3077
5635.709884 82.359 140.1327
5676.548561 82.176 141.1560
5717.683172 82.016 142.3508
5759.115861 81.881 143.6811
5800.848789 81.774 145.1051
5842.884130 81.694 146.5787
5885.224077 81.640 148.0598
5927.870837 81.609 149.5120
5970.826633 81.596 150.9080
6014.093704 81.598 152.2311
6057.674306 81.608 153.4758
6101.570711 81.623 154.6463
6145.785208 81.638 155.7551
6190.320101 81.651 156.8210
6235.177712 81.660 157.8670
6280.360380 81.663 158.9185
6325.870460 81.662 160.0012
6371.710325 81.657 161.1396
6417.882365 81.650 162.3551
6464.388986 81.646 163.6644
6511.232613 81.648 165.0771
6558.415689 81.660 166.5953
6605.940673 81.688 168.2115
6653.810042 81.737 169.9078
6702.026292 81.811 171.6562
6750.591937 81.913 173.4179
6799.509509 82.046 175.1453
6848.781558 82.212 176.7841
6898.410653 82.409 178.2770
6948.399380 82.634 179.5683
6998.750346 82.883 -179.3918
7049.466176 83.150 -178.6437
7100.549514 83.428 -178.2154
7152.003023 83.710 -178.1230
7203.829385 83.988 -178.3708
7256.031302 84.256 -178.9535
7308.611496 84.505 -179.8581
7361.572708 84.732 178.9338
7414.917698 84.929 177.4448
7468.649249 85.092 175.7003
7522.770160 85.216 173.7284
7577.283253 85.297 171.5594
7632.191371 85.331 169.2263
7687.497376 85.314 166.7653
7743.204151 85.242 164.2162
7799.314600 85.113 161.6237
7855.831649 84.924 159.0372
7912.758244 84.672 156.5125
7970.097352 84.357 154.1117
8027.851962 83.978 151.9041
8086.025087 83.535 149.9676
8144.619758 83.030 148.3894
8203.639030 82.467 147.2688
8263.085980 81.851 146.7192
8322.963708 81.188 146.8715
8383.275334 80.490 147.8757
8444.024002 79.769 149.8982
8505.212881 79.044 153.1068
8566.845160 78.336 157.6341
8628.924051 77.674 163.5086
8691.452792 77.087 170.5635
8754.434642 76.607 178.3823
8817.872884 76.256 -173.6394
8881.770826 76.047 -166.1080
8946.131799 75.980 -159.4458
9010.959157 76.040 -153.8322
9076.256282 76.204 -149.2600
9142.026576 76.446 -145.6252
9208.273470 76.742 -142.7953
9275.000415 77.073 -140.6451
9342.210891 77.421 -139.0704
9409.908403 77.776 -137.9899
9478.096478 78.127 -137.3421
9546.778672 78.467 -137.0809
9615.958566 78.790 -137.1706
9685.639765 79.091 -137.5821
9755.825904 79.364 -138.2895
9826.520640 79.606 -139.2674
9897.727659 79.812 -140.4891
9969.450674 79.979 -141.9255
10041.693423 80.101 -143.5443
10114.459673 80.177 -145.3101
10187.753217 80.205 -147.1849
10261.577877 80.182 -149.1292
10335.937500 80.109 -151.1028
10410.835964 79.984 -153.0656
10486.277173 79.810 -154.9793
10562.265060 79.588 -156.8074
10638.803587 79.320 -158.5166
10715.896743 79.008 -160.0761
10793.548548 78.656 -161.4585
10871.763050 78.267 -162.6397
10950.544327 77.844 -163.5988
11029.896485 77.391 -164.3180
11109.823662 76.912 -164.7835
11190.330024 76.411 -164.9855
11271.419768 75.893 -164.9197
11353.097122 75.362 -164.5881
11435.366344 74.824 -164.0004
11518.231722 74.282 -163.1746
11601.697577 73.741 -162.1361
11685.768261 73.205 -160.9155
11770.448155 72.676 -159.5448
11855.741674 72.156 -158.0520
11941.653265 71.647 -156.4558
12028.187408 71.146 -154.7607
12115.348612 70.654 -152.9544
12203.141422 70.170 -151.0084
12291.570415 69.695 -148.8815
12380.640201 69.232 -146.5289
12470.355424 68.788 -143.9150
12560.720760 68.372 -141.0301
12651.740920 67.997 -137.9075
12743.420650 67.678 -134.6355
12835.764729 67.426 -131.3567
12928.777972 67.252 -128.2514
13022.465227 67.160 -125.5080
13116.831378 67.145 -123.2913
13211.881345 67.198 -121.7220
13307.620084 67.302 -120.8701
13404.052584 67.439 -120.7620
13501.183875 67.591 -121.3919
13599.019019 67.741 -122.7347
13697.563116 67.872 -124.7552
13796.821305 67.973 -127.4140
13896.798760 68.032 -130.6724
13997.500692 68.043 -134.4956
14098.932352 68.001 -138.8564
14201.099028 67.905 -143.7408
14304.006046 67.759 -149.1548
14407.658770 67.569 -155.1318
14512.062604 67.344 -161.7433
14617.222992 67.097 -169.1109
14723.145416 66.843 -177.4224
14829.835397 66.601 173.0515
14937.298497 66.386 161.9445
15045.540320 66.212 148.8204
15154.566507 66.090 133.3069
15264.382743 66.021 115.4327
15374.994752 65.999 96.0429
15486.408302 66.012 76.7048
15598.629201 66.043 58.8436
15711.663298 66.073 43.0600
15825.516487 66.082 29.2636
15940.194703 66.057 17.1041
16055.703925 65.986 6.2377
16172.050174 65.862 -3.5836
16289.239516 65.685 -12.5035
16407.278061 65.460 -20.5703
16526.171961 65.202 -27.7405
16645.927415 64.931 -33.8673
16766.550667 64.680 -38.6698
16888.048005 64.487 -41.6782
17010.425762 64.400 -42.1829
17133.690320 64.459 -39.3229
17257.848103 64.689 -32.7155
17382.905584 65.091 -23.7952
17508.869284 65.639 -15.8869
17635.745768 66.294 -11.5162
17763.541652 67.008 -11.0109
17892.263597 67.741 -13.6436
18021.918315 68.458 -18.6528
18152.512564 69.132 -25.5134
18284.053153 69.741 -33.9155
18416.546939 70.269 -43.6940
18550.000830 70.702 -54.7689
18684.421783 71.031 -67.0865
18819.816805 71.251 -80.5490
18956.192956 71.362 -94.9182
19093.557344 71.372 -109.7143
19231.917131 71.296 -124.1871
19371.279531 71.160 -137.4442
19511.651807 70.992 -148.6879
19653.041280 70.825 -157.3831
19795.455318 70.692 -163.2590
19938.901348 70.619 -166.2115
