* Measurement data measured by REW V5.31.3
* Source: EXCL: Headset (USB-C to 3.5mm Headphone Jack Adapter), MICROPHONE (Master Volume), 0, volume: 0.750
* Format: 256k Log Swept Sine, 1 sweep at -12.0 dBFS with no timing reference
* Dated: Apr 7, 2025 12:10:57 PM
* REW Settings:
*  C-weighting compensation: Off
*  Target level: 75.0 dB
* Note: ; 
* Measurement: HD6XX (Forward) L10
* Smoothing: 1/6 octave
* Frequency Step: 96 ppo
* Start Frequency: 20.0 Hz
*
* Freq(Hz) SPL(dB) Phase(degrees)
20.187378 78.716 -99.8974
20.333664 78.755 -99.9860
20.481010 78.806 -100.1037
20.629424 78.867 -100.2459
20.778913 78.937 -100.4076
20.929486 79.013 -100.5843
21.081150 79.093 -100.7716
21.233912 79.176 -100.9663
21.387782 79.260 -101.1664
21.542767 79.344 -101.3708
21.698874 79.429 -101.5801
21.856113 79.514 -101.7960
22.014492 79.598 -102.0211
22.174018 79.682 -102.2590
22.334700 79.765 -102.5136
22.496546 79.846 -102.7885
22.659566 79.927 -103.0866
22.823766 80.005 -103.4095
22.989157 80.081 -103.7569
23.155745 80.153 -104.1266
23.323542 80.221 -104.5142
23.492554 80.284 -104.9131
23.662790 80.342 -105.3156
23.834261 80.394 -105.7129
24.006973 80.442 -106.0963
24.180938 80.484 -106.4581
24.356163 80.523 -106.7922
24.532658 80.559 -107.0954
24.710431 80.593 -107.3672
24.889493 80.626 -107.6105
25.069853 80.659 -107.8309
25.251519 80.692 -108.0362
25.434502 80.727 -108.2357
25.618811 80.762 -108.4388
25.804456 80.798 -108.6544
25.991445 80.835 -108.8898
26.179790 80.872 -109.1504
26.369500 80.909 -109.4393
26.560584 80.946 -109.7578
26.753053 80.983 -110.1057
26.946917 81.020 -110.4817
27.142185 81.057 -110.8844
27.338869 81.095 -111.3120
27.536977 81.134 -111.7631
27.736522 81.174 -112.2362
27.937512 81.215 -112.7294
28.139959 81.256 -113.2396
28.343872 81.296 -113.7624
28.549264 81.336 -114.2912
28.756143 81.372 -114.8177
28.964522 81.407 -115.3322
29.174411 81.438 -115.8239
29.385821 81.468 -116.2829
29.598763 81.496 -116.7007
29.813248 81.525 -117.0723
30.029287 81.556 -117.3963
30.246891 81.592 -117.6764
30.466073 81.633 -117.9203
30.686842 81.682 -118.1391
30.909212 81.738 -118.3457
31.133193 81.802 -118.5531
31.358797 81.872 -118.7721
31.586035 81.947 -119.0104
31.814921 82.026 -119.2714
32.045465 82.108 -119.5548
32.277680 82.191 -119.8570
32.511577 82.276 -120.1728
32.747169 82.362 -120.4963
32.984469 82.450 -120.8227
33.223488 82.541 -121.1488
33.464239 82.634 -121.4736
33.706735 82.730 -121.7976
33.950987 82.830 -122.1225
34.197010 82.932 -122.4500
34.444816 83.037 -122.7812
34.694417 83.142 -123.1161
34.945827 83.249 -123.4533
35.199059 83.355 -123.7911
35.454126 83.461 -124.1276
35.711041 83.565 -124.4620
35.969818 83.669 -124.7951
36.230470 83.772 -125.1290
36.493011 83.872 -125.4670
36.757455 83.970 -125.8123
37.023814 84.065 -126.1674
37.292104 84.156 -126.5326
37.562338 84.244 -126.9062
37.834530 84.327 -127.2840
38.108695 84.406 -127.6608
38.384846 84.481 -128.0309
38.662999 84.554 -128.3901
38.943167 84.626 -128.7362
39.225365 84.697 -129.0697
39.509608 84.768 -129.3940
39.795911 84.839 -129.7141
40.084289 84.909 -130.0359
40.374756 84.978 -130.3648
40.667328 85.044 -130.7050
40.962020 85.107 -131.0585
41.258848 85.165 -131.4252
41.557827 85.219 -131.8034
41.858972 85.269 -132.1898
42.162299 85.315 -132.5804
42.467824 85.357 -132.9712
42.775564 85.397 -133.3583
43.085533 85.436 -133.7382
43.397749 85.473 -134.1085
43.712227 85.509 -134.4675
44.028983 85.544 -134.8146
44.348036 85.579 -135.1505
44.669400 85.613 -135.4769
44.993093 85.645 -135.7967
45.319131 85.677 -136.1135
45.647532 85.708 -136.4307
45.978313 85.737 -136.7512
46.311491 85.766 -137.0760
46.647083 85.793 -137.4044
46.985107 85.820 -137.7339
47.325581 85.846 -138.0614
47.668521 85.872 -138.3844
48.013947 85.899 -138.7023
48.361876 85.928 -139.0166
48.712326 85.957 -139.3308
49.065315 85.987 -139.6485
49.420863 86.017 -139.9724
49.778987 86.046 -140.3029
50.139706 86.075 -140.6376
50.503039 86.102 -140.9728
50.869005 86.129 -141.3040
51.237623 86.155 -141.6279
51.608912 86.180 -141.9426
51.982891 86.203 -142.2471
52.359580 86.224 -142.5413
52.739000 86.242 -142.8242
53.121168 86.256 -143.0944
53.506106 86.266 -143.3497
53.893833 86.272 -143.5880
54.284370 86.275 -143.8078
54.677737 86.276 -144.0075
55.073955 86.277 -144.1849
55.473043 86.279 -144.3368
55.875024 86.282 -144.4586
56.279917 86.287 -144.5460
56.687745 86.295 -144.5966
57.098527 86.304 -144.6124
57.512287 86.315 -144.6013
57.929045 86.328 -144.5783
58.348822 86.344 -144.5647
58.771642 86.364 -144.5873
59.197525 86.389 -144.6751
59.626495 86.422 -144.8541
60.058573 86.462 -145.1417
60.493782 86.510 -145.5409
60.932145 86.563 -146.0391
61.373685 86.622 -146.6114
61.818424 86.684 -147.2267
62.266386 86.749 -147.8553
62.717593 86.815 -148.4739
63.172071 86.883 -149.0672
63.629842 86.950 -149.6274
64.090930 87.017 -150.1523
64.555359 87.084 -150.6430
65.023154 87.150 -151.1021
65.494339 87.214 -151.5334
65.968938 87.277 -151.9405
66.446976 87.337 -152.3268
66.928478 87.396 -152.6960
67.413469 87.452 -153.0514
67.901975 87.506 -153.3969
68.394021 87.558 -153.7363
68.889632 87.608 -154.0734
69.388835 87.657 -154.4114
69.891655 87.704 -154.7531
70.398118 87.749 -155.1007
70.908252 87.791 -155.4560
71.422083 87.831 -155.8201
71.939636 87.869 -156.1934
72.460941 87.905 -156.5754
72.986023 87.938 -156.9648
73.514909 87.970 -157.3590
74.047629 87.999 -157.7552
74.584208 88.025 -158.1499
75.124676 88.049 -158.5403
75.669061 88.070 -158.9240
76.217390 88.089 -159.2997
76.769692 88.105 -159.6675
77.325997 88.119 -160.0286
77.886333 88.131 -160.3848
78.450730 88.142 -160.7380
79.019216 88.151 -161.0900
79.591822 88.159 -161.4423
80.168577 88.166 -161.7956
80.749512 88.173 -162.1504
81.334656 88.178 -162.5068
81.924040 88.183 -162.8647
82.517696 88.188 -163.2241
83.115653 88.192 -163.5847
83.717943 88.196 -163.9460
84.324598 88.200 -164.3074
84.935649 88.204 -164.6680
85.551128 88.208 -165.0271
86.171066 88.213 -165.3840
86.795497 88.217 -165.7386
87.424453 88.221 -166.0910
88.057967 88.225 -166.4416
88.696071 88.228 -166.7908
89.338800 88.231 -167.1390
89.986185 88.234 -167.4866
90.638262 88.237 -167.8335
91.295065 88.239 -168.1799
91.956626 88.241 -168.5258
92.622982 88.243 -168.8714
93.294166 88.245 -169.2167
93.970214 88.246 -169.5621
94.651161 88.246 -169.9076
95.337042 88.247 -170.2533
96.027894 88.247 -170.5990
96.723752 88.247 -170.9441
97.424652 88.247 -171.2876
98.130631 88.247 -171.6279
98.841726 88.247 -171.9638
99.557974 88.247 -172.2942
100.279412 88.248 -172.6187
101.006078 88.249 -172.9379
101.738010 88.251 -173.2528
102.475245 88.253 -173.5650
103.217823 88.257 -173.8767
103.965782 88.261 -174.1906
104.719161 88.265 -174.5096
105.477999 88.271 -174.8363
106.242336 88.277 -175.1725
107.012212 88.284 -175.5183
107.787666 88.290 -175.8723
108.568740 88.297 -176.2318
109.355474 88.304 -176.5944
110.147909 88.311 -176.9577
110.946086 88.318 -177.3202
111.750047 88.326 -177.6804
112.559834 88.334 -178.0369
113.375489 88.343 -178.3882
114.197055 88.353 -178.7328
115.024574 88.363 -179.0696
115.858089 88.373 -179.3978
116.697645 88.383 -179.7173
117.543284 88.393 179.9716
118.395051 88.403 179.6677
119.252990 88.413 179.3695
120.117147 88.422 179.0751
120.987565 88.430 178.7824
121.864291 88.438 178.4900
122.747370 88.445 178.1967
123.636848 88.452 177.9024
124.532771 88.458 177.6069
125.435187 88.463 177.3103
126.344142 88.468 177.0126
127.259684 88.473 176.7137
128.181860 88.476 176.4135
129.110718 88.478 176.1119
130.046308 88.480 175.8094
130.988677 88.480 175.5070
131.937875 88.479 175.2063
132.893951 88.478 174.9089
133.856956 88.475 174.6164
134.826938 88.472 174.3297
135.803950 88.467 174.0490
136.788041 88.462 173.7733
137.779264 88.455 173.5015
138.777669 88.447 173.2324
139.783309 88.437 172.9648
140.796237 88.426 172.6980
141.816504 88.414 172.4316
142.844165 88.401 172.1652
143.879273 88.387 171.8987
144.921881 88.372 171.6317
145.972045 88.357 171.3641
147.029819 88.340 171.0956
148.095257 88.323 170.8259
149.168417 88.306 170.5548
150.249353 88.288 170.2822
151.338121 88.270 170.0085
152.434780 88.252 169.7341
153.539385 88.234 169.4598
154.651995 88.216 169.1863
155.772667 88.198 168.9146
156.901460 88.180 168.6452
158.038432 88.163 168.3785
159.183644 88.147 168.1147
160.337154 88.130 167.8538
161.499023 88.114 167.5956
162.669312 88.099 167.3397
163.848081 88.083 167.0854
165.035392 88.067 166.8320
166.231306 88.051 166.5792
167.435887 88.035 166.3270
168.649196 88.019 166.0757
169.871298 88.002 165.8263
171.102255 87.986 165.5793
172.342133 87.970 165.3356
173.590995 87.954 165.0957
174.848907 87.937 164.8594
176.115934 87.920 164.6262
177.392143 87.902 164.3947
178.677599 87.883 164.1636
179.972371 87.863 163.9318
181.276525 87.841 163.6989
182.590129 87.818 163.4648
183.913252 87.794 163.2307
185.245964 87.769 162.9973
186.588332 87.744 162.7659
187.940428 87.718 162.5374
189.302322 87.692 162.3124
190.674085 87.666 162.0915
192.055788 87.639 161.8745
193.447503 87.613 161.6611
194.849303 87.587 161.4504
196.261262 87.561 161.2416
197.683452 87.535 161.0332
199.115948 87.509 160.8235
200.558824 87.483 160.6106
202.012156 87.458 160.3926
203.476019 87.433 160.1687
204.950490 87.408 159.9390
206.435646 87.383 159.7050
207.931564 87.358 159.4687
209.438322 87.334 159.2325
210.955998 87.309 158.9984
212.484672 87.284 158.7675
214.024424 87.260 158.5406
215.575333 87.236 158.3177
217.137481 87.212 158.0986
218.710948 87.188 157.8829
220.295818 87.166 157.6701
221.892172 87.145 157.4598
223.500094 87.125 157.2522
225.119668 87.107 157.0474
226.750978 87.091 156.8459
228.394109 87.077 156.6483
230.049147 87.064 156.4541
231.716178 87.053 156.2631
233.395289 87.044 156.0745
235.086567 87.035 155.8878
236.790102 87.027 155.7026
238.505980 87.020 155.5193
240.234293 87.014 155.3380
241.975130 87.008 155.1588
243.728581 87.002 154.9818
245.494739 86.997 154.8068
247.273695 86.992 154.6332
249.065542 86.986 154.4610
250.870374 86.981 154.2896
252.688284 86.976 154.1187
254.519367 86.971 153.9482
256.363720 86.966 153.7779
258.221437 86.961 153.6084
260.092616 86.955 153.4401
261.977354 86.950 153.2736
263.875750 86.944 153.1095
265.787903 86.938 152.9475
267.713911 86.933 152.7872
269.653877 86.927 152.6275
271.607900 86.921 152.4678
273.576083 86.915 152.3079
275.558528 86.908 152.1482
277.555338 86.902 151.9892
279.566619 86.895 151.8312
281.592474 86.887 151.6740
283.633009 86.880 151.5175
285.688331 86.873 151.3612
287.758546 86.866 151.2048
289.843763 86.859 151.0483
291.944090 86.854 150.8917
294.059638 86.849 150.7357
296.190515 86.846 150.5809
298.336833 86.843 150.4282
300.498705 86.841 150.2781
302.676243 86.840 150.1312
304.869559 86.839 149.9879
307.078770 86.839 149.8482
309.303989 86.839 149.7123
311.545334 86.839 149.5796
313.802919 86.839 149.4498
316.076865 86.840 149.3222
318.367288 86.840 149.1964
320.674309 86.841 149.0719
322.998047 86.841 148.9485
325.338624 86.842 148.8261
327.696162 86.842 148.7047
330.070783 86.841 148.5840
332.462612 86.841 148.4641
334.871773 86.840 148.3450
337.298392 86.838 148.2269
339.742595 86.835 148.1100
342.204510 86.831 147.9948
344.684265 86.826 147.8813
347.181989 86.820 147.7700
349.697813 86.812 147.6604
352.231868 86.803 147.5521
354.784285 86.793 147.4443
357.355198 86.781 147.3366
359.944741 86.768 147.2287
362.553049 86.754 147.1210
365.180258 86.739 147.0141
367.826505 86.724 146.9085
370.491927 86.708 146.8046
373.176665 86.691 146.7025
375.880856 86.674 146.6016
378.604644 86.656 146.5013
381.348169 86.639 146.4008
384.111575 86.621 146.2995
386.895006 86.604 146.1974
389.698607 86.587 146.0947
392.522524 86.570 145.9919
395.366904 86.554 145.8896
398.231895 86.537 145.7881
401.117648 86.520 145.6874
404.024312 86.504 145.5875
406.952038 86.486 145.4880
409.900981 86.468 145.3888
412.871292 86.449 145.2894
415.863128 86.428 145.1896
418.876643 86.407 145.0892
421.911996 86.383 144.9886
424.969344 86.359 144.8882
428.048847 86.332 144.7890
431.150666 86.304 144.6922
434.274961 86.275 144.5988
437.421897 86.244 144.5096
440.591636 86.212 144.4248
443.784345 86.178 144.3440
447.000189 86.144 144.2663
450.239337 86.108 144.1908
453.501956 86.072 144.1164
456.788219 86.035 144.0419
460.098294 85.998 143.9666
463.432356 85.960 143.8899
466.790578 85.924 143.8119
470.173135 85.888 143.7330
473.580203 85.853 143.6538
477.011961 85.818 143.5749
480.468586 85.785 143.4966
483.950259 85.753 143.4193
487.457163 85.723 143.3424
490.989478 85.694 143.2658
494.547390 85.666 143.1891
498.131084 85.640 143.1120
501.740748 85.616 143.0345
505.376568 85.593 142.9568
509.038735 85.572 142.8787
512.727439 85.552 142.7999
516.442874 85.535 142.7197
520.185232 85.519 142.6374
523.954708 85.505 142.5523
527.751500 85.492 142.4641
531.575805 85.482 142.3726
535.427822 85.472 142.2781
539.307753 85.465 142.1812
543.215800 85.458 142.0824
547.152165 85.453 141.9827
551.117055 85.449 141.8831
555.110677 85.447 141.7849
559.133237 85.445 141.6894
563.184947 85.446 141.5977
567.266018 85.447 141.5108
571.376661 85.450 141.4296
575.517092 85.453 141.3546
579.687526 85.458 141.2861
583.888181 85.463 141.2239
588.119275 85.469 141.1676
592.381030 85.475 141.1164
596.673667 85.482 141.0691
600.997410 85.489 141.0243
605.352485 85.496 140.9805
609.739119 85.503 140.9362
614.157540 85.509 140.8902
618.607979 85.515 140.8414
623.090667 85.521 140.7894
627.605839 85.526 140.7337
632.153730 85.529 140.6744
636.734576 85.532 140.6119
641.348617 85.533 140.5468
645.996094 85.533 140.4801
650.677248 85.532 140.4126
655.392323 85.529 140.3454
660.141566 85.526 140.2792
664.925224 85.521 140.2143
669.743546 85.515 140.1507
674.596784 85.509 140.0877
679.485191 85.502 140.0245
684.409020 85.494 139.9603
689.368530 85.485 139.8943
694.363979 85.475 139.8262
699.395626 85.464 139.7559
704.463736 85.452 139.6842
709.568570 85.439 139.6119
714.710396 85.424 139.5398
719.889483 85.409 139.4682
725.106099 85.393 139.3972
730.360516 85.375 139.3262
735.653010 85.356 139.2547
740.983855 85.337 139.1819
746.353329 85.316 139.1071
751.761713 85.294 139.0298
757.209288 85.271 138.9492
762.696339 85.246 138.8651
768.223151 85.221 138.7770
773.790013 85.194 138.6845
779.397214 85.165 138.5876
785.045047 85.135 138.4864
790.733808 85.104 138.3810
796.463791 85.072 138.2718
802.235296 85.038 138.1590
808.048623 85.004 138.0428
813.904077 84.969 137.9235
819.801961 84.934 137.8008
825.742584 84.899 137.6749
831.726255 84.863 137.5457
837.753287 84.826 137.4138
843.823992 84.788 137.2807
849.938689 84.749 137.1489
856.097695 84.708 137.0221
862.301332 84.665 136.9056
868.549922 84.619 136.8058
874.843793 84.572 136.7294
881.183272 84.524 136.6829
887.568689 84.476 136.6716
894.000378 84.429 136.6989
900.478673 84.384 136.7652
907.003913 84.344 136.8685
913.576437 84.309 137.0039
920.196588 84.281 137.1639
926.864712 84.260 137.3395
933.581156 84.247 137.5208
940.346270 84.243 137.6982
947.160407 84.246 137.8633
954.023921 84.255 138.0096
960.937172 84.271 138.1328
967.900519 84.293 138.2307
974.914325 84.318 138.3032
981.978956 84.348 138.3514
989.094780 84.380 138.3776
996.262169 84.415 138.3842
1003.481495 84.453 138.3738
1010.753136 84.492 138.3488
1018.077470 84.534 138.3106
1025.454879 84.577 138.2603
1032.885748 84.622 138.1984
1040.370463 84.669 138.1246
1047.909417 84.717 138.0387
1055.503000 84.766 137.9407
1063.151610 84.816 137.8308
1070.855645 84.866 137.7102
1078.615506 84.916 137.5806
1086.431599 84.966 137.4438
1094.304330 85.014 137.3018
1102.234110 85.062 137.1566
1110.221353 85.110 137.0092
1118.266475 85.156 136.8604
1126.369895 85.202 136.7105
1134.532035 85.246 136.5591
1142.753322 85.290 136.4058
1151.034184 85.333 136.2502
1159.375052 85.374 136.0927
1167.776361 85.414 135.9341
1176.238550 85.453 135.7758
1184.762060 85.490 135.6190
1193.347334 85.526 135.4650
1201.994821 85.562 135.3148
1210.704971 85.596 135.1687
1219.478238 85.631 135.0266
1228.315080 85.665 134.8876
1237.215957 85.700 134.7512
1246.181334 85.735 134.6168
1255.211678 85.769 134.4842
1264.307459 85.804 134.3538
1273.469152 85.839 134.2261
1282.697235 85.873 134.1014
1291.992188 85.908 133.9799
1301.354495 85.943 133.8618
1310.784647 85.977 133.7469
1320.283132 86.012 133.6349
1329.850448 86.047 133.5253
1339.487093 86.082 133.4174
1349.193569 86.117 133.3110
1358.970381 86.153 133.2057
1368.818041 86.189 133.1015
1378.737061 86.226 132.9984
1388.727958 86.264 132.8961
1398.791253 86.303 132.7936
1408.927471 86.343 132.6892
1419.137140 86.386 132.5804
1429.420793 86.429 132.4645
1439.778965 86.474 132.3398
1450.212197 86.518 132.2061
1460.721033 86.563 132.0646
1471.306019 86.606 131.9185
1481.967709 86.649 131.7712
1492.706658 86.689 131.6270
1503.523426 86.727 131.4901
1514.418576 86.763 131.3652
1525.392678 86.797 131.2570
1536.446302 86.828 131.1703
1547.580025 86.856 131.1087
1558.794428 86.883 131.0746
1570.090095 86.909 131.0684
1581.467615 86.934 131.0887
1592.927581 86.958 131.1326
1604.470591 86.983 131.1960
1616.097246 87.007 131.2740
1627.808153 87.032 131.3605
1639.603922 87.057 131.4491
1651.485168 87.082 131.5337
1663.452510 87.106 131.6088
1675.506573 87.129 131.6709
1687.647984 87.150 131.7179
1699.877377 87.168 131.7498
1712.195390 87.183 131.7680
1724.602663 87.194 131.7757
1737.099845 87.200 131.7777
1749.687587 87.202 131.7803
1762.366544 87.200 131.7902
1775.137379 87.194 131.8133
1788.000756 87.185 131.8539
1800.957346 87.174 131.9141
1814.007826 87.162 131.9941
1827.152874 87.148 132.0928
1840.393177 87.135 132.2079
1853.729425 87.121 132.3367
1867.162312 87.107 132.4759
1880.692540 87.094 132.6220
1894.320813 87.080 132.7712
1908.047843 87.066 132.9200
1921.874344 87.051 133.0659
1935.801038 87.036 133.2075
1949.828650 87.018 133.3442
1963.957912 86.999 133.4764
1978.189561 86.977 133.6048
1992.524338 86.953 133.7300
2006.962991 86.927 133.8528
2021.506272 86.898 133.9736
2036.154940 86.868 134.0936
2050.909758 86.834 134.2146
2065.771495 86.799 134.3393
2080.740927 86.762 134.4706
2095.818833 86.723 134.6110
2111.006001 86.684 134.7619
2126.303220 86.646 134.9234
2141.711290 86.608 135.0942
2157.231013 86.572 135.2715
2172.863198 86.539 135.4518
2188.608660 86.508 135.6309
2204.468221 86.480 135.8048
2220.442706 86.455 135.9707
2236.532950 86.432 136.1271
2252.739789 86.411 136.2739
2269.064070 86.391 136.4119
2285.506644 86.374 136.5426
2302.068367 86.357 136.6678
2318.750104 86.342 136.7898
2335.552723 86.328 136.9106
2352.477101 86.317 137.0319
2369.524119 86.308 137.1543
2386.694668 86.301 137.2775
2403.989641 86.298 137.4005
2421.409941 86.298 137.5221
2438.956476 86.302 137.6410
2456.630160 86.310 137.7560
2474.431915 86.322 137.8653
2492.362668 86.338 137.9674
2510.423356 86.358 138.0607
2528.614918 86.382 138.1443
2546.938304 86.409 138.2177
2565.394469 86.439 138.2817
2583.984375 86.471 138.3379
2602.708991 86.506 138.3890
2621.569293 86.543 138.4390
2640.566265 86.582 138.4922
2659.700897 86.624 138.5526
2678.974186 86.668 138.6229
2698.387137 86.717 138.7036
2717.940763 86.769 138.7936
2737.636082 86.826 138.8901
2757.474121 86.887 138.9896
2777.455915 86.952 139.0888
2797.582506 87.022 139.1844
2817.854942 87.094 139.2737
2838.274281 87.170 139.3546
2858.841586 87.248 139.4253
2879.557931 87.327 139.4848
2900.424394 87.406 139.5327
2921.442065 87.486 139.5695
2942.612039 87.564 139.5968
2963.935418 87.640 139.6172
2985.413316 87.714 139.6335
3007.046852 87.786 139.6487
3028.837153 87.855 139.6645
3050.785356 87.921 139.6812
3072.892604 87.984 139.6975
3095.160050 88.043 139.7106
3117.588856 88.099 139.7177
3140.180190 88.150 139.7164
3162.935230 88.195 139.7062
3185.855163 88.234 139.6879
3208.941182 88.265 139.6642
3232.194493 88.289 139.6385
3255.616307 88.305 139.6146
3279.207844 88.314 139.5953
3302.970336 88.316 139.5818
3326.905021 88.311 139.5735
3351.013146 88.301 139.5686
3375.295969 88.284 139.5652
3399.754755 88.262 139.5616
3424.390779 88.233 139.5580
3449.205326 88.199 139.5562
3474.199690 88.158 139.5599
3499.375173 88.112 139.5739
3524.733088 88.061 139.6032
3550.274757 88.006 139.6519
3576.001511 87.948 139.7224
3601.914692 87.889 139.8153
3628.015651 87.829 139.9298
3654.305748 87.771 140.0644
3680.786354 87.713 140.2174
3707.458849 87.658 140.3880
3734.324624 87.606 140.5766
3761.385080 87.557 140.7847
3788.641627 87.512 141.0146
3816.095686 87.472 141.2682
3843.748688 87.437 141.5472
3871.602076 87.408 141.8520
3899.657300 87.387 142.1822
3927.915825 87.372 142.5367
3956.379122 87.366 142.9147
3985.048676 87.366 143.3161
4013.925981 87.375 143.7415
4043.012544 87.392 144.1929
4072.309879 87.416 144.6723
4101.819515 87.448 145.1816
4131.542990 87.489 145.7216
4161.481854 87.539 146.2918
4191.637667 87.598 146.8895
4222.012001 87.668 147.5094
4252.606441 87.748 148.1438
4283.422580 87.840 148.7826
4314.462026 87.943 149.4133
4345.726396 88.057 150.0221
4377.217321 88.182 150.5942
4408.936442 88.317 151.1139
4440.885413 88.461 151.5650
4473.065899 88.613 151.9308
4505.479579 88.771 152.1949
4538.128141 88.933 152.3425
4571.013288 89.096 152.3621
4604.136735 89.258 152.2463
4637.500207 89.416 151.9926
4671.105446 89.568 151.6028
4704.954201 89.710 151.0815
4739.048239 89.842 150.4354
4773.389336 89.962 149.6717
4807.979283 90.069 148.7980
4842.819883 90.161 147.8222
4877.912952 90.237 146.7531
4913.260320 90.296 145.6002
4948.863830 90.337 144.3743
4984.725337 90.358 143.0869
5020.846712 90.359 141.7500
5057.229836 90.339 140.3763
5093.876609 90.297 138.9800
5130.788938 90.231 137.5768
5167.968750 90.141 136.1861
5205.417982 90.025 134.8303
5243.138586 89.883 133.5355
5281.132530 89.714 132.3304
5319.401793 89.521 131.2459
5357.948371 89.303 130.3129
5396.774274 89.066 129.5613
5435.881525 88.811 129.0179
5475.272163 88.544 128.7048
5514.948243 88.271 128.6370
5554.911831 87.998 128.8207
5595.165012 87.732 129.2517
5635.709884 87.479 129.9144
5676.548561 87.245 130.7817
5717.683172 87.034 131.8168
5759.115861 86.851 132.9763
5800.848789 86.696 134.2133
5842.884130 86.570 135.4816
5885.224077 86.469 136.7385
5927.870837 86.391 137.9473
5970.826633 86.332 139.0793
6014.093704 86.285 140.1145
6057.674306 86.246 141.0419
6101.570711 86.209 141.8586
6145.785208 86.170 142.5687
6190.320101 86.123 143.1824
6235.177712 86.065 143.7152
6280.360380 85.991 144.1875
6325.870460 85.899 144.6245
6371.710325 85.785 145.0557
6417.882365 85.649 145.5149
6464.388986 85.489 146.0389
6511.232613 85.306 146.6673
6558.415689 85.101 147.4412
6605.940673 84.876 148.4026
6653.810042 84.635 149.5931
6702.026292 84.384 151.0517
6750.591937 84.128 152.8118
6799.509509 83.875 154.8972
6848.781558 83.634 157.3174
6898.410653 83.414 160.0612
6948.399380 83.226 163.0923
6998.750346 83.079 166.3459
7049.466176 82.979 169.7292
7100.549514 82.933 173.1287
7152.003023 82.940 176.4221
7203.829385 82.998 179.4924
7256.031302 83.102 -177.7581
7308.611496 83.240 -175.4004
7361.572708 83.404 -173.4755
7414.917698 83.581 -171.9975
7468.649249 83.759 -170.9582
7522.770160 83.928 -170.3338
7577.283253 84.079 -170.0896
7632.191371 84.202 -170.1840
7687.497376 84.292 -170.5708
7743.204151 84.340 -171.1999
7799.314600 84.342 -172.0166
7855.831649 84.293 -172.9601
7912.758244 84.190 -173.9603
7970.097352 84.029 -174.9335
8027.851962 83.811 -175.7752
8086.025087 83.535 -176.3505
8144.619758 83.206 -176.4793
8203.639030 82.833 -175.9139
8263.085980 82.430 -174.3095
8322.963708 82.020 -171.1913
8383.275334 81.633 -165.9534
8444.024002 81.308 -157.9996
8505.212881 81.084 -147.2275
8566.845160 80.993 -134.7498
8628.924051 81.050 -122.7590
8691.452792 81.249 -113.0327
8754.434642 81.565 -106.0127
8817.872884 81.965 -101.2844
8881.770826 82.417 -98.2438
8946.131799 82.894 -96.3843
9010.959157 83.377 -95.3434
9076.256282 83.854 -94.8776
9142.026576 84.317 -94.8288
9208.273470 84.761 -95.0971
9275.000415 85.184 -95.6222
9342.210891 85.585 -96.3696
9409.908403 85.961 -97.3214
9478.096478 86.311 -98.4691
9546.778672 86.631 -99.8081
9615.958566 86.919 -101.3342
9685.639765 87.170 -103.0401
9755.825904 87.382 -104.9139
9826.520640 87.549 -106.9370
9897.727659 87.669 -109.0842
9969.450674 87.738 -111.3236
10041.693423 87.753 -113.6173
10114.459673 87.714 -115.9229
10187.753217 87.619 -118.1956
10261.577877 87.470 -120.3900
10335.937500 87.269 -122.4621
10410.835964 87.019 -124.3714
10486.277173 86.724 -126.0823
10562.265060 86.391 -127.5657
10638.803587 86.024 -128.7999
10715.896743 85.630 -129.7717
10793.548548 85.217 -130.4779
10871.763050 84.792 -130.9268
10950.544327 84.363 -131.1388
11029.896485 83.937 -131.1484
11109.823662 83.523 -131.0031
11190.330024 83.127 -130.7623
11271.419768 82.753 -130.4935
11353.097122 82.403 -130.2667
11435.366344 82.078 -130.1469
11518.231722 81.773 -130.1862
11601.697577 81.482 -130.4173
11685.768261 81.194 -130.8484
11770.448155 80.901 -131.4620
11855.741674 80.595 -132.2181
11941.653265 80.269 -133.0625
12028.187408 79.922 -133.9383
12115.348612 79.559 -134.8007
12203.141422 79.188 -135.6296
12291.570415 78.822 -136.4389
12380.640201 78.478 -137.2794
12470.355424 78.171 -138.2341
12560.720760 77.914 -139.4072
12651.740920 77.717 -140.9075
12743.420650 77.582 -142.8328
12835.764729 77.504 -145.2576
12928.777972 77.477 -148.2265
13022.465227 77.487 -151.7543
13116.831378 77.525 -155.8307
13211.881345 77.579 -160.4255
13307.620084 77.638 -165.4940
13404.052584 77.695 -170.9799
13501.183875 77.740 -176.8165
13599.019019 77.767 177.0727
13697.563116 77.769 170.7731
13796.821305 77.740 164.3769
13896.798760 77.678 157.9785
13997.500692 77.582 151.6695
14098.932352 77.453 145.5322
14201.099028 77.296 139.6340
14304.006046 77.119 134.0236
14407.658770 76.931 128.7285
14512.062604 76.742 123.7551
14617.222992 76.561 119.0900
14723.145416 76.398 114.7026
14829.835397 76.260 110.5500
14937.298497 76.148 106.5811
15045.540320 76.064 102.7432
15154.566507 76.003 98.9868
15264.382743 75.959 95.2711
15374.994752 75.926 91.5665
15486.408302 75.897 87.8545
15598.629201 75.868 84.1249
15711.663298 75.836 80.3698
15825.516487 75.804 76.5763
15940.194703 75.773 72.7219
16055.703925 75.744 68.7728
16172.050174 75.719 64.6883
16289.239516 75.692 60.4275
16407.278061 75.658 55.9568
16526.171961 75.606 51.2551
16645.927415 75.527 46.3171
16766.550667 75.411 41.1523
16888.048005 75.247 35.7847
17010.425762 75.029 30.2503
17133.690320 74.749 24.5958
17257.848103 74.402 18.8766
17382.905584 73.984 13.1576
17508.869284 73.493 7.5114
17635.745768 72.927 2.0176
17763.541652 72.287 -3.2394
17892.263597 71.574 -8.1757
18021.918315 70.793 -12.7143
18152.512564 69.949 -16.7953
18284.053153 69.049 -20.3894
18416.546939 68.102 -23.5115
18550.000830 67.119 -26.2319
18684.421783 66.113 -28.6724
18819.816805 65.098 -30.9845
18956.192956 64.089 -33.3115
19093.557344 63.104 -35.7462
19231.917131 62.164 -38.3004
19371.279531 61.294 -40.8946
19511.651807 60.526 -43.3693
19653.041280 59.897 -45.5128
19795.455318 59.448 -47.1025
19938.901348 59.212 -47.9512
