* Measurement data measured by REW V5.31.3
* Source: EXCL: Headset (USB-C to 3.5mm Headphone Jack Adapter), MICROPHONE (Master Volume), 0, volume: 0.750
* Format: 256k Log Swept Sine, 1 sweep at -12.0 dBFS with no timing reference
* Dated: Apr 7, 2025 12:07:00 PM
* REW Settings:
*  C-weighting compensation: Off
*  Target level: 75.0 dB
* Note: ; 
* Measurement: HD6XX L10
* Smoothing: 1/6 octave
* Frequency Step: 96 ppo
* Start Frequency: 20.0 Hz
*
* Freq(Hz) SPL(dB) Phase(degrees)
20.187378 79.099 -97.1219
20.333664 79.125 -97.1712
20.481010 79.159 -97.2378
20.629424 79.205 -97.3207
20.778913 79.261 -97.4197
20.929486 79.329 -97.5353
21.081150 79.408 -97.6691
21.233912 79.500 -97.8236
21.387782 79.603 -98.0018
21.542767 79.717 -98.2073
21.698874 79.840 -98.4433
21.856113 79.972 -98.7126
22.014492 80.111 -99.0171
22.174018 80.254 -99.3571
22.334700 80.400 -99.7319
22.496546 80.545 -100.1389
22.659566 80.688 -100.5739
22.823766 80.826 -101.0316
22.989157 80.956 -101.5053
23.155745 81.078 -101.9876
23.323542 81.190 -102.4710
23.492554 81.290 -102.9482
23.662790 81.379 -103.4129
23.834261 81.455 -103.8601
24.006973 81.519 -104.2865
24.180938 81.572 -104.6910
24.356163 81.614 -105.0747
24.532658 81.647 -105.4402
24.710431 81.671 -105.7920
24.889493 81.688 -106.1352
25.069853 81.698 -106.4751
25.251519 81.704 -106.8162
25.434502 81.705 -107.1619
25.618811 81.704 -107.5136
25.804456 81.701 -107.8709
25.991445 81.697 -108.2310
26.179790 81.693 -108.5896
26.369500 81.692 -108.9412
26.560584 81.692 -109.2794
26.753053 81.697 -109.5980
26.946917 81.705 -109.8911
27.142185 81.718 -110.1540
27.338869 81.735 -110.3832
27.536977 81.756 -110.5768
27.736522 81.780 -110.7347
27.937512 81.808 -110.8590
28.139959 81.839 -110.9536
28.343872 81.871 -111.0248
28.549264 81.905 -111.0811
28.756143 81.939 -111.1327
28.964522 81.974 -111.1914
29.174411 82.010 -111.2692
29.385821 82.045 -111.3776
29.598763 82.080 -111.5264
29.813248 82.115 -111.7226
30.029287 82.150 -111.9702
30.246891 82.185 -112.2692
30.466073 82.220 -112.6165
30.686842 82.258 -113.0065
30.909212 82.298 -113.4315
31.133193 82.342 -113.8834
31.358797 82.392 -114.3539
31.586035 82.447 -114.8355
31.814921 82.509 -115.3218
32.045465 82.578 -115.8071
32.277680 82.654 -116.2866
32.511577 82.736 -116.7564
32.747169 82.823 -117.2132
32.984469 82.915 -117.6548
33.223488 83.011 -118.0801
33.464239 83.110 -118.4894
33.706735 83.212 -118.8845
33.950987 83.316 -119.2679
34.197010 83.422 -119.6428
34.444816 83.527 -120.0119
34.694417 83.633 -120.3770
34.945827 83.738 -120.7382
35.199059 83.842 -121.0943
35.454126 83.944 -121.4430
35.711041 84.045 -121.7813
35.969818 84.144 -122.1068
36.230470 84.241 -122.4180
36.493011 84.338 -122.7145
36.757455 84.432 -122.9974
37.023814 84.525 -123.2686
37.292104 84.615 -123.5307
37.562338 84.701 -123.7863
37.834530 84.783 -124.0381
38.108695 84.861 -124.2887
38.384846 84.933 -124.5409
38.662999 85.001 -124.7976
38.943167 85.064 -125.0616
39.225365 85.123 -125.3359
39.509608 85.178 -125.6230
39.795911 85.231 -125.9247
40.084289 85.283 -126.2415
40.374756 85.333 -126.5728
40.667328 85.383 -126.9170
40.962020 85.433 -127.2716
41.258848 85.483 -127.6343
41.557827 85.534 -128.0029
41.858972 85.586 -128.3763
42.162299 85.639 -128.7548
42.467824 85.692 -129.1391
42.775564 85.745 -129.5302
43.085533 85.798 -129.9282
43.397749 85.849 -130.3311
43.712227 85.898 -130.7344
44.028983 85.945 -131.1308
44.348036 85.990 -131.5119
44.669400 86.033 -131.8693
44.993093 86.074 -132.1974
45.319131 86.113 -132.4943
45.647532 86.153 -132.7632
45.978313 86.192 -133.0115
46.311491 86.231 -133.2488
46.647083 86.269 -133.4846
46.985107 86.305 -133.7258
47.325581 86.339 -133.9750
47.668521 86.370 -134.2309
48.013947 86.398 -134.4888
48.361876 86.423 -134.7427
48.712326 86.447 -134.9871
49.065315 86.468 -135.2182
49.420863 86.487 -135.4349
49.778987 86.505 -135.6383
50.139706 86.519 -135.8318
50.503039 86.531 -136.0203
50.869005 86.541 -136.2092
51.237623 86.548 -136.4046
51.608912 86.555 -136.6124
51.982891 86.562 -136.8378
52.359580 86.571 -137.0850
52.739000 86.582 -137.3564
53.121168 86.597 -137.6523
53.506106 86.616 -137.9704
53.893833 86.638 -138.3060
54.284370 86.662 -138.6533
54.677737 86.688 -139.0058
55.073955 86.716 -139.3581
55.473043 86.744 -139.7066
55.875024 86.773 -140.0498
56.279917 86.801 -140.3879
56.687745 86.829 -140.7226
57.098527 86.857 -141.0555
57.512287 86.884 -141.3878
57.929045 86.912 -141.7193
58.348822 86.939 -142.0476
58.771642 86.966 -142.3683
59.197525 86.994 -142.6763
59.626495 87.025 -142.9670
60.058573 87.058 -143.2385
60.493782 87.094 -143.4921
60.932145 87.134 -143.7320
61.373685 87.178 -143.9638
61.818424 87.224 -144.1929
62.266386 87.273 -144.4235
62.717593 87.325 -144.6580
63.172071 87.378 -144.8977
63.629842 87.433 -145.1424
64.090930 87.488 -145.3918
64.555359 87.544 -145.6452
65.023154 87.600 -145.9022
65.494339 87.655 -146.1633
65.968938 87.709 -146.4294
66.446976 87.763 -146.7018
66.928478 87.815 -146.9813
67.413469 87.867 -147.2681
67.901975 87.919 -147.5614
68.394021 87.970 -147.8601
68.889632 88.020 -148.1627
69.388835 88.070 -148.4683
69.891655 88.120 -148.7765
70.398118 88.168 -149.0875
70.908252 88.214 -149.4015
71.422083 88.258 -149.7186
71.939636 88.300 -150.0387
72.460941 88.339 -150.3612
72.986023 88.375 -150.6854
73.514909 88.408 -151.0108
74.047629 88.437 -151.3372
74.584208 88.464 -151.6647
75.124676 88.487 -151.9934
75.669061 88.508 -152.3232
76.217390 88.526 -152.6536
76.769692 88.541 -152.9840
77.325997 88.553 -153.3135
77.886333 88.564 -153.6410
78.450730 88.574 -153.9660
79.019216 88.582 -154.2882
79.591822 88.589 -154.6074
80.168577 88.596 -154.9239
80.749512 88.603 -155.2376
81.334656 88.609 -155.5489
81.924040 88.616 -155.8580
82.517696 88.623 -156.1650
83.115653 88.629 -156.4704
83.717943 88.635 -156.7743
84.324598 88.641 -157.0768
84.935649 88.647 -157.3781
85.551128 88.651 -157.6782
86.171066 88.655 -157.9771
86.795497 88.658 -158.2755
87.424453 88.660 -158.5737
88.057967 88.662 -158.8722
88.696071 88.663 -159.1715
89.338800 88.663 -159.4715
89.986185 88.664 -159.7721
90.638262 88.664 -160.0727
91.295065 88.664 -160.3728
91.956626 88.663 -160.6713
92.622982 88.663 -160.9678
93.294166 88.662 -161.2617
93.970214 88.661 -161.5535
94.651161 88.660 -161.8438
95.337042 88.659 -162.1335
96.027894 88.658 -162.4238
96.723752 88.657 -162.7152
97.424652 88.656 -163.0081
98.130631 88.655 -163.3020
98.841726 88.655 -163.5963
99.557974 88.654 -163.8899
100.279412 88.653 -164.1820
101.006078 88.652 -164.4718
101.738010 88.652 -164.7591
102.475245 88.651 -165.0443
103.217823 88.650 -165.3280
103.965782 88.650 -165.6112
104.719161 88.651 -165.8946
105.477999 88.653 -166.1789
106.242336 88.656 -166.4642
107.012212 88.660 -166.7501
107.787666 88.665 -167.0360
108.568740 88.672 -167.3206
109.355474 88.680 -167.6028
110.147909 88.688 -167.8816
110.946086 88.698 -168.1567
111.750047 88.708 -168.4283
112.559834 88.718 -168.6969
113.375489 88.729 -168.9639
114.197055 88.740 -169.2304
115.024574 88.752 -169.4973
115.858089 88.764 -169.7652
116.697645 88.776 -170.0339
117.543284 88.789 -170.3027
118.395051 88.801 -170.5702
119.252990 88.812 -170.8352
120.117147 88.823 -171.0962
120.987565 88.833 -171.3524
121.864291 88.842 -171.6036
122.747370 88.850 -171.8502
123.636848 88.856 -172.0928
124.532771 88.861 -172.3326
125.435187 88.865 -172.5704
126.344142 88.868 -172.8070
127.259684 88.870 -173.0429
128.181860 88.871 -173.2782
129.110718 88.872 -173.5131
130.046308 88.872 -173.7475
130.988677 88.871 -173.9812
131.937875 88.870 -174.2140
132.893951 88.868 -174.4458
133.856956 88.865 -174.6762
134.826938 88.861 -174.9047
135.803950 88.856 -175.1312
136.788041 88.849 -175.3556
137.779264 88.842 -175.5777
138.777669 88.833 -175.7979
139.783309 88.823 -176.0163
140.796237 88.812 -176.2333
141.816504 88.800 -176.4494
142.844165 88.786 -176.6648
143.879273 88.771 -176.8796
144.921881 88.755 -177.0939
145.972045 88.739 -177.3074
147.029819 88.721 -177.5197
148.095257 88.703 -177.7307
149.168417 88.685 -177.9402
150.249353 88.666 -178.1480
151.338121 88.647 -178.3542
152.434780 88.628 -178.5589
153.539385 88.608 -178.7623
154.651995 88.589 -178.9645
155.772667 88.569 -179.1656
156.901460 88.550 -179.3655
158.038432 88.531 -179.5644
159.183644 88.511 -179.7625
160.337154 88.491 -179.9599
161.499023 88.471 179.8433
162.669312 88.452 179.6476
163.848081 88.431 179.4536
165.035392 88.411 179.2618
166.231306 88.391 179.0724
167.435887 88.371 178.8853
168.649196 88.351 178.6998
169.871298 88.332 178.5153
171.102255 88.312 178.3313
172.342133 88.294 178.1474
173.590995 88.275 177.9636
174.848907 88.257 177.7798
176.115934 88.240 177.5964
177.392143 88.222 177.4136
178.677599 88.204 177.2318
179.972371 88.185 177.0514
181.276525 88.166 176.8734
182.590129 88.146 176.6986
183.913252 88.126 176.5279
185.245964 88.104 176.3621
186.588332 88.082 176.2013
187.940428 88.060 176.0453
189.302322 88.038 175.8938
190.674085 88.015 175.7457
192.055788 87.992 175.6002
193.447503 87.969 175.4562
194.849303 87.946 175.3132
196.261262 87.923 175.1705
197.683452 87.900 175.0278
199.115948 87.876 174.8847
200.558824 87.853 174.7411
202.012156 87.829 174.5971
203.476019 87.805 174.4531
204.950490 87.781 174.3095
206.435646 87.756 174.1671
207.931564 87.731 174.0265
209.438322 87.706 173.8883
210.955998 87.681 173.7534
212.484672 87.656 173.6223
214.024424 87.631 173.4955
215.575333 87.607 173.3730
217.137481 87.583 173.2542
218.710948 87.560 173.1385
220.295818 87.538 173.0254
221.892172 87.517 172.9141
223.500094 87.498 172.8043
225.119668 87.479 172.6959
226.750978 87.462 172.5888
228.394109 87.446 172.4832
230.049147 87.431 172.3792
231.716178 87.416 172.2774
233.395289 87.403 172.1782
235.086567 87.390 172.0820
236.790102 87.378 171.9893
238.505980 87.367 171.9001
240.234293 87.356 171.8143
241.975130 87.347 171.7315
243.728581 87.338 171.6513
245.494739 87.330 171.5733
247.273695 87.323 171.4969
249.065542 87.316 171.4219
250.870374 87.310 171.3477
252.688284 87.303 171.2734
254.519367 87.297 171.1987
256.363720 87.290 171.1230
258.221437 87.283 171.0464
260.092616 87.277 170.9695
261.977354 87.270 170.8927
263.875750 87.265 170.8166
265.787903 87.260 170.7410
267.713911 87.255 170.6656
269.653877 87.251 170.5894
271.607900 87.247 170.5117
273.576083 87.244 170.4319
275.558528 87.240 170.3503
277.555338 87.235 170.2679
279.566619 87.230 170.1860
281.592474 87.225 170.1062
283.633009 87.219 170.0301
285.688331 87.213 169.9586
287.758546 87.207 169.8926
289.843763 87.201 169.8328
291.944090 87.197 169.7795
294.059638 87.193 169.7329
296.190515 87.190 169.6927
298.336833 87.188 169.6581
300.498705 87.186 169.6284
302.676243 87.186 169.6024
304.869559 87.187 169.5794
307.078770 87.188 169.5581
309.303989 87.189 169.5378
311.545334 87.191 169.5175
313.802919 87.193 169.4966
316.076865 87.194 169.4749
318.367288 87.196 169.4524
320.674309 87.198 169.4291
322.998047 87.199 169.4055
325.338624 87.200 169.3820
327.696162 87.201 169.3588
330.070783 87.202 169.3363
332.462612 87.203 169.3148
334.871773 87.203 169.2944
337.298392 87.202 169.2754
339.742595 87.200 169.2580
342.204510 87.197 169.2423
344.684265 87.193 169.2285
347.181989 87.187 169.2167
349.697813 87.180 169.2068
352.231868 87.171 169.1987
354.784285 87.162 169.1916
357.355198 87.152 169.1848
359.944741 87.141 169.1772
362.553049 87.129 169.1682
365.180258 87.116 169.1574
367.826505 87.103 169.1455
370.491927 87.090 169.1331
373.176665 87.076 169.1207
375.880856 87.061 169.1084
378.604644 87.047 169.0961
381.348169 87.033 169.0839
384.111575 87.018 169.0719
386.895006 87.004 169.0606
389.698607 86.990 169.0506
392.522524 86.975 169.0426
395.366904 86.960 169.0377
398.231895 86.944 169.0364
401.117648 86.928 169.0392
404.024312 86.911 169.0458
406.952038 86.892 169.0554
409.900981 86.873 169.0669
412.871292 86.852 169.0795
415.863128 86.830 169.0926
418.876643 86.807 169.1059
421.911996 86.783 169.1196
424.969344 86.757 169.1341
428.048847 86.731 169.1502
431.150666 86.704 169.1682
434.274961 86.675 169.1885
437.421897 86.646 169.2108
440.591636 86.616 169.2347
443.784345 86.585 169.2595
447.000189 86.553 169.2847
450.239337 86.520 169.3096
453.501956 86.487 169.3340
456.788219 86.454 169.3576
460.098294 86.420 169.3809
463.432356 86.386 169.4044
466.790578 86.352 169.4289
470.173135 86.319 169.4550
473.580203 86.286 169.4826
477.011961 86.254 169.5118
480.468586 86.223 169.5422
483.950259 86.193 169.5732
487.457163 86.164 169.6045
490.989478 86.137 169.6356
494.547390 86.110 169.6662
498.131084 86.085 169.6960
501.740748 86.062 169.7251
505.376568 86.040 169.7533
509.038735 86.019 169.7808
512.727439 86.000 169.8077
516.442874 85.982 169.8340
520.185232 85.966 169.8597
523.954708 85.951 169.8849
527.751500 85.938 169.9095
531.575805 85.926 169.9336
535.427822 85.916 169.9570
539.307753 85.908 169.9797
543.215800 85.902 170.0015
547.152165 85.898 170.0224
551.117055 85.895 170.0427
555.110677 85.893 170.0629
559.133237 85.893 170.0839
563.184947 85.895 170.1070
567.266018 85.897 170.1335
571.376661 85.901 170.1646
575.517092 85.905 170.2012
579.687526 85.910 170.2440
583.888181 85.916 170.2933
588.119275 85.923 170.3492
592.381030 85.930 170.4116
596.673667 85.937 170.4802
600.997410 85.945 170.5543
605.352485 85.953 170.6326
609.739119 85.962 170.7135
614.157540 85.971 170.7950
618.607979 85.979 170.8752
623.090667 85.988 170.9525
627.605839 85.996 171.0259
632.153730 86.003 171.0948
636.734576 86.009 171.1592
641.348617 86.014 171.2197
645.996094 86.018 171.2770
650.677248 86.019 171.3320
655.392323 86.020 171.3858
660.141566 86.018 171.4391
664.925224 86.016 171.4926
669.743546 86.012 171.5462
674.596784 86.007 171.6001
679.485191 86.001 171.6539
684.409020 85.994 171.7076
689.368530 85.986 171.7608
694.363979 85.978 171.8136
699.395626 85.968 171.8664
704.463736 85.957 171.9196
709.568570 85.945 171.9741
714.710396 85.932 172.0303
719.889483 85.918 172.0883
725.106099 85.904 172.1475
730.360516 85.888 172.2068
735.653010 85.873 172.2646
740.983855 85.856 172.3192
746.353329 85.839 172.3688
751.761713 85.822 172.4120
757.209288 85.803 172.4481
762.696339 85.784 172.4765
768.223151 85.763 172.4974
773.790013 85.740 172.5112
779.397214 85.717 172.5189
785.045047 85.692 172.5212
790.733808 85.666 172.5191
796.463791 85.638 172.5129
802.235296 85.610 172.5028
808.048623 85.581 172.4886
813.904077 85.552 172.4701
819.801961 85.522 172.4468
825.742584 85.491 172.4189
831.726255 85.459 172.3866
837.753287 85.426 172.3510
843.823992 85.391 172.3136
849.938689 85.354 172.2769
856.097695 85.315 172.2442
862.301332 85.274 172.2199
868.549922 85.230 172.2094
874.843793 85.184 172.2189
881.183272 85.136 172.2545
887.568689 85.087 172.3222
894.000378 85.039 172.4265
900.478673 84.992 172.5700
907.003913 84.948 172.7531
913.576437 84.908 172.9731
920.196588 84.874 173.2249
926.864712 84.847 173.5012
933.581156 84.827 173.7932
940.346270 84.815 174.0919
947.160407 84.811 174.3882
954.023921 84.815 174.6744
960.937172 84.826 174.9443
967.900519 84.842 175.1938
974.914325 84.865 175.4205
981.978956 84.892 175.6240
989.094780 84.923 175.8051
996.262169 84.958 175.9652
1003.481495 84.995 176.1063
1010.753136 85.036 176.2299
1018.077470 85.079 176.3377
1025.454879 85.124 176.4306
1032.885748 85.171 176.5096
1040.370463 85.219 176.5754
1047.909417 85.269 176.6288
1055.503000 85.319 176.6711
1063.151610 85.370 176.7036
1070.855645 85.421 176.7280
1078.615506 85.472 176.7461
1086.431599 85.523 176.7596
1094.304330 85.574 176.7693
1102.234110 85.625 176.7754
1110.221353 85.676 176.7776
1118.266475 85.727 176.7751
1126.369895 85.777 176.7672
1134.532035 85.827 176.7534
1142.753322 85.876 176.7337
1151.034184 85.923 176.7089
1159.375052 85.970 176.6799
1167.776361 86.015 176.6481
1176.238550 86.058 176.6149
1184.762060 86.101 176.5815
1193.347334 86.143 176.5485
1201.994821 86.184 176.5163
1210.704971 86.224 176.4853
1219.478238 86.264 176.4556
1228.315080 86.303 176.4279
1237.215957 86.342 176.4030
1246.181334 86.381 176.3818
1255.211678 86.419 176.3656
1264.307459 86.457 176.3549
1273.469152 86.496 176.3501
1282.697235 86.536 176.3506
1291.992188 86.576 176.3550
1301.354495 86.617 176.3614
1310.784647 86.659 176.3674
1320.283132 86.702 176.3705
1329.850448 86.745 176.3687
1339.487093 86.788 176.3605
1349.193569 86.832 176.3451
1358.970381 86.875 176.3229
1368.818041 86.917 176.2949
1378.737061 86.958 176.2627
1388.727958 86.999 176.2285
1398.791253 87.039 176.1945
1408.927471 87.078 176.1631
1419.137140 87.117 176.1362
1429.420793 87.156 176.1156
1439.778965 87.196 176.1031
1450.212197 87.237 176.1004
1460.721033 87.279 176.1088
1471.306019 87.322 176.1293
1481.967709 87.368 176.1620
1492.706658 87.414 176.2059
1503.523426 87.463 176.2594
1514.418576 87.513 176.3198
1525.392678 87.565 176.3843
1536.446302 87.617 176.4496
1547.580025 87.670 176.5126
1558.794428 87.722 176.5707
1570.090095 87.772 176.6224
1581.467615 87.820 176.6673
1592.927581 87.865 176.7060
1604.470591 87.906 176.7403
1616.097246 87.942 176.7726
1627.808153 87.974 176.8062
1639.603922 88.001 176.8446
1651.485168 88.023 176.8915
1663.452510 88.041 176.9503
1675.506573 88.056 177.0228
1687.647984 88.067 177.1097
1699.877377 88.077 177.2101
1712.195390 88.085 177.3219
1724.602663 88.092 177.4424
1737.099845 88.099 177.5693
1749.687587 88.104 177.6999
1762.366544 88.109 177.8325
1775.137379 88.114 177.9653
1788.000756 88.118 178.0971
1800.957346 88.121 178.2271
1814.007826 88.123 178.3548
1827.152874 88.124 178.4808
1840.393177 88.122 178.6061
1853.729425 88.119 178.7325
1867.162312 88.114 178.8613
1880.692540 88.107 178.9936
1894.320813 88.098 179.1298
1908.047843 88.087 179.2700
1921.874344 88.074 179.4136
1935.801038 88.059 179.5602
1949.828650 88.042 179.7089
1963.957912 88.024 179.8583
1978.189561 88.004 -179.9936
1992.524338 87.982 -179.8489
2006.962991 87.959 -179.7089
2021.506272 87.934 -179.5738
2036.154940 87.906 -179.4424
2050.909758 87.876 -179.3130
2065.771495 87.845 -179.1838
2080.740927 87.811 -179.0531
2095.818833 87.777 -178.9193
2111.006001 87.742 -178.7811
2126.303220 87.706 -178.6373
2141.711290 87.671 -178.4874
2157.231013 87.638 -178.3320
2172.863198 87.606 -178.1736
2188.608660 87.577 -178.0163
2204.468221 87.550 -177.8652
2220.442706 87.527 -177.7249
2236.532950 87.506 -177.5987
2252.739789 87.487 -177.4885
2269.064070 87.469 -177.3941
2285.506644 87.452 -177.3139
2302.068367 87.435 -177.2446
2318.750104 87.419 -177.1824
2335.552723 87.403 -177.1230
2352.477101 87.388 -177.0630
2369.524119 87.374 -176.9999
2386.694668 87.361 -176.9326
2403.989641 87.351 -176.8616
2421.409941 87.345 -176.7882
2438.956476 87.342 -176.7148
2456.630160 87.343 -176.6443
2474.431915 87.347 -176.5796
2492.362668 87.356 -176.5229
2510.423356 87.369 -176.4753
2528.614918 87.385 -176.4371
2546.938304 87.404 -176.4080
2565.394469 87.427 -176.3873
2583.984375 87.453 -176.3741
2602.708991 87.481 -176.3674
2621.569293 87.512 -176.3656
2640.566265 87.546 -176.3665
2659.700897 87.581 -176.3679
2678.974186 87.620 -176.3671
2698.387137 87.661 -176.3621
2717.940763 87.704 -176.3514
2737.636082 87.751 -176.3347
2757.474121 87.802 -176.3129
2777.455915 87.856 -176.2879
2797.582506 87.913 -176.2628
2817.854942 87.974 -176.2406
2838.274281 88.038 -176.2243
2858.841586 88.104 -176.2162
2879.557931 88.171 -176.2178
2900.424394 88.240 -176.2298
2921.442065 88.308 -176.2524
2942.612039 88.376 -176.2851
2963.935418 88.443 -176.3272
2985.413316 88.508 -176.3772
3007.046852 88.570 -176.4338
3028.837153 88.629 -176.4954
3050.785356 88.684 -176.5610
3072.892604 88.735 -176.6300
3095.160050 88.782 -176.7023
3117.588856 88.824 -176.7782
3140.180190 88.861 -176.8578
3162.935230 88.892 -176.9411
3185.855163 88.917 -177.0276
3208.941182 88.935 -177.1165
3232.194493 88.947 -177.2072
3255.616307 88.952 -177.2992
3279.207844 88.950 -177.3925
3302.970336 88.942 -177.4876
3326.905021 88.927 -177.5848
3351.013146 88.905 -177.6843
3375.295969 88.877 -177.7859
3399.754755 88.842 -177.8884
3424.390779 88.800 -177.9897
3449.205326 88.752 -178.0874
3474.199690 88.699 -178.1790
3499.375173 88.640 -178.2621
3524.733088 88.576 -178.3349
3550.274757 88.509 -178.3961
3576.001511 88.439 -178.4449
3601.914692 88.367 -178.4803
3628.015651 88.294 -178.5016
3654.305748 88.219 -178.5072
3680.786354 88.145 -178.4956
3707.458849 88.072 -178.4647
3734.324624 88.001 -178.4129
3761.385080 87.932 -178.3390
3788.641627 87.867 -178.2425
3816.095686 87.806 -178.1234
3843.748688 87.750 -177.9817
3871.602076 87.699 -177.8169
3899.657300 87.653 -177.6279
3927.915825 87.614 -177.4126
3956.379122 87.580 -177.1684
3985.048676 87.553 -176.8920
4013.925981 87.532 -176.5808
4043.012544 87.519 -176.2323
4072.309879 87.513 -175.8451
4101.819515 87.516 -175.4182
4131.542990 87.527 -174.9517
4161.481854 87.548 -174.4468
4191.637667 87.579 -173.9056
4222.012001 87.620 -173.3325
4252.606441 87.673 -172.7342
4283.422580 87.738 -172.1199
4314.462026 87.815 -171.5019
4345.726396 87.905 -170.8951
4377.217321 88.008 -170.3164
4408.936442 88.123 -169.7844
4440.885413 88.248 -169.3177
4473.065899 88.383 -168.9342
4505.479579 88.526 -168.6499
4538.128141 88.673 -168.4779
4571.013288 88.823 -168.4279
4604.136735 88.974 -168.5061
4637.500207 89.122 -168.7149
4671.105446 89.265 -169.0531
4704.954201 89.402 -169.5165
4739.048239 89.531 -170.0987
4773.389336 89.651 -170.7919
4807.979283 89.760 -171.5881
4842.819883 89.858 -172.4793
4877.912952 89.944 -173.4586
4913.260320 90.019 -174.5192
4948.863830 90.080 -175.6551
4984.725337 90.128 -176.8602
5020.846712 90.162 -178.1281
5057.229836 90.180 -179.4520
5093.876609 90.182 179.1767
5130.788938 90.166 177.7682
5167.968750 90.131 176.3354
5205.417982 90.074 174.8940
5243.138586 89.996 173.4626
5281.132530 89.894 172.0629
5319.401793 89.769 170.7199
5357.948371 89.620 169.4608
5396.774274 89.449 168.3140
5435.881525 89.257 167.3077
5475.272163 89.047 166.4681
5514.948243 88.824 165.8179
5554.911831 88.591 165.3745
5595.165012 88.354 165.1480
5635.709884 88.120 165.1398
5676.548561 87.892 165.3418
5717.683172 87.678 165.7364
5759.115861 87.481 166.2976
5800.848789 87.304 166.9929
5842.884130 87.150 167.7866
5885.224077 87.017 168.6424
5927.870837 86.905 169.5274
5970.826633 86.811 170.4144
6014.093704 86.731 171.2844
6057.674306 86.662 172.1273
6101.570711 86.598 172.9417
6145.785208 86.538 173.7335
6190.320101 86.477 174.5152
6235.177712 86.414 175.3040
6280.360380 86.347 176.1209
6325.870460 86.276 176.9892
6371.710325 86.201 177.9332
6417.882365 86.125 178.9766
6464.388986 86.051 -179.8595
6511.232613 85.981 -178.5582
6558.415689 85.923 -177.1102
6605.940673 85.880 -175.5151
6653.810042 85.859 -173.7844
6702.026292 85.867 -171.9427
6750.591937 85.908 -170.0284
6799.509509 85.988 -168.0923
6848.781558 86.107 -166.1949
6898.410653 86.268 -164.4016
6948.399380 86.468 -162.7781
6998.750346 86.703 -161.3846
7049.466176 86.968 -160.2722
7100.549514 87.256 -159.4799
7152.003023 87.559 -159.0341
7203.829385 87.870 -158.9486
7256.031302 88.180 -159.2264
7308.611496 88.482 -159.8613
7361.572708 88.769 -160.8397
7414.917698 89.035 -162.1428
7468.649249 89.274 -163.7477
7522.770160 89.482 -165.6289
7577.283253 89.653 -167.7590
7632.191371 89.785 -170.1094
7687.497376 89.873 -172.6502
7743.204151 89.914 -175.3499
7799.314600 89.906 -178.1749
7855.831649 89.845 178.9122
7912.758244 89.727 175.9539
7970.097352 89.551 173.0007
8027.851962 89.313 170.1137
8086.025087 89.010 167.3689
8144.619758 88.642 164.8617
8203.639030 88.207 162.7133
8263.085980 87.708 161.0778
8322.963708 87.150 160.1512
8383.275334 86.541 160.1791
8444.024002 85.896 161.4579
8505.212881 85.236 164.3118
8566.845160 84.591 169.0114
8628.924051 83.997 175.5943
8691.452792 83.491 -176.3678
8754.434642 83.111 -167.8169
8817.872884 82.880 -159.8478
8881.770826 82.804 -153.2027
8946.131799 82.871 -148.1017
9010.959157 83.055 -144.4156
9076.256282 83.327 -141.8886
9142.026576 83.659 -140.2679
9208.273470 84.027 -139.3501
9275.000415 84.414 -138.9863
9342.210891 84.809 -139.0738
9409.908403 85.201 -139.5445
9478.096478 85.585 -140.3542
9546.778672 85.954 -141.4746
9615.958566 86.303 -142.8861
9685.639765 86.628 -144.5732
9755.825904 86.924 -146.5207
9826.520640 87.185 -148.7111
9897.727659 87.407 -151.1230
9969.450674 87.587 -153.7298
10041.693423 87.719 -156.5000
10114.459673 87.802 -159.3972
10187.753217 87.832 -162.3815
10261.577877 87.811 -165.4114
10335.937500 87.737 -168.4451
10410.835964 87.613 -171.4435
10486.277173 87.442 -174.3714
10562.265060 87.227 -177.1998
10638.803587 86.973 -179.9064
10715.896743 86.684 177.5237
10793.548548 86.367 175.0981
10871.763050 86.026 172.8174
10950.544327 85.665 170.6761
11029.896485 85.290 168.6639
11109.823662 84.903 166.7681
11190.330024 84.506 164.9750
11271.419768 84.103 163.2732
11353.097122 83.692 161.6556
11435.366344 83.274 160.1218
11518.231722 82.848 158.6791
11601.697577 82.415 157.3416
11685.768261 81.976 156.1273
11770.448155 81.535 155.0532
11855.741674 81.098 154.1272
11941.653265 80.676 153.3406
12028.187408 80.282 152.6613
12115.348612 79.930 152.0304
12203.141422 79.635 151.3638
12291.570415 79.413 150.5593
12380.640201 79.270 149.5059
12470.355424 79.211 148.0951
12560.720760 79.232 146.2302
12651.740920 79.323 143.8316
12743.420650 79.469 140.8396
12835.764729 79.653 137.2139
12928.777972 79.857 132.9315
13022.465227 80.067 127.9852
13116.831378 80.268 122.3808
13211.881345 80.448 116.1350
13307.620084 80.601 109.2728
13404.052584 80.723 101.8251
13501.183875 80.813 93.8255
13599.019019 80.871 85.3090
13697.563116 80.900 76.3126
13796.821305 80.902 66.8767
13896.798760 80.878 57.0488
13997.500692 80.828 46.8871
14098.932352 80.749 36.4620
14201.099028 80.641 25.8554
14304.006046 80.499 15.1572
14407.658770 80.321 4.4598
14512.062604 80.105 -6.1490
14617.222992 79.852 -16.5926
14723.145416 79.561 -26.8087
14829.835397 79.234 -36.7509
14937.298497 78.873 -46.3881
15045.540320 78.478 -55.7002
15154.566507 78.050 -64.6750
15264.382743 77.590 -73.3044
15374.994752 77.097 -81.5815
15486.408302 76.572 -89.5010
15598.629201 76.016 -97.0607
15711.663298 75.432 -104.2661
15825.516487 74.826 -111.1360
15940.194703 74.206 -117.7056
16055.703925 73.579 -124.0264
16172.050174 72.954 -130.1582
16289.239516 72.334 -136.1567
16407.278061 71.721 -142.0596
16526.171961 71.111 -147.8776
16645.927415 70.497 -153.5927
16766.550667 69.873 -159.1631
16888.048005 69.234 -164.5286
17010.425762 68.579 -169.6179
17133.690320 67.915 -174.3540
17257.848103 67.255 -178.6619
17382.905584 66.620 177.5201
17508.869284 66.044 174.2201
17635.745768 65.568 171.4059
17763.541652 65.233 168.9516
17892.263597 65.069 166.6176
18021.918315 65.085 164.0641
18152.512564 65.258 160.9080
18284.053153 65.546 156.8016
18416.546939 65.897 151.4943
18550.000830 66.265 144.8524
18684.421783 66.611 136.8532
18819.816805 66.908 127.5776
18956.192956 67.141 117.2240
19093.557344 67.300 106.1458
19231.917131 67.387 94.8780
19371.279531 67.410 84.1094
19511.651807 67.386 74.5737
19653.041280 67.336 66.9122
19795.455318 67.285 61.5847
19938.901348 67.254 58.8616
