* Measurement data measured by REW V5.31.3
* Source: EXCL: Headset (USB-C to 3.5mm Headphone Jack Adapter), MICROPHONE (Master Volume), 0, volume: 0.750
* Format: 256k Log Swept Sine, 1 sweep at -12.0 dBFS with no timing reference
* Dated: Apr 7, 2025 12:20:59 PM
* REW Settings:
*  C-weighting compensation: Off
*  Target level: 75.0 dB
* Note: ; 
* Measurement: HD6XX R7
* Smoothing: 1/6 octave
* Frequency Step: 96 ppo
* Start Frequency: 20.0 Hz
*
* Freq(Hz) SPL(dB) Phase(degrees)
20.187378 78.687 -97.8104
20.333664 78.732 -97.8264
20.481010 78.794 -97.8492
20.629424 78.871 -97.8804
20.778913 78.962 -97.9235
20.929486 79.065 -97.9839
21.081150 79.179 -98.0684
21.233912 79.301 -98.1847
21.387782 79.427 -98.3397
21.542767 79.555 -98.5389
21.698874 79.681 -98.7850
21.856113 79.803 -99.0773
22.014492 79.917 -99.4115
22.174018 80.021 -99.7797
22.334700 80.114 -100.1709
22.496546 80.196 -100.5722
22.659566 80.265 -100.9701
22.823766 80.325 -101.3516
22.989157 80.376 -101.7059
23.155745 80.421 -102.0260
23.323542 80.462 -102.3092
23.492554 80.503 -102.5581
23.662790 80.547 -102.7804
23.834261 80.594 -102.9879
24.006973 80.646 -103.1947
24.180938 80.703 -103.4156
24.356163 80.765 -103.6634
24.532658 80.829 -103.9475
24.710431 80.893 -104.2723
24.889493 80.956 -104.6369
25.069853 81.015 -105.0358
25.251519 81.068 -105.4595
25.434502 81.115 -105.8966
25.618811 81.155 -106.3351
25.804456 81.189 -106.7645
25.991445 81.218 -107.1772
26.179790 81.243 -107.5691
26.369500 81.267 -107.9406
26.560584 81.290 -108.2955
26.753053 81.315 -108.6411
26.946917 81.341 -108.9860
27.142185 81.372 -109.3397
27.338869 81.405 -109.7102
27.536977 81.442 -110.1038
27.736522 81.481 -110.5237
27.937512 81.523 -110.9703
28.139959 81.566 -111.4410
28.343872 81.611 -111.9308
28.549264 81.656 -112.4328
28.756143 81.701 -112.9388
28.964522 81.746 -113.4402
29.174411 81.791 -113.9281
29.385821 81.834 -114.3944
29.598763 81.877 -114.8320
29.813248 81.919 -115.2354
30.029287 81.960 -115.6014
30.246891 82.002 -115.9294
30.466073 82.045 -116.2218
30.686842 82.090 -116.4838
30.909212 82.137 -116.7230
31.133193 82.187 -116.9485
31.358797 82.241 -117.1700
31.586035 82.298 -117.3964
31.814921 82.360 -117.6346
32.045465 82.425 -117.8890
32.277680 82.494 -118.1610
32.511577 82.567 -118.4498
32.747169 82.644 -118.7523
32.984469 82.725 -119.0648
33.223488 82.809 -119.3837
33.464239 82.898 -119.7063
33.706735 82.990 -120.0309
33.950987 83.086 -120.3574
34.197010 83.184 -120.6865
34.444816 83.285 -121.0193
34.694417 83.386 -121.3568
34.945827 83.487 -121.6995
35.199059 83.588 -122.0473
35.454126 83.687 -122.3995
35.711041 83.786 -122.7555
35.969818 83.884 -123.1147
36.230470 83.980 -123.4769
36.493011 84.076 -123.8426
36.757455 84.171 -124.2127
37.023814 84.264 -124.5883
37.292104 84.356 -124.9698
37.562338 84.444 -125.3573
37.834530 84.530 -125.7498
38.108695 84.611 -126.1455
38.384846 84.687 -126.5419
38.662999 84.759 -126.9366
38.943167 84.827 -127.3275
39.225365 84.891 -127.7133
39.509608 84.953 -128.0934
39.795911 85.013 -128.4679
40.084289 85.072 -128.8366
40.374756 85.131 -129.1988
40.667328 85.189 -129.5528
40.962020 85.246 -129.8952
41.258848 85.301 -130.2218
41.557827 85.355 -130.5284
41.858972 85.406 -130.8115
42.162299 85.454 -131.0700
42.467824 85.498 -131.3052
42.775564 85.538 -131.5215
43.085533 85.575 -131.7257
43.397749 85.608 -131.9260
43.712227 85.637 -132.1309
44.028983 85.665 -132.3481
44.348036 85.690 -132.5841
44.669400 85.715 -132.8434
44.993093 85.741 -133.1282
45.319131 85.767 -133.4384
45.647532 85.795 -133.7713
45.978313 85.823 -134.1211
46.311491 85.852 -134.4802
46.647083 85.880 -134.8396
46.985107 85.907 -135.1910
47.325581 85.933 -135.5284
47.668521 85.957 -135.8496
48.013947 85.980 -136.1568
48.361876 86.002 -136.4555
48.712326 86.024 -136.7531
49.065315 86.046 -137.0573
49.420863 86.067 -137.3734
49.778987 86.089 -137.7041
50.139706 86.111 -138.0485
50.503039 86.133 -138.4029
50.869005 86.156 -138.7607
51.237623 86.180 -139.1146
51.608912 86.204 -139.4569
51.982891 86.229 -139.7819
52.359580 86.254 -140.0859
52.739000 86.281 -140.3689
53.121168 86.309 -140.6335
53.506106 86.339 -140.8848
53.893833 86.371 -141.1286
54.284370 86.404 -141.3703
54.677737 86.440 -141.6141
55.073955 86.478 -141.8624
55.473043 86.519 -142.1162
55.875024 86.566 -142.3757
56.279917 86.617 -142.6398
56.687745 86.676 -142.9072
57.098527 86.740 -143.1759
57.512287 86.810 -143.4439
57.929045 86.883 -143.7110
58.348822 86.956 -143.9789
58.771642 87.026 -144.2517
59.197525 87.089 -144.5342
59.626495 87.141 -144.8302
60.058573 87.181 -145.1404
60.493782 87.209 -145.4631
60.932145 87.226 -145.7947
61.373685 87.236 -146.1314
61.818424 87.243 -146.4705
62.266386 87.250 -146.8103
62.717593 87.261 -147.1499
63.172071 87.277 -147.4889
63.629842 87.298 -147.8272
64.090930 87.326 -148.1655
64.555359 87.358 -148.5046
65.023154 87.395 -148.8452
65.494339 87.435 -149.1874
65.968938 87.478 -149.5305
66.446976 87.524 -149.8735
66.928478 87.571 -150.2150
67.413469 87.618 -150.5544
67.901975 87.665 -150.8917
68.394021 87.711 -151.2276
68.889632 87.756 -151.5630
69.388835 87.799 -151.8990
69.891655 87.840 -152.2363
70.398118 87.879 -152.5754
70.908252 87.916 -152.9165
71.422083 87.951 -153.2594
71.939636 87.983 -153.6034
72.460941 88.012 -153.9475
72.986023 88.039 -154.2905
73.514909 88.062 -154.6312
74.047629 88.082 -154.9692
74.584208 88.100 -155.3042
75.124676 88.115 -155.6366
75.669061 88.127 -155.9666
76.217390 88.137 -156.2947
76.769692 88.144 -156.6216
77.325997 88.150 -156.9478
77.886333 88.154 -157.2739
78.450730 88.156 -157.6003
79.019216 88.158 -157.9271
79.591822 88.159 -158.2546
80.168577 88.160 -158.5828
80.749512 88.161 -158.9118
81.334656 88.161 -159.2417
81.924040 88.160 -159.5727
82.517696 88.160 -159.9044
83.115653 88.159 -160.2365
83.717943 88.157 -160.5680
84.324598 88.155 -160.8980
84.935649 88.153 -161.2256
85.551128 88.150 -161.5500
86.171066 88.147 -161.8709
86.795497 88.143 -162.1886
87.424453 88.139 -162.5035
88.057967 88.135 -162.8159
88.696071 88.131 -163.1264
89.338800 88.126 -163.4347
89.986185 88.122 -163.7408
90.638262 88.118 -164.0441
91.295065 88.113 -164.3441
91.956626 88.109 -164.6404
92.622982 88.104 -164.9330
93.294166 88.100 -165.2218
93.970214 88.096 -165.5072
94.651161 88.092 -165.7896
95.337042 88.088 -166.0693
96.027894 88.085 -166.3469
96.723752 88.082 -166.6228
97.424652 88.079 -166.8974
98.130631 88.077 -167.1711
98.841726 88.075 -167.4444
99.557974 88.073 -167.7176
100.279412 88.071 -167.9911
101.006078 88.070 -168.2651
101.738010 88.069 -168.5397
102.475245 88.069 -168.8149
103.217823 88.070 -169.0904
103.965782 88.071 -169.3658
104.719161 88.073 -169.6401
105.477999 88.075 -169.9128
106.242336 88.078 -170.1833
107.012212 88.081 -170.4514
107.787666 88.085 -170.7173
108.568740 88.089 -170.9811
109.355474 88.094 -171.2431
110.147909 88.100 -171.5037
110.946086 88.106 -171.7635
111.750047 88.112 -172.0233
112.559834 88.119 -172.2841
113.375489 88.126 -172.5467
114.197055 88.134 -172.8115
115.024574 88.142 -173.0783
115.858089 88.150 -173.3467
116.697645 88.158 -173.6160
117.543284 88.167 -173.8856
118.395051 88.176 -174.1552
119.252990 88.184 -174.4248
120.117147 88.193 -174.6942
120.987565 88.202 -174.9631
121.864291 88.210 -175.2315
122.747370 88.218 -175.4990
123.636848 88.225 -175.7653
124.532771 88.232 -176.0300
125.435187 88.237 -176.2930
126.344142 88.242 -176.5539
127.259684 88.245 -176.8130
128.181860 88.246 -177.0706
129.110718 88.247 -177.3270
130.046308 88.246 -177.5826
130.988677 88.244 -177.8372
131.937875 88.240 -178.0907
132.893951 88.235 -178.3422
133.856956 88.229 -178.5915
134.826938 88.221 -178.8378
135.803950 88.212 -179.0809
136.788041 88.201 -179.3206
137.779264 88.189 -179.5570
138.777669 88.177 -179.7907
139.783309 88.163 179.9775
140.796237 88.148 179.7467
141.816504 88.131 179.5160
142.844165 88.114 179.2846
143.879273 88.096 179.0528
144.921881 88.077 178.8209
145.972045 88.056 178.5902
147.029819 88.035 178.3616
148.095257 88.013 178.1360
149.168417 87.991 177.9136
150.249353 87.968 177.6944
151.338121 87.944 177.4777
152.434780 87.921 177.2630
153.539385 87.897 177.0494
154.651995 87.873 176.8362
155.772667 87.849 176.6227
156.901460 87.825 176.4081
158.038432 87.801 176.1923
159.183644 87.778 175.9750
160.337154 87.754 175.7569
161.499023 87.731 175.5391
162.669312 87.708 175.3228
163.848081 87.685 175.1092
165.035392 87.663 174.8991
166.231306 87.642 174.6930
167.435887 87.621 174.4908
168.649196 87.601 174.2922
169.871298 87.582 174.0966
171.102255 87.564 173.9033
172.342133 87.546 173.7119
173.590995 87.528 173.5220
174.848907 87.510 173.3335
176.115934 87.491 173.1464
177.392143 87.472 172.9609
178.677599 87.451 172.7775
179.972371 87.429 172.5963
181.276525 87.404 172.4177
182.590129 87.377 172.2417
183.913252 87.348 172.0684
185.245964 87.318 171.8977
186.588332 87.287 171.7293
187.940428 87.254 171.5632
189.302322 87.221 171.3993
190.674085 87.187 171.2374
192.055788 87.153 171.0778
193.447503 87.119 170.9202
194.849303 87.085 170.7646
196.261262 87.050 170.6108
197.683452 87.015 170.4587
199.115948 86.980 170.3080
200.558824 86.945 170.1587
202.012156 86.911 170.0109
203.476019 86.876 169.8649
204.950490 86.843 169.7209
206.435646 86.810 169.5795
207.931564 86.777 169.4413
209.438322 86.745 169.3073
210.955998 86.714 169.1784
212.484672 86.683 169.0552
214.024424 86.652 168.9382
215.575333 86.623 168.8275
217.137481 86.594 168.7227
218.710948 86.565 168.6237
220.295818 86.538 168.5303
221.892172 86.513 168.4420
223.500094 86.489 168.3583
225.119668 86.466 168.2785
226.750978 86.445 168.2018
228.394109 86.426 168.1268
230.049147 86.408 168.0522
231.716178 86.393 167.9767
233.395289 86.379 167.8992
235.086567 86.366 167.8191
236.790102 86.355 167.7364
238.505980 86.345 167.6513
240.234293 86.336 167.5642
241.975130 86.327 167.4758
243.728581 86.319 167.3868
245.494739 86.310 167.2975
247.273695 86.302 167.2077
249.065542 86.293 167.1169
250.870374 86.284 167.0242
252.688284 86.275 166.9289
254.519367 86.267 166.8305
256.363720 86.259 166.7294
258.221437 86.251 166.6266
260.092616 86.245 166.5234
261.977354 86.239 166.4218
263.875750 86.234 166.3237
265.787903 86.229 166.2309
267.713911 86.224 166.1446
269.653877 86.218 166.0651
271.607900 86.212 165.9919
273.576083 86.205 165.9239
275.558528 86.198 165.8595
277.555338 86.190 165.7971
279.566619 86.181 165.7357
281.592474 86.172 165.6744
283.633009 86.164 165.6130
285.688331 86.155 165.5518
287.758546 86.146 165.4913
289.843763 86.137 165.4320
291.944090 86.129 165.3737
294.059638 86.120 165.3160
296.190515 86.113 165.2587
298.336833 86.106 165.2012
300.498705 86.099 165.1435
302.676243 86.094 165.0859
304.869559 86.089 165.0289
307.078770 86.084 164.9733
309.303989 86.080 164.9201
311.545334 86.076 164.8705
313.802919 86.071 164.8253
316.076865 86.067 164.7851
318.367288 86.063 164.7501
320.674309 86.059 164.7203
322.998047 86.055 164.6951
325.338624 86.051 164.6738
327.696162 86.047 164.6558
330.070783 86.042 164.6402
332.462612 86.037 164.6266
334.871773 86.031 164.6146
337.298392 86.024 164.6039
339.742595 86.016 164.5948
342.204510 86.006 164.5871
344.684265 85.995 164.5810
347.181989 85.983 164.5762
349.697813 85.970 164.5723
352.231868 85.955 164.5687
354.784285 85.939 164.5648
357.355198 85.923 164.5603
359.944741 85.906 164.5548
362.553049 85.889 164.5484
365.180258 85.872 164.5410
367.826505 85.855 164.5329
370.491927 85.837 164.5242
373.176665 85.819 164.5156
375.880856 85.801 164.5076
378.604644 85.783 164.5004
381.348169 85.764 164.4942
384.111575 85.744 164.4886
386.895006 85.723 164.4833
389.698607 85.702 164.4786
392.522524 85.681 164.4749
395.366904 85.658 164.4728
398.231895 85.635 164.4730
401.117648 85.612 164.4760
404.024312 85.588 164.4824
406.952038 85.564 164.4923
409.900981 85.539 164.5056
412.871292 85.513 164.5221
415.863128 85.487 164.5410
418.876643 85.460 164.5614
421.911996 85.432 164.5824
424.969344 85.402 164.6035
428.048847 85.372 164.6243
431.150666 85.340 164.6453
434.274961 85.306 164.6674
437.421897 85.271 164.6917
440.591636 85.235 164.7192
443.784345 85.197 164.7512
447.000189 85.158 164.7881
450.239337 85.118 164.8304
453.501956 85.077 164.8777
456.788219 85.035 164.9295
460.098294 84.993 164.9847
463.432356 84.951 165.0421
466.790578 84.910 165.1005
470.173135 84.869 165.1589
473.580203 84.830 165.2166
477.011961 84.791 165.2732
480.468586 84.754 165.3287
483.950259 84.717 165.3835
487.457163 84.682 165.4379
490.989478 84.648 165.4922
494.547390 84.615 165.5466
498.131084 84.584 165.6011
501.740748 84.553 165.6558
505.376568 84.525 165.7106
509.038735 84.497 165.7654
512.727439 84.471 165.8205
516.442874 84.447 165.8756
520.185232 84.424 165.9307
523.954708 84.403 165.9855
527.751500 84.384 166.0398
531.575805 84.368 166.0932
535.427822 84.353 166.1455
539.307753 84.341 166.1963
543.215800 84.331 166.2458
547.152165 84.323 166.2942
551.117055 84.317 166.3423
555.110677 84.313 166.3911
559.133237 84.311 166.4413
563.184947 84.309 166.4940
567.266018 84.310 166.5500
571.376661 84.311 166.6104
575.517092 84.313 166.6757
579.687526 84.316 166.7462
583.888181 84.320 166.8220
588.119275 84.325 166.9027
592.381030 84.331 166.9878
596.673667 84.337 167.0764
600.997410 84.343 167.1674
605.352485 84.348 167.2598
609.739119 84.354 167.3525
614.157540 84.358 167.4445
618.607979 84.361 167.5352
623.090667 84.362 167.6247
627.605839 84.363 167.7134
632.153730 84.361 167.8019
636.734576 84.359 167.8910
641.348617 84.355 167.9813
645.996094 84.350 168.0729
650.677248 84.344 168.1656
655.392323 84.338 168.2586
660.141566 84.332 168.3509
664.925224 84.325 168.4411
669.743546 84.318 168.5281
674.596784 84.310 168.6108
679.485191 84.301 168.6886
684.409020 84.292 168.7611
689.368530 84.281 168.8281
694.363979 84.269 168.8898
699.395626 84.256 168.9470
704.463736 84.242 169.0002
709.568570 84.226 169.0505
714.710396 84.208 169.0993
719.889483 84.187 169.1478
725.106099 84.165 169.1975
730.360516 84.140 169.2499
735.653010 84.113 169.3063
740.983855 84.083 169.3678
746.353329 84.052 169.4353
751.761713 84.019 169.5094
757.209288 83.984 169.5904
762.696339 83.947 169.6782
768.223151 83.910 169.7730
773.790013 83.873 169.8749
779.397214 83.836 169.9835
785.045047 83.799 170.0984
790.733808 83.762 170.2184
796.463791 83.727 170.3414
802.235296 83.693 170.4646
808.048623 83.660 170.5845
813.904077 83.630 170.6974
819.801961 83.600 170.7996
825.742584 83.572 170.8881
831.726255 83.546 170.9609
837.753287 83.519 171.0173
843.823992 83.492 171.0575
849.938689 83.464 171.0834
856.097695 83.435 171.0980
862.301332 83.404 171.1054
868.549922 83.369 171.1108
874.843793 83.332 171.1204
881.183272 83.290 171.1412
887.568689 83.245 171.1814
894.000378 83.197 171.2492
900.478673 83.146 171.3529
907.003913 83.095 171.4996
913.576437 83.043 171.6946
920.196588 82.994 171.9396
926.864712 82.949 172.2331
933.581156 82.910 172.5693
940.346270 82.879 172.9390
947.160407 82.857 173.3313
954.023921 82.845 173.7341
960.937172 82.842 174.1363
967.900519 82.848 174.5284
974.914325 82.862 174.9030
981.978956 82.884 175.2552
989.094780 82.912 175.5825
996.262169 82.946 175.8838
1003.481495 82.984 176.1596
1010.753136 83.026 176.4113
1018.077470 83.072 176.6404
1025.454879 83.120 176.8493
1032.885748 83.170 177.0397
1040.370463 83.222 177.2136
1047.909417 83.275 177.3725
1055.503000 83.330 177.5182
1063.151610 83.385 177.6521
1070.855645 83.440 177.7760
1078.615506 83.496 177.8914
1086.431599 83.552 177.9995
1094.304330 83.609 178.1014
1102.234110 83.665 178.1982
1110.221353 83.720 178.2908
1118.266475 83.776 178.3798
1126.369895 83.831 178.4660
1134.532035 83.886 178.5497
1142.753322 83.941 178.6311
1151.034184 83.996 178.7101
1159.375052 84.050 178.7863
1167.776361 84.105 178.8591
1176.238550 84.160 178.9274
1184.762060 84.215 178.9903
1193.347334 84.270 179.0468
1201.994821 84.326 179.0964
1210.704971 84.381 179.1385
1219.478238 84.436 179.1731
1228.315080 84.491 179.2000
1237.215957 84.546 179.2196
1246.181334 84.599 179.2328
1255.211678 84.653 179.2405
1264.307459 84.705 179.2438
1273.469152 84.757 179.2439
1282.697235 84.807 179.2419
1291.992188 84.858 179.2386
1301.354495 84.907 179.2351
1310.784647 84.956 179.2324
1320.283132 85.004 179.2307
1329.850448 85.052 179.2300
1339.487093 85.100 179.2299
1349.193569 85.147 179.2294
1358.970381 85.194 179.2281
1368.818041 85.241 179.2256
1378.737061 85.288 179.2220
1388.727958 85.336 179.2176
1398.791253 85.383 179.2130
1408.927471 85.431 179.2090
1419.137140 85.479 179.2063
1429.420793 85.527 179.2057
1439.778965 85.576 179.2076
1450.212197 85.626 179.2125
1460.721033 85.676 179.2210
1471.306019 85.727 179.2339
1481.967709 85.778 179.2517
1492.706658 85.829 179.2753
1503.523426 85.881 179.3050
1514.418576 85.932 179.3412
1525.392678 85.983 179.3839
1536.446302 86.033 179.4331
1547.580025 86.082 179.4891
1558.794428 86.129 179.5526
1570.090095 86.173 179.6237
1581.467615 86.216 179.7028
1592.927581 86.256 179.7895
1604.470591 86.294 179.8832
1616.097246 86.328 179.9829
1627.808153 86.359 -179.9127
1639.603922 86.387 -179.8042
1651.485168 86.412 -179.6916
1663.452510 86.432 -179.5742
1675.506573 86.450 -179.4503
1687.647984 86.463 -179.3176
1699.877377 86.473 -179.1737
1712.195390 86.481 -179.0163
1724.602663 86.486 -178.8436
1737.099845 86.490 -178.6546
1749.687587 86.492 -178.4486
1762.366544 86.493 -178.2258
1775.137379 86.495 -177.9864
1788.000756 86.497 -177.7317
1800.957346 86.499 -177.4634
1814.007826 86.503 -177.1846
1827.152874 86.508 -176.8987
1840.393177 86.515 -176.6100
1853.729425 86.522 -176.3225
1867.162312 86.531 -176.0395
1880.692540 86.539 -175.7630
1894.320813 86.547 -175.4938
1908.047843 86.554 -175.2312
1921.874344 86.560 -174.9741
1935.801038 86.564 -174.7212
1949.828650 86.568 -174.4719
1963.957912 86.570 -174.2263
1978.189561 86.571 -173.9855
1992.524338 86.572 -173.7508
2006.962991 86.571 -173.5239
2021.506272 86.571 -173.3064
2036.154940 86.569 -173.1001
2050.909758 86.568 -172.9066
2065.771495 86.566 -172.7278
2080.740927 86.564 -172.5653
2095.818833 86.562 -172.4207
2111.006001 86.559 -172.2949
2126.303220 86.556 -172.1880
2141.711290 86.553 -172.0993
2157.231013 86.548 -172.0275
2172.863198 86.542 -171.9705
2188.608660 86.536 -171.9258
2204.468221 86.528 -171.8906
2220.442706 86.519 -171.8619
2236.532950 86.510 -171.8366
2252.739789 86.499 -171.8117
2269.064070 86.489 -171.7850
2285.506644 86.479 -171.7547
2302.068367 86.470 -171.7199
2318.750104 86.462 -171.6810
2335.552723 86.455 -171.6390
2352.477101 86.452 -171.5955
2369.524119 86.450 -171.5523
2386.694668 86.452 -171.5113
2403.989641 86.456 -171.4743
2421.409941 86.464 -171.4430
2438.956476 86.475 -171.4188
2456.630160 86.489 -171.4030
2474.431915 86.506 -171.3965
2492.362668 86.526 -171.3994
2510.423356 86.549 -171.4114
2528.614918 86.575 -171.4314
2546.938304 86.603 -171.4575
2565.394469 86.633 -171.4875
2583.984375 86.665 -171.5186
2602.708991 86.701 -171.5476
2621.569293 86.739 -171.5719
2640.566265 86.780 -171.5891
2659.700897 86.824 -171.5981
2678.974186 86.873 -171.5989
2698.387137 86.926 -171.5929
2717.940763 86.984 -171.5823
2737.636082 87.047 -171.5700
2757.474121 87.114 -171.5598
2777.455915 87.187 -171.5554
2797.582506 87.263 -171.5608
2817.854942 87.344 -171.5791
2838.274281 87.427 -171.6130
2858.841586 87.512 -171.6644
2879.557931 87.599 -171.7345
2900.424394 87.686 -171.8235
2921.442065 87.773 -171.9311
2942.612039 87.858 -172.0562
2963.935418 87.942 -172.1971
2985.413316 88.023 -172.3524
3007.046852 88.101 -172.5206
3028.837153 88.175 -172.7005
3050.785356 88.245 -172.8910
3072.892604 88.310 -173.0912
3095.160050 88.370 -173.3002
3117.588856 88.423 -173.5171
3140.180190 88.471 -173.7410
3162.935230 88.511 -173.9712
3185.855163 88.545 -174.2070
3208.941182 88.571 -174.4478
3232.194493 88.590 -174.6929
3255.616307 88.601 -174.9417
3279.207844 88.604 -175.1937
3302.970336 88.599 -175.4487
3326.905021 88.587 -175.7062
3351.013146 88.567 -175.9659
3375.295969 88.539 -176.2268
3399.754755 88.503 -176.4873
3424.390779 88.460 -176.7453
3449.205326 88.410 -176.9984
3474.199690 88.353 -177.2442
3499.375173 88.291 -177.4805
3524.733088 88.223 -177.7056
3550.274757 88.151 -177.9180
3576.001511 88.075 -178.1163
3601.914692 87.996 -178.2990
3628.015651 87.915 -178.4644
3654.305748 87.833 -178.6114
3680.786354 87.751 -178.7386
3707.458849 87.669 -178.8452
3734.324624 87.588 -178.9307
3761.385080 87.510 -178.9949
3788.641627 87.435 -179.0375
3816.095686 87.363 -179.0582
3843.748688 87.295 -179.0564
3871.602076 87.231 -179.0309
3899.657300 87.173 -178.9802
3927.915825 87.119 -178.9026
3956.379122 87.070 -178.7961
3985.048676 87.028 -178.6586
4013.925981 86.991 -178.4884
4043.012544 86.960 -178.2838
4072.309879 86.936 -178.0439
4101.819515 86.919 -177.7682
4131.542990 86.909 -177.4573
4161.481854 86.907 -177.1129
4191.637667 86.913 -176.7384
4222.012001 86.928 -176.3386
4252.606441 86.951 -175.9202
4283.422580 86.982 -175.4911
4314.462026 87.021 -175.0607
4345.726396 87.069 -174.6392
4377.217321 87.124 -174.2371
4408.936442 87.185 -173.8651
4440.885413 87.252 -173.5336
4473.065899 87.324 -173.2520
4505.479579 87.399 -173.0288
4538.128141 87.475 -172.8709
4571.013288 87.553 -172.7833
4604.136735 87.629 -172.7694
4637.500207 87.704 -172.8307
4671.105446 87.776 -172.9671
4704.954201 87.844 -173.1771
4739.048239 87.907 -173.4578
4773.389336 87.964 -173.8058
4807.979283 88.015 -174.2165
4842.819883 88.060 -174.6854
4877.912952 88.098 -175.2076
4913.260320 88.129 -175.7784
4948.863830 88.153 -176.3932
4984.725337 88.169 -177.0475
5020.846712 88.179 -177.7365
5057.229836 88.180 -178.4556
5093.876609 88.174 -179.1993
5130.788938 88.159 -179.9618
5167.968750 88.136 179.2642
5205.417982 88.103 178.4871
5243.138586 88.061 177.7167
5281.132530 88.009 176.9639
5319.401793 87.948 176.2406
5357.948371 87.878 175.5586
5396.774274 87.799 174.9294
5435.881525 87.714 174.3632
5475.272163 87.624 173.8676
5514.948243 87.531 173.4476
5554.911831 87.436 173.1053
5595.165012 87.342 172.8394
5635.709884 87.250 172.6459
5676.548561 87.160 172.5184
5717.683172 87.075 172.4483
5759.115861 86.995 172.4262
5800.848789 86.918 172.4420
5842.884130 86.846 172.4858
5885.224077 86.776 172.5489
5927.870837 86.707 172.6241
5970.826633 86.638 172.7070
6014.093704 86.566 172.7964
6057.674306 86.489 172.8955
6101.570711 86.405 173.0115
6145.785208 86.312 173.1563
6190.320101 86.209 173.3458
6235.177712 86.096 173.5993
6280.360380 85.971 173.9387
6325.870460 85.836 174.3878
6371.710325 85.693 174.9718
6417.882365 85.543 175.7156
6464.388986 85.391 176.6426
6511.232613 85.242 177.7733
6558.415689 85.100 179.1229
6605.940673 84.973 -179.3011
6653.810042 84.868 -177.5011
6702.026292 84.794 -175.4928
6750.591937 84.758 -173.3073
6799.509509 84.769 -170.9932
6848.781558 84.831 -168.6161
6898.410653 84.949 -166.2564
6948.399380 85.124 -164.0038
6998.750346 85.354 -161.9496
7049.466176 85.633 -160.1785
7100.549514 85.953 -158.7613
7152.003023 86.305 -157.7506
7203.829385 86.678 -157.1795
7256.031302 87.061 -157.0633
7308.611496 87.444 -157.4023
7361.572708 87.816 -158.1850
7414.917698 88.169 -159.3909
7468.649249 88.494 -160.9930
7522.770160 88.785 -162.9595
7577.283253 89.034 -165.2544
7632.191371 89.236 -167.8389
7687.497376 89.387 -170.6708
7743.204151 89.481 -173.7059
7799.314600 89.516 -176.8974
7855.831649 89.488 179.8035
7912.758244 89.396 176.4477
7970.097352 89.238 173.0880
8027.851962 89.013 169.7797
8086.025087 88.721 166.5808
8144.619758 88.362 163.5533
8203.639030 87.939 160.7648
8263.085980 87.451 158.2905
8322.963708 86.903 156.2166
8383.275334 86.297 154.6439
8444.024002 85.640 153.6927
8505.212881 84.939 153.5079
8566.845160 84.206 154.2618
8628.924051 83.454 156.1497
8691.452792 82.705 159.3672
8754.434642 81.986 164.0529
8817.872884 81.330 170.1811
8881.770826 80.774 177.4407
8946.131799 80.351 -174.7934
9010.959157 80.087 -167.2916
9076.256282 79.986 -160.6855
9142.026576 80.039 -155.2983
9208.273470 80.217 -151.1737
9275.000415 80.490 -148.1964
9342.210891 80.826 -146.1982
9409.908403 81.198 -145.0155
9478.096478 81.585 -144.5108
9546.778672 81.972 -144.5756
9615.958566 82.345 -145.1266
9685.639765 82.697 -146.0988
9755.825904 83.020 -147.4404
9826.520640 83.308 -149.1073
9897.727659 83.557 -151.0598
9969.450674 83.763 -153.2595
10041.693423 83.921 -155.6676
10114.459673 84.029 -158.2442
10187.753217 84.085 -160.9486
10261.577877 84.087 -163.7390
10335.937500 84.036 -166.5739
10410.835964 83.931 -169.4129
10486.277173 83.774 -172.2179
10562.265060 83.567 -174.9530
10638.803587 83.313 -177.5861
10715.896743 83.013 179.9120
10793.548548 82.672 177.5670
10871.763050 82.292 175.4013
10950.544327 81.878 173.4343
11029.896485 81.432 171.6822
11109.823662 80.961 170.1571
11190.330024 80.467 168.8665
11271.419768 79.957 167.8113
11353.097122 79.435 166.9850
11435.366344 78.907 166.3719
11518.231722 78.378 165.9469
11601.697577 77.854 165.6774
11685.768261 77.339 165.5257
11770.448155 76.835 165.4534
11855.741674 76.344 165.4270
11941.653265 75.864 165.4226
12028.187408 75.395 165.4294
12115.348612 74.933 165.4514
12203.141422 74.476 165.5058
12291.570415 74.022 165.6205
12380.640201 73.572 165.8279
12470.355424 73.129 166.1591
12560.720760 72.698 166.6371
12651.740920 72.288 167.2704
12743.420650 71.913 168.0473
12835.764729 71.586 168.9299
12928.777972 71.324 169.8500
13022.465227 71.140 170.7089
13116.831378 71.046 171.3821
13211.881345 71.044 171.7318
13307.620084 71.129 171.6233
13404.052584 71.287 170.9432
13501.183875 71.497 169.6114
13599.019019 71.735 167.5868
13697.563116 71.977 164.8661
13796.821305 72.205 161.4778
13896.798760 72.400 157.4741
13997.500692 72.553 152.9225
14098.932352 72.657 147.8981
14201.099028 72.712 142.4757
14304.006046 72.723 136.7234
14407.658770 72.699 130.6978
14512.062604 72.654 124.4410
14617.222992 72.603 117.9784
14723.145416 72.565 111.3199
14829.835397 72.557 104.4613
14937.298497 72.593 97.3871
15045.540320 72.685 90.0745
15154.566507 72.834 82.4969
15264.382743 73.037 74.6285
15374.994752 73.283 66.4482
15486.408302 73.556 57.9423
15598.629201 73.837 49.1075
15711.663298 74.106 39.9534
15825.516487 74.343 30.5046
15940.194703 74.530 20.8025
16055.703925 74.651 10.9061
16172.050174 74.692 0.8921
16289.239516 74.646 -9.1490
16407.278061 74.505 -19.1178
16526.171961 74.271 -28.9137
16645.927415 73.944 -38.4420
16766.550667 73.535 -47.6221
16888.048005 73.055 -56.3922
17010.425762 72.524 -64.7134
17133.690320 71.967 -72.5734
17257.848103 71.420 -79.9883
17382.905584 70.926 -87.0056
17508.869284 70.538 -93.7070
17635.745768 70.303 -100.2089
17763.541652 70.257 -106.6614
17892.263597 70.406 -113.2453
18021.918315 70.727 -120.1644
18152.512564 71.175 -127.6375
18284.053153 71.697 -135.8895
18416.546939 72.243 -145.1489
18550.000830 72.776 -155.6517
18684.421783 73.264 -167.6445
18819.816805 73.691 178.6386
18956.192956 74.043 163.0822
19093.557344 74.317 145.9424
19231.917131 74.515 128.1503
19371.279531 74.643 111.2602
19511.651807 74.716 96.8185
19653.041280 74.747 85.7626
19795.455318 74.756 78.4063
19938.901348 74.756 74.7546
