* Measurement data measured by REW V5.31.3
* Source: EXCL: Headset (USB-C to 3.5mm Headphone Jack Adapter), MICROPHONE (Master Volume), 0, volume: 0.750
* Format: 256k Log Swept Sine, 1 sweep at -12.0 dBFS with no timing reference
* Dated: Apr 1, 2025 10:27:39 PM
* REW Settings:
*  C-weighting compensation: Off
*  Target level: 75.0 dB
* Note: ; 
* Measurement: HD6XX (Soulwit) L10
* Smoothing: 1/6 octave
* Frequency Step: 96 ppo
* Start Frequency: 20.0 Hz
*
* Freq(Hz) SPL(dB) Phase(degrees)
20.187378 82.543 -96.2992
20.333664 82.573 -96.3670
20.481010 82.614 -96.4585
20.629424 82.666 -96.5722
20.778913 82.727 -96.7067
20.929486 82.797 -96.8611
21.081150 82.876 -97.0349
21.233912 82.961 -97.2282
21.387782 83.053 -97.4410
21.542767 83.149 -97.6737
21.698874 83.249 -97.9261
21.856113 83.351 -98.1979
22.014492 83.453 -98.4880
22.174018 83.555 -98.7949
22.334700 83.655 -99.1166
22.496546 83.752 -99.4506
22.659566 83.845 -99.7941
22.823766 83.934 -100.1440
22.989157 84.018 -100.4975
23.155745 84.098 -100.8515
23.323542 84.172 -101.2036
23.492554 84.242 -101.5516
23.662790 84.308 -101.8937
23.834261 84.371 -102.2291
24.006973 84.430 -102.5572
24.180938 84.488 -102.8786
24.356163 84.544 -103.1945
24.532658 84.599 -103.5066
24.710431 84.654 -103.8173
24.889493 84.709 -104.1291
25.069853 84.763 -104.4445
25.251519 84.817 -104.7657
25.434502 84.870 -105.0942
25.618811 84.921 -105.4305
25.804456 84.970 -105.7743
25.991445 85.016 -106.1245
26.179790 85.058 -106.4793
26.369500 85.097 -106.8363
26.560584 85.132 -107.1934
26.753053 85.163 -107.5490
26.946917 85.191 -107.9025
27.142185 85.217 -108.2539
27.338869 85.241 -108.6049
27.536977 85.264 -108.9576
27.736522 85.287 -109.3148
27.937512 85.310 -109.6791
28.139959 85.333 -110.0523
28.343872 85.357 -110.4350
28.549264 85.382 -110.8263
28.756143 85.408 -111.2234
28.964522 85.435 -111.6223
29.174411 85.463 -112.0177
29.385821 85.493 -112.4045
29.598763 85.525 -112.7778
29.813248 85.560 -113.1337
30.029287 85.599 -113.4703
30.246891 85.641 -113.7874
30.466073 85.688 -114.0862
30.686842 85.739 -114.3699
30.909212 85.794 -114.6420
31.133193 85.853 -114.9066
31.358797 85.916 -115.1678
31.586035 85.981 -115.4289
31.814921 86.049 -115.6931
32.045465 86.119 -115.9627
32.277680 86.192 -116.2396
32.511577 86.267 -116.5256
32.747169 86.344 -116.8216
32.984469 86.423 -117.1282
33.223488 86.504 -117.4453
33.464239 86.588 -117.7715
33.706735 86.673 -118.1047
33.950987 86.760 -118.4416
34.197010 86.849 -118.7783
34.444816 86.940 -119.1108
34.694417 87.032 -119.4354
34.945827 87.125 -119.7497
35.199059 87.220 -120.0524
35.454126 87.315 -120.3439
35.711041 87.411 -120.6263
35.969818 87.507 -120.9023
36.230470 87.603 -121.1755
36.493011 87.697 -121.4495
36.757455 87.789 -121.7273
37.023814 87.879 -122.0110
37.292104 87.967 -122.3020
37.562338 88.053 -122.6006
37.834530 88.135 -122.9062
38.108695 88.215 -123.2178
38.384846 88.293 -123.5337
38.662999 88.368 -123.8522
38.943167 88.442 -124.1713
39.225365 88.514 -124.4895
39.509608 88.585 -124.8059
39.795911 88.655 -125.1200
40.084289 88.723 -125.4322
40.374756 88.790 -125.7432
40.667328 88.856 -126.0539
40.962020 88.921 -126.3649
41.258848 88.983 -126.6762
41.557827 89.044 -126.9873
41.858972 89.102 -127.2968
42.162299 89.157 -127.6034
42.467824 89.211 -127.9058
42.775564 89.262 -128.2037
43.085533 89.312 -128.4976
43.397749 89.361 -128.7887
43.712227 89.409 -129.0789
44.028983 89.456 -129.3694
44.348036 89.501 -129.6608
44.669400 89.546 -129.9526
44.993093 89.588 -130.2436
45.319131 89.630 -130.5319
45.647532 89.669 -130.8160
45.978313 89.707 -131.0948
46.311491 89.743 -131.3684
46.647083 89.778 -131.6378
46.985107 89.810 -131.9048
47.325581 89.841 -132.1716
47.668521 89.871 -132.4411
48.013947 89.899 -132.7163
48.361876 89.927 -132.9999
48.712326 89.956 -133.2940
49.065315 89.984 -133.5994
49.420863 90.012 -133.9149
49.778987 90.039 -134.2379
50.139706 90.067 -134.5641
50.503039 90.094 -134.8891
50.869005 90.121 -135.2091
51.237623 90.147 -135.5217
51.608912 90.173 -135.8262
51.982891 90.200 -136.1236
52.359580 90.227 -136.4159
52.739000 90.254 -136.7052
53.121168 90.281 -136.9936
53.506106 90.309 -137.2823
53.893833 90.337 -137.5721
54.284370 90.365 -137.8629
54.677737 90.393 -138.1541
55.073955 90.420 -138.4459
55.473043 90.447 -138.7387
55.875024 90.475 -139.0340
56.279917 90.503 -139.3340
56.687745 90.532 -139.6410
57.098527 90.562 -139.9568
57.512287 90.595 -140.2821
57.929045 90.630 -140.6161
58.348822 90.666 -140.9564
58.771642 90.704 -141.2994
59.197525 90.742 -141.6404
59.626495 90.779 -141.9745
60.058573 90.816 -142.2976
60.493782 90.852 -142.6071
60.932145 90.886 -142.9028
61.373685 90.921 -143.1869
61.818424 90.956 -143.4627
62.266386 90.993 -143.7339
62.717593 91.032 -144.0038
63.172071 91.074 -144.2743
63.629842 91.118 -144.5466
64.090930 91.164 -144.8211
64.555359 91.213 -145.0976
65.023154 91.262 -145.3764
65.494339 91.312 -145.6580
65.968938 91.362 -145.9431
66.446976 91.413 -146.2331
66.928478 91.463 -146.5291
67.413469 91.512 -146.8319
67.901975 91.561 -147.1418
68.394021 91.609 -147.4579
68.889632 91.656 -147.7793
69.388835 91.702 -148.1042
69.891655 91.746 -148.4311
70.398118 91.788 -148.7587
70.908252 91.829 -149.0862
71.422083 91.867 -149.4132
71.939636 91.903 -149.7395
72.460941 91.937 -150.0650
72.986023 91.968 -150.3894
73.514909 91.996 -150.7125
74.047629 92.021 -151.0340
74.584208 92.044 -151.3537
75.124676 92.064 -151.6715
75.669061 92.082 -151.9876
76.217390 92.097 -152.3023
76.769692 92.109 -152.6157
77.325997 92.120 -152.9282
77.886333 92.129 -153.2398
78.450730 92.136 -153.5502
79.019216 92.142 -153.8593
79.591822 92.146 -154.1666
80.168577 92.150 -154.4719
80.749512 92.154 -154.7749
81.334656 92.157 -155.0758
81.924040 92.160 -155.3747
82.517696 92.163 -155.6720
83.115653 92.166 -155.9680
83.717943 92.169 -156.2631
84.324598 92.172 -156.5574
84.935649 92.174 -156.8514
85.551128 92.176 -157.1453
86.171066 92.177 -157.4397
86.795497 92.178 -157.7351
87.424453 92.179 -158.0320
88.057967 92.178 -158.3304
88.696071 92.178 -158.6301
89.338800 92.176 -158.9304
89.986185 92.175 -159.2301
90.638262 92.172 -159.5279
91.295065 92.170 -159.8224
91.956626 92.167 -160.1124
92.622982 92.163 -160.3976
93.294166 92.160 -160.6780
93.970214 92.156 -160.9541
94.651161 92.153 -161.2265
95.337042 92.149 -161.4961
96.027894 92.146 -161.7635
96.723752 92.143 -162.0293
97.424652 92.140 -162.2937
98.130631 92.137 -162.5567
98.841726 92.134 -162.8179
99.557974 92.132 -163.0766
100.279412 92.130 -163.3324
101.006078 92.129 -163.5846
101.738010 92.128 -163.8335
102.475245 92.129 -164.0797
103.217823 92.130 -164.3248
103.965782 92.132 -164.5707
104.719161 92.135 -164.8191
105.477999 92.140 -165.0716
106.242336 92.145 -165.3291
107.012212 92.152 -165.5914
107.787666 92.160 -165.8581
108.568740 92.169 -166.1279
109.355474 92.179 -166.3994
110.147909 92.190 -166.6708
110.946086 92.202 -166.9407
111.750047 92.213 -167.2079
112.559834 92.225 -167.4714
113.375489 92.237 -167.7309
114.197055 92.248 -167.9862
115.024574 92.260 -168.2375
115.858089 92.271 -168.4852
116.697645 92.282 -168.7297
117.543284 92.292 -168.9716
118.395051 92.302 -169.2113
119.252990 92.311 -169.4495
120.117147 92.320 -169.6867
120.987565 92.328 -169.9229
121.864291 92.336 -170.1581
122.747370 92.343 -170.3922
123.636848 92.350 -170.6247
124.532771 92.357 -170.8553
125.435187 92.364 -171.0839
126.344142 92.370 -171.3107
127.259684 92.375 -171.5359
128.181860 92.380 -171.7600
129.110718 92.385 -171.9837
130.046308 92.388 -172.2072
130.988677 92.391 -172.4307
131.937875 92.392 -172.6543
132.893951 92.393 -172.8775
133.856956 92.392 -173.1000
134.826938 92.390 -173.3211
135.803950 92.386 -173.5404
136.788041 92.382 -173.7574
137.779264 92.376 -173.9719
138.777669 92.369 -174.1837
139.783309 92.361 -174.3927
140.796237 92.352 -174.5990
141.816504 92.342 -174.8026
142.844165 92.332 -175.0036
143.879273 92.320 -175.2023
144.921881 92.307 -175.3990
145.972045 92.294 -175.5938
147.029819 92.279 -175.7873
148.095257 92.264 -175.9800
149.168417 92.248 -176.1724
150.249353 92.231 -176.3646
151.338121 92.214 -176.5568
152.434780 92.197 -176.7489
153.539385 92.179 -176.9408
154.651995 92.161 -177.1324
155.772667 92.143 -177.3239
156.901460 92.125 -177.5154
158.038432 92.107 -177.7072
159.183644 92.090 -177.8994
160.337154 92.072 -178.0921
161.499023 92.054 -178.2849
162.669312 92.037 -178.4773
163.848081 92.020 -178.6688
165.035392 92.003 -178.8584
166.231306 91.987 -179.0458
167.435887 91.971 -179.2306
168.649196 91.955 -179.4128
169.871298 91.940 -179.5927
171.102255 91.924 -179.7706
172.342133 91.909 -179.9470
173.590995 91.894 179.8776
174.848907 91.878 179.7030
176.115934 91.862 179.5289
177.392143 91.846 179.3552
178.677599 91.830 179.1823
179.972371 91.813 179.0108
181.276525 91.795 178.8412
182.590129 91.777 178.6739
183.913252 91.758 178.5090
185.245964 91.739 178.3469
186.588332 91.718 178.1874
187.940428 91.698 178.0307
189.302322 91.677 177.8768
190.674085 91.655 177.7254
192.055788 91.632 177.5762
193.447503 91.609 177.4286
194.849303 91.585 177.2821
196.261262 91.561 177.1360
197.683452 91.537 176.9901
199.115948 91.512 176.8441
200.558824 91.487 176.6983
202.012156 91.461 176.5533
203.476019 91.436 176.4094
204.950490 91.411 176.2674
206.435646 91.386 176.1280
207.931564 91.361 175.9918
209.438322 91.336 175.8593
210.955998 91.311 175.7309
212.484672 91.287 175.6065
214.024424 91.263 175.4861
215.575333 91.240 175.3696
217.137481 91.217 175.2565
218.710948 91.195 175.1467
220.295818 91.174 175.0397
221.892172 91.154 174.9352
223.500094 91.135 174.8329
225.119668 91.117 174.7324
226.750978 91.101 174.6335
228.394109 91.086 174.5362
230.049147 91.072 174.4405
231.716178 91.060 174.3466
233.395289 91.050 174.2546
235.086567 91.040 174.1647
236.790102 91.032 174.0768
238.505980 91.025 173.9908
240.234293 91.018 173.9067
241.975130 91.013 173.8246
243.728581 91.008 173.7443
245.494739 91.004 173.6653
247.273695 91.000 173.5872
249.065542 90.996 173.5091
250.870374 90.993 173.4302
252.688284 90.990 173.3497
254.519367 90.987 173.2673
256.363720 90.984 173.1835
258.221437 90.982 173.0989
260.092616 90.979 173.0151
261.977354 90.977 172.9332
263.875750 90.974 172.8543
265.787903 90.971 172.7792
267.713911 90.968 172.7082
269.653877 90.965 172.6409
271.607900 90.961 172.5770
273.576083 90.958 172.5156
275.558528 90.954 172.4557
277.555338 90.950 172.3965
279.566619 90.947 172.3377
281.592474 90.943 172.2794
283.633009 90.939 172.2217
285.688331 90.936 172.1653
287.758546 90.932 172.1103
289.843763 90.929 172.0569
291.944090 90.926 172.0049
294.059638 90.923 171.9541
296.190515 90.921 171.9043
298.336833 90.919 171.8555
300.498705 90.918 171.8074
302.676243 90.917 171.7603
304.869559 90.917 171.7141
307.078770 90.917 171.6691
309.303989 90.917 171.6259
311.545334 90.918 171.5848
313.802919 90.919 171.5464
316.076865 90.921 171.5107
318.367288 90.922 171.4776
320.674309 90.924 171.4469
322.998047 90.926 171.4182
325.338624 90.928 171.3911
327.696162 90.930 171.3652
330.070783 90.931 171.3404
332.462612 90.931 171.3167
334.871773 90.931 171.2941
337.298392 90.929 171.2729
339.742595 90.927 171.2534
342.204510 90.923 171.2360
344.684265 90.919 171.2206
347.181989 90.913 171.2076
349.697813 90.905 171.1970
352.231868 90.897 171.1886
354.784285 90.887 171.1825
357.355198 90.877 171.1785
359.944741 90.865 171.1768
362.553049 90.853 171.1771
365.180258 90.841 171.1795
367.826505 90.827 171.1837
370.491927 90.814 171.1892
373.176665 90.800 171.1957
375.880856 90.785 171.2027
378.604644 90.771 171.2101
381.348169 90.756 171.2180
384.111575 90.742 171.2266
386.895006 90.728 171.2363
389.698607 90.713 171.2472
392.522524 90.699 171.2595
395.366904 90.684 171.2732
398.231895 90.669 171.2881
401.117648 90.654 171.3042
404.024312 90.639 171.3211
406.952038 90.622 171.3388
409.900981 90.606 171.3571
412.871292 90.588 171.3758
415.863128 90.569 171.3946
418.876643 90.549 171.4135
421.911996 90.528 171.4325
424.969344 90.506 171.4517
428.048847 90.482 171.4713
431.150666 90.456 171.4915
434.274961 90.430 171.5123
437.421897 90.401 171.5340
440.591636 90.372 171.5563
443.784345 90.341 171.5792
447.000189 90.308 171.6027
450.239337 90.275 171.6267
453.501956 90.241 171.6514
456.788219 90.206 171.6770
460.098294 90.171 171.7037
463.432356 90.136 171.7318
466.790578 90.101 171.7614
470.173135 90.067 171.7922
473.580203 90.033 171.8245
477.011961 90.000 171.8582
480.468586 89.967 171.8935
483.950259 89.936 171.9307
487.457163 89.906 171.9700
490.989478 89.876 172.0115
494.547390 89.848 172.0557
498.131084 89.821 172.1028
501.740748 89.795 172.1532
505.376568 89.770 172.2073
509.038735 89.748 172.2652
512.727439 89.727 172.3268
516.442874 89.708 172.3918
520.185232 89.691 172.4596
523.954708 89.676 172.5292
527.751500 89.664 172.6001
531.575805 89.655 172.6718
535.427822 89.648 172.7439
539.307753 89.643 172.8164
543.215800 89.640 172.8893
547.152165 89.640 172.9627
551.117055 89.643 173.0366
555.110677 89.647 173.1107
559.133237 89.654 173.1849
563.184947 89.663 173.2586
567.266018 89.674 173.3315
571.376661 89.687 173.4028
575.517092 89.702 173.4724
579.687526 89.717 173.5399
583.888181 89.734 173.6055
588.119275 89.751 173.6696
592.381030 89.768 173.7325
596.673667 89.785 173.7948
600.997410 89.801 173.8569
605.352485 89.817 173.9190
609.739119 89.832 173.9812
614.157540 89.847 174.0435
618.607979 89.860 174.1060
623.090667 89.873 174.1686
627.605839 89.884 174.2314
632.153730 89.895 174.2941
636.734576 89.904 174.3562
641.348617 89.913 174.4171
645.996094 89.921 174.4758
650.677248 89.929 174.5316
655.392323 89.935 174.5835
660.141566 89.941 174.6311
664.925224 89.945 174.6743
669.743546 89.949 174.7130
674.596784 89.951 174.7476
679.485191 89.952 174.7785
684.409020 89.952 174.8063
689.368530 89.951 174.8313
694.363979 89.949 174.8533
699.395626 89.946 174.8723
704.463736 89.941 174.8878
709.568570 89.936 174.8993
714.710396 89.929 174.9064
719.889483 89.921 174.9086
725.106099 89.912 174.9058
730.360516 89.901 174.8976
735.653010 89.888 174.8837
740.983855 89.874 174.8640
746.353329 89.857 174.8381
751.761713 89.838 174.8060
757.209288 89.817 174.7679
762.696339 89.793 174.7242
768.223151 89.767 174.6756
773.790013 89.739 174.6227
779.397214 89.708 174.5662
785.045047 89.674 174.5067
790.733808 89.638 174.4453
796.463791 89.598 174.3832
802.235296 89.556 174.3225
808.048623 89.511 174.2664
813.904077 89.462 174.2187
819.801961 89.410 174.1845
825.742584 89.354 174.1699
831.726255 89.296 174.1812
837.753287 89.235 174.2253
843.823992 89.173 174.3088
849.938689 89.110 174.4373
856.097695 89.048 174.6152
862.301332 88.989 174.8444
868.549922 88.935 175.1235
874.843793 88.887 175.4476
881.183272 88.847 175.8076
887.568689 88.816 176.1914
894.000378 88.796 176.5853
900.478673 88.785 176.9752
907.003913 88.783 177.3486
913.576437 88.790 177.6959
920.196588 88.803 178.0103
926.864712 88.823 178.2883
933.581156 88.847 178.5294
940.346270 88.875 178.7350
947.160407 88.906 178.9081
954.023921 88.939 179.0520
960.937172 88.973 179.1703
967.900519 89.010 179.2664
974.914325 89.049 179.3425
981.978956 89.089 179.4008
989.094780 89.131 179.4424
996.262169 89.174 179.4684
1003.481495 89.218 179.4795
1010.753136 89.264 179.4770
1018.077470 89.310 179.4622
1025.454879 89.358 179.4369
1032.885748 89.405 179.4030
1040.370463 89.453 179.3621
1047.909417 89.502 179.3158
1055.503000 89.550 179.2653
1063.151610 89.599 179.2112
1070.855645 89.649 179.1539
1078.615506 89.698 179.0939
1086.431599 89.747 179.0315
1094.304330 89.796 178.9668
1102.234110 89.844 178.9004
1110.221353 89.893 178.8326
1118.266475 89.940 178.7639
1126.369895 89.988 178.6942
1134.532035 90.035 178.6229
1142.753322 90.081 178.5485
1151.034184 90.127 178.4698
1159.375052 90.172 178.3855
1167.776361 90.216 178.2949
1176.238550 90.259 178.1981
1184.762060 90.300 178.0961
1193.347334 90.340 177.9906
1201.994821 90.377 177.8842
1210.704971 90.413 177.7791
1219.478238 90.448 177.6779
1228.315080 90.481 177.5822
1237.215957 90.513 177.4933
1246.181334 90.545 177.4114
1255.211678 90.576 177.3358
1264.307459 90.608 177.2654
1273.469152 90.640 177.1988
1282.697235 90.671 177.1352
1291.992188 90.703 177.0742
1301.354495 90.735 177.0157
1310.784647 90.766 176.9597
1320.283132 90.798 176.9055
1329.850448 90.830 176.8519
1339.487093 90.862 176.7974
1349.193569 90.894 176.7405
1358.970381 90.926 176.6803
1368.818041 90.957 176.6166
1378.737061 90.988 176.5497
1388.727958 91.019 176.4803
1398.791253 91.049 176.4088
1408.927471 91.079 176.3360
1419.137140 91.108 176.2631
1429.420793 91.137 176.1918
1439.778965 91.165 176.1244
1450.212197 91.193 176.0635
1460.721033 91.220 176.0121
1471.306019 91.246 175.9734
1481.967709 91.272 175.9504
1492.706658 91.297 175.9456
1503.523426 91.322 175.9608
1514.418576 91.348 175.9965
1525.392678 91.373 176.0522
1536.446302 91.399 176.1268
1547.580025 91.424 176.2187
1558.794428 91.449 176.3265
1570.090095 91.473 176.4492
1581.467615 91.495 176.5860
1592.927581 91.517 176.7359
1604.470591 91.537 176.8979
1616.097246 91.556 177.0712
1627.808153 91.572 177.2558
1639.603922 91.588 177.4518
1651.485168 91.602 177.6587
1663.452510 91.616 177.8744
1675.506573 91.629 178.0950
1687.647984 91.644 178.3147
1699.877377 91.658 178.5265
1712.195390 91.673 178.7234
1724.602663 91.687 178.8997
1737.099845 91.699 179.0521
1749.687587 91.709 179.1807
1762.366544 91.715 179.2889
1775.137379 91.715 179.3839
1788.000756 91.710 179.4753
1800.957346 91.699 179.5734
1814.007826 91.683 179.6884
1827.152874 91.662 179.8290
1840.393177 91.638 -179.9988
1853.729425 91.611 -179.7922
1867.162312 91.584 -179.5519
1880.692540 91.557 -179.2824
1894.320813 91.531 -178.9907
1908.047843 91.507 -178.6851
1921.874344 91.485 -178.3742
1935.801038 91.464 -178.0653
1949.828650 91.444 -177.7643
1963.957912 91.425 -177.4753
1978.189561 91.405 -177.2012
1992.524338 91.384 -176.9442
2006.962991 91.362 -176.7058
2021.506272 91.337 -176.4859
2036.154940 91.310 -176.2824
2050.909758 91.279 -176.0912
2065.771495 91.244 -175.9065
2080.740927 91.205 -175.7214
2095.818833 91.163 -175.5289
2111.006001 91.117 -175.3228
2126.303220 91.070 -175.0981
2141.711290 91.021 -174.8516
2157.231013 90.972 -174.5818
2172.863198 90.925 -174.2891
2188.608660 90.879 -173.9758
2204.468221 90.837 -173.6457
2220.442706 90.799 -173.3035
2236.532950 90.766 -172.9540
2252.739789 90.737 -172.6023
2269.064070 90.714 -172.2531
2285.506644 90.695 -171.9105
2302.068367 90.680 -171.5780
2318.750104 90.670 -171.2579
2335.552723 90.665 -170.9516
2352.477101 90.662 -170.6598
2369.524119 90.664 -170.3826
2386.694668 90.668 -170.1195
2403.989641 90.675 -169.8692
2421.409941 90.685 -169.6293
2438.956476 90.698 -169.3970
2456.630160 90.714 -169.1686
2474.431915 90.733 -168.9411
2492.362668 90.755 -168.7118
2510.423356 90.782 -168.4796
2528.614918 90.814 -168.2445
2546.938304 90.852 -168.0080
2565.394469 90.895 -167.7727
2583.984375 90.945 -167.5420
2602.708991 91.000 -167.3192
2621.569293 91.062 -167.1070
2640.566265 91.130 -166.9071
2659.700897 91.202 -166.7201
2678.974186 91.280 -166.5464
2698.387137 91.363 -166.3865
2717.940763 91.450 -166.2417
2737.636082 91.542 -166.1139
2757.474121 91.638 -166.0052
2777.455915 91.738 -165.9168
2797.582506 91.840 -165.8493
2817.854942 91.945 -165.8025
2838.274281 92.051 -165.7758
2858.841586 92.159 -165.7684
2879.557931 92.267 -165.7805
2900.424394 92.376 -165.8127
2921.442065 92.485 -165.8667
2942.612039 92.593 -165.9439
2963.935418 92.699 -166.0453
2985.413316 92.802 -166.1709
3007.046852 92.902 -166.3195
3028.837153 92.996 -166.4895
3050.785356 93.085 -166.6785
3072.892604 93.167 -166.8840
3095.160050 93.242 -167.1029
3117.588856 93.310 -167.3321
3140.180190 93.369 -167.5685
3162.935230 93.421 -167.8085
3185.855163 93.463 -168.0491
3208.941182 93.497 -168.2874
3232.194493 93.523 -168.5211
3255.616307 93.541 -168.7492
3279.207844 93.551 -168.9715
3302.970336 93.553 -169.1886
3326.905021 93.547 -169.4012
3351.013146 93.535 -169.6097
3375.295969 93.514 -169.8133
3399.754755 93.487 -170.0101
3424.390779 93.452 -170.1975
3449.205326 93.411 -170.3725
3474.199690 93.363 -170.5323
3499.375173 93.311 -170.6744
3524.733088 93.254 -170.7971
3550.274757 93.194 -170.8995
3576.001511 93.133 -170.9812
3601.914692 93.070 -171.0422
3628.015651 93.007 -171.0826
3654.305748 92.945 -171.1029
3680.786354 92.885 -171.1035
3707.458849 92.828 -171.0852
3734.324624 92.774 -171.0487
3761.385080 92.725 -170.9947
3788.641627 92.681 -170.9231
3816.095686 92.643 -170.8333
3843.748688 92.610 -170.7240
3871.602076 92.585 -170.5940
3899.657300 92.566 -170.4421
3927.915825 92.556 -170.2678
3956.379122 92.554 -170.0716
3985.048676 92.561 -169.8548
4013.925981 92.578 -169.6194
4043.012544 92.605 -169.3678
4072.309879 92.641 -169.1028
4101.819515 92.687 -168.8275
4131.542990 92.743 -168.5451
4161.481854 92.808 -168.2598
4191.637667 92.883 -167.9763
4222.012001 92.968 -167.7003
4252.606441 93.061 -167.4391
4283.422580 93.163 -167.2015
4314.462026 93.273 -166.9979
4345.726396 93.391 -166.8397
4377.217321 93.515 -166.7390
4408.936442 93.644 -166.7075
4440.885413 93.776 -166.7552
4473.065899 93.910 -166.8908
4505.479579 94.044 -167.1205
4538.128141 94.175 -167.4485
4571.013288 94.303 -167.8771
4604.136735 94.425 -168.4065
4637.500207 94.540 -169.0353
4671.105446 94.647 -169.7609
4704.954201 94.744 -170.5796
4739.048239 94.831 -171.4866
4773.389336 94.906 -172.4764
4807.979283 94.969 -173.5426
4842.819883 95.018 -174.6777
4877.912952 95.054 -175.8740
4913.260320 95.075 -177.1234
4948.863830 95.080 -178.4172
4984.725337 95.071 -179.7466
5020.846712 95.045 178.8983
5057.229836 95.002 177.5284
5093.876609 94.942 176.1563
5130.788938 94.864 174.7958
5167.968750 94.768 173.4628
5205.417982 94.654 172.1743
5243.138586 94.522 170.9486
5281.132530 94.373 169.8047
5319.401793 94.209 168.7616
5357.948371 94.032 167.8372
5396.774274 93.844 167.0479
5435.881525 93.648 166.4074
5475.272163 93.447 165.9258
5514.948243 93.247 165.6086
5554.911831 93.050 165.4554
5595.165012 92.862 165.4600
5635.709884 92.685 165.6099
5676.548561 92.524 165.8867
5717.683172 92.382 166.2669
5759.115861 92.259 166.7235
5800.848789 92.157 167.2268
5842.884130 92.074 167.7471
5885.224077 92.009 168.2564
5927.870837 91.959 168.7315
5970.826633 91.921 169.1550
6014.093704 91.890 169.5168
6057.674306 91.862 169.8134
6101.570711 91.834 170.0476
6145.785208 91.801 170.2273
6190.320101 91.763 170.3643
6235.177712 91.716 170.4734
6280.360380 91.658 170.5714
6325.870460 91.589 170.6765
6371.710325 91.509 170.8068
6417.882365 91.418 170.9795
6464.388986 91.317 171.2105
6511.232613 91.208 171.5137
6558.415689 91.093 171.9003
6605.940673 90.974 172.3787
6653.810042 90.854 172.9537
6702.026292 90.737 173.6258
6750.591937 90.625 174.3903
6799.509509 90.524 175.2364
6848.781558 90.436 176.1465
6898.410653 90.366 177.0963
6948.399380 90.315 178.0553
6998.750346 90.286 178.9877
7049.466176 90.281 179.8541
7100.549514 90.298 -179.3862
7152.003023 90.336 -178.7722
7203.829385 90.393 -178.3391
7256.031302 90.464 -178.1163
7308.611496 90.545 -178.1259
7361.572708 90.629 -178.3826
7414.917698 90.711 -178.8939
7468.649249 90.785 -179.6604
7522.770160 90.845 179.3232
7577.283253 90.884 178.0682
7632.191371 90.897 176.5915
7687.497376 90.877 174.9159
7743.204151 90.818 173.0706
7799.314600 90.716 171.0919
7855.831649 90.565 169.0246
7912.758244 90.361 166.9234
7970.097352 90.099 164.8560
8027.851962 89.777 162.9060
8086.025087 89.394 161.1788
8144.619758 88.950 159.8088
8203.639030 88.448 158.9708
8263.085980 87.896 158.8965
8322.963708 87.307 159.8946
8383.275334 86.699 162.3690
8444.024002 86.102 166.8040
8505.212881 85.551 173.6382
8566.845160 85.089 -177.0908
8628.924051 84.754 -166.2337
8691.452792 84.577 -155.4787
8754.434642 84.564 -146.3750
8817.872884 84.702 -139.5357
8881.770826 84.959 -134.7981
8946.131799 85.300 -131.7173
9010.959157 85.693 -129.8572
9076.256282 86.110 -128.8780
9142.026576 86.535 -128.5369
9208.273470 86.956 -128.6664
9275.000415 87.365 -129.1541
9342.210891 87.760 -129.9262
9409.908403 88.139 -130.9356
9478.096478 88.499 -132.1543
9546.778672 88.842 -133.5665
9615.958566 89.165 -135.1649
9685.639765 89.467 -136.9463
9755.825904 89.747 -138.9097
9826.520640 90.001 -141.0530
9897.727659 90.228 -143.3722
9969.450674 90.423 -145.8593
10041.693423 90.583 -148.5017
10114.459673 90.705 -151.2821
10187.753217 90.786 -154.1784
10261.577877 90.825 -157.1645
10335.937500 90.818 -160.2113
10410.835964 90.767 -163.2880
10486.277173 90.670 -166.3638
10562.265060 90.530 -169.4090
10638.803587 90.347 -172.3970
10715.896743 90.126 -175.3050
10793.548548 89.868 -178.1149
10871.763050 89.579 179.1859
10950.544327 89.261 176.6050
11029.896485 88.918 174.1451
11109.823662 88.554 171.8055
11190.330024 88.172 169.5826
11271.419768 87.775 167.4726
11353.097122 87.363 165.4732
11435.366344 86.939 163.5859
11518.231722 86.502 161.8172
11601.697577 86.055 160.1793
11685.768261 85.598 158.6886
11770.448155 85.137 157.3619
11855.741674 84.676 156.2101
11941.653265 84.225 155.2305
12028.187408 83.796 154.3997
12115.348612 83.405 153.6687
12203.141422 83.065 152.9620
12291.570415 82.793 152.1821
12380.640201 82.598 151.2177
12470.355424 82.485 149.9550
12560.720760 82.452 148.2883
12651.740920 82.489 146.1283
12743.420650 82.580 143.4085
12835.764729 82.707 140.0868
12928.777972 82.852 136.1447
13022.465227 82.996 131.5849
13116.831378 83.127 126.4254
13211.881345 83.236 120.6942
13307.620084 83.316 114.4225
13404.052584 83.365 107.6390
13501.183875 83.384 100.3669
13599.019019 83.373 92.6238
13697.563116 83.331 84.4240
13796.821305 83.258 75.7832
13896.798760 83.151 66.7232
13997.500692 83.007 57.2765
14098.932352 82.822 47.4888
14201.099028 82.594 37.4191
14304.006046 82.322 27.1364
14407.658770 82.006 16.7161
14512.062604 81.649 6.2343
14617.222992 81.255 -4.2375
14723.145416 80.827 -14.6356
14829.835397 80.371 -24.9062
14937.298497 79.890 -35.0061
15045.540320 79.387 -44.8999
15154.566507 78.862 -54.5577
15264.382743 78.315 -63.9507
15374.994752 77.744 -73.0461
15486.408302 77.146 -81.8026
15598.629201 76.517 -90.1649
15711.663298 75.855 -98.0557
15825.516487 75.159 -105.3640
15940.194703 74.430 -111.9275
16055.703925 73.672 -117.5023
16172.050174 72.893 -121.7178
16289.239516 72.108 -124.0187
16407.278061 71.336 -123.6366
16526.171961 70.609 -119.7761
16645.927415 69.963 -112.4110
16766.550667 69.438 -103.4579
16888.048005 69.070 -96.0981
17010.425762 68.882 -92.1860
17133.690320 68.874 -91.6603
17257.848103 69.026 -93.7300
17382.905584 69.308 -97.6469
17508.869284 69.686 -102.8812
17635.745768 70.129 -109.0936
17763.541652 70.611 -116.0807
17892.263597 71.110 -123.7338
18021.918315 71.608 -132.0088
18152.512564 72.087 -140.9080
18284.053153 72.532 -150.4658
18416.546939 72.929 -160.7386
18550.000830 73.265 -171.8027
18684.421783 73.533 176.2532
18819.816805 73.726 163.3412
18956.192956 73.844 149.4221
19093.557344 73.890 134.6130
19231.917131 73.870 119.3476
19371.279531 73.800 104.4804
19511.651807 73.697 91.1521
19653.041280 73.585 80.4294
19795.455318 73.492 73.0195
19938.901348 73.439 69.2594
