* Measurement data measured by REW V5.31.3
* Source: EXCL: Headset (USB-C to 3.5mm Headphone Jack Adapter), MICROPHONE (Master Volume), 0, volume: 0.750
* Format: 256k Log Swept Sine, 1 sweep at -12.0 dBFS with no timing reference
* Dated: Apr 1, 2025 10:16:38 PM
* REW Settings:
*  C-weighting compensation: Off
*  Target level: 75.0 dB
* Note: ; 
* Measurement: HD6XX R7
* Smoothing: 1/6 octave
* Frequency Step: 96 ppo
* Start Frequency: 20.0 Hz
*
* Freq(Hz) SPL(dB) Phase(degrees)
20.033247 84.297 -92.5749
20.178416 84.375 -92.7540
20.324637 84.460 -92.9225
20.471918 84.554 -93.0863
20.620266 84.656 -93.2521
20.769689 84.766 -93.4269
20.920195 84.883 -93.6179
21.071791 85.007 -93.8312
21.224486 85.136 -94.0716
21.378287 85.268 -94.3423
21.533203 85.402 -94.6444
21.689242 85.536 -94.9770
21.846411 85.668 -95.3372
22.004719 85.796 -95.7207
22.164174 85.920 -96.1218
22.324785 86.037 -96.5341
22.486559 86.149 -96.9512
22.649506 86.253 -97.3668
22.813634 86.349 -97.7753
22.978951 86.439 -98.1723
23.145466 86.521 -98.5548
23.313188 86.596 -98.9208
23.482124 86.665 -99.2703
23.652286 86.728 -99.6040
23.823680 86.785 -99.9241
23.996316 86.838 -100.2336
24.170203 86.887 -100.5361
24.345351 86.932 -100.8354
24.521767 86.974 -101.1354
24.699462 87.013 -101.4397
24.878444 87.049 -101.7514
25.058724 87.083 -102.0729
25.240310 87.115 -102.4056
25.423211 87.145 -102.7499
25.607438 87.173 -103.1051
25.793000 87.198 -103.4697
25.979907 87.222 -103.8410
26.168168 87.245 -104.2160
26.357794 87.265 -104.5915
26.548793 87.286 -104.9644
26.741176 87.306 -105.3321
26.934954 87.326 -105.6933
27.130136 87.348 -106.0476
27.326732 87.372 -106.3956
27.524753 87.398 -106.7393
27.724208 87.426 -107.0808
27.925110 87.457 -107.4229
28.127466 87.491 -107.7675
28.331290 87.526 -108.1164
28.536590 87.564 -108.4699
28.743378 87.603 -108.8277
28.951664 87.643 -109.1886
29.161460 87.684 -109.5508
29.372776 87.726 -109.9129
29.585623 87.769 -110.2734
29.800013 87.814 -110.6315
30.015956 87.861 -110.9872
30.233464 87.910 -111.3407
30.452548 87.961 -111.6925
30.673220 88.014 -112.0431
30.895490 88.071 -112.3921
31.119372 88.129 -112.7389
31.344876 88.191 -113.0822
31.572014 88.256 -113.4206
31.800797 88.324 -113.7525
32.031239 88.396 -114.0773
32.263351 88.472 -114.3951
32.497144 88.552 -114.7069
32.732632 88.637 -115.0148
32.969826 88.726 -115.3216
33.208739 88.819 -115.6300
33.449383 88.915 -115.9427
33.691771 89.014 -116.2617
33.935916 89.115 -116.5878
34.181829 89.217 -116.9211
34.429525 89.319 -117.2606
34.679015 89.421 -117.6048
34.930314 89.522 -117.9517
35.183433 89.622 -118.2993
35.438387 89.722 -118.6462
35.695188 89.820 -118.9911
35.953850 89.917 -119.3336
36.214387 90.014 -119.6739
36.476811 90.109 -120.0127
36.741137 90.203 -120.3511
37.007378 90.296 -120.6903
37.275549 90.388 -121.0316
37.545663 90.478 -121.3756
37.817734 90.567 -121.7230
38.091777 90.654 -122.0737
38.367806 90.738 -122.4276
38.645835 90.821 -122.7847
38.925879 90.901 -123.1449
39.207952 90.979 -123.5081
39.492069 91.055 -123.8744
39.778244 91.128 -124.2433
40.066494 91.200 -124.6143
40.356832 91.268 -124.9863
40.649275 91.335 -125.3579
40.943836 91.399 -125.7279
41.240532 91.461 -126.0955
41.539378 91.522 -126.4601
41.840389 91.581 -126.8218
42.143582 91.638 -127.1810
42.448972 91.695 -127.5382
42.756574 91.750 -127.8936
43.066406 91.804 -128.2476
43.378483 91.856 -128.6003
43.692822 91.908 -128.9524
44.009438 91.959 -129.3049
44.328348 92.008 -129.6593
44.649570 92.056 -130.0174
44.973119 92.103 -130.3802
45.299013 92.147 -130.7486
45.627268 92.189 -131.1221
45.957902 92.229 -131.4996
46.290932 92.265 -131.8796
46.626375 92.298 -132.2601
46.964249 92.328 -132.6392
47.304571 92.356 -133.0153
47.647360 92.380 -133.3870
47.992632 92.402 -133.7530
48.340407 92.422 -134.1126
48.690701 92.440 -134.4655
49.043534 92.456 -134.8123
49.398924 92.471 -135.1540
49.756889 92.486 -135.4920
50.117447 92.499 -135.8276
50.480619 92.512 -136.1617
50.846423 92.524 -136.4943
51.214877 92.535 -136.8250
51.586001 92.546 -137.1528
51.959814 92.556 -137.4762
52.336336 92.565 -137.7940
52.715587 92.574 -138.1047
53.097586 92.582 -138.4071
53.482353 92.591 -138.6999
53.869908 92.599 -138.9819
54.260272 92.608 -139.2522
54.653464 92.617 -139.5100
55.049506 92.627 -139.7554
55.448417 92.639 -139.9887
55.850219 92.651 -140.2108
56.254933 92.665 -140.4232
56.662579 92.681 -140.6279
57.073180 92.699 -140.8270
57.486755 92.720 -141.0234
57.903328 92.742 -141.2205
58.322919 92.767 -141.4219
58.745551 92.795 -141.6316
59.171246 92.824 -141.8530
59.600025 92.855 -142.0885
60.031911 92.888 -142.3387
60.466927 92.922 -142.6022
60.905096 92.956 -142.8763
61.346439 92.992 -143.1577
61.790981 93.028 -143.4431
62.238744 93.067 -143.7303
62.689751 93.108 -144.0178
63.144027 93.151 -144.3052
63.601595 93.197 -144.5927
64.062478 93.245 -144.8805
64.526701 93.297 -145.1694
64.994288 93.350 -145.4598
65.465264 93.405 -145.7518
65.939652 93.462 -146.0453
66.417478 93.519 -146.3400
66.898766 93.577 -146.6354
67.383542 93.635 -146.9310
67.871831 93.691 -147.2261
68.363659 93.747 -147.5204
68.859050 93.801 -147.8137
69.358031 93.853 -148.1062
69.860628 93.903 -148.3983
70.366867 93.950 -148.6909
70.876774 93.995 -148.9847
71.390376 94.038 -149.2802
71.907700 94.078 -149.5780
72.428773 94.115 -149.8782
72.953622 94.149 -150.1809
73.482274 94.180 -150.4860
74.014757 94.209 -150.7935
74.551098 94.235 -151.1034
75.091326 94.259 -151.4154
75.635469 94.281 -151.7295
76.183555 94.301 -152.0456
76.735612 94.319 -152.3636
77.291670 94.335 -152.6834
77.851757 94.349 -153.0050
78.415903 94.362 -153.3280
78.984137 94.373 -153.6520
79.556489 94.383 -153.9764
80.132988 94.392 -154.3006
80.713665 94.400 -154.6239
81.298549 94.406 -154.9459
81.887672 94.412 -155.2664
82.481064 94.417 -155.5850
83.078756 94.422 -155.9017
83.680778 94.426 -156.2164
84.287164 94.430 -156.5295
84.897943 94.433 -156.8411
85.513149 94.436 -157.1517
86.132812 94.439 -157.4613
86.756966 94.441 -157.7699
87.385643 94.442 -158.0777
88.018875 94.443 -158.3844
88.656696 94.443 -158.6904
89.299139 94.443 -158.9958
89.946238 94.442 -159.3008
90.598025 94.441 -159.6054
91.254536 94.439 -159.9094
91.915804 94.436 -160.2124
92.581864 94.434 -160.5141
93.252750 94.430 -160.8142
93.928498 94.427 -161.1125
94.609143 94.423 -161.4090
95.294719 94.419 -161.7037
95.985264 94.415 -161.9965
96.680813 94.411 -162.2876
97.381402 94.407 -162.5771
98.087068 94.403 -162.8651
98.797847 94.399 -163.1516
99.513777 94.396 -163.4364
100.234895 94.392 -163.7197
100.961238 94.389 -164.0014
101.692845 94.387 -164.2812
102.429753 94.385 -164.5594
103.172002 94.384 -164.8361
103.919628 94.384 -165.1117
104.672673 94.385 -165.3867
105.431174 94.387 -165.6619
106.195172 94.389 -165.9377
106.964706 94.393 -166.2143
107.739816 94.397 -166.4919
108.520543 94.402 -166.7701
109.306928 94.408 -167.0485
110.099011 94.415 -167.3270
110.896834 94.423 -167.6050
111.700438 94.431 -167.8824
112.509866 94.440 -168.1590
113.325158 94.449 -168.4349
114.146359 94.458 -168.7098
114.973511 94.468 -168.9834
115.806656 94.477 -169.2553
116.645839 94.486 -169.5249
117.491103 94.495 -169.7917
118.342492 94.504 -170.0552
119.200050 94.512 -170.3153
120.063823 94.521 -170.5720
120.933855 94.529 -170.8255
121.810191 94.536 -171.0763
122.692878 94.544 -171.3247
123.581962 94.550 -171.5710
124.477487 94.555 -171.8155
125.379503 94.560 -172.0585
126.288054 94.564 -172.3002
127.203189 94.567 -172.5407
128.124956 94.569 -172.7803
129.053402 94.571 -173.0191
129.988577 94.571 -173.2571
130.930527 94.571 -173.4939
131.879304 94.570 -173.7291
132.834956 94.568 -173.9622
133.797533 94.565 -174.1926
134.767085 94.561 -174.4198
135.743663 94.555 -174.6437
136.727317 94.548 -174.8645
137.718100 94.539 -175.0824
138.716062 94.528 -175.2980
139.721255 94.515 -175.5116
140.733733 94.501 -175.7238
141.753548 94.486 -175.9350
142.780753 94.469 -176.1454
143.815401 94.450 -176.3549
144.857546 94.431 -176.5636
145.907244 94.411 -176.7713
146.964548 94.391 -176.9777
148.029514 94.370 -177.1825
149.102197 94.349 -177.3857
150.182652 94.328 -177.5873
151.270938 94.307 -177.7873
152.367109 94.285 -177.9858
153.471224 94.263 -178.1827
154.583340 94.241 -178.3779
155.703515 94.220 -178.5711
156.831807 94.198 -178.7620
157.968274 94.176 -178.9505
159.112978 94.155 -179.1364
160.265976 94.134 -179.3200
161.427329 94.114 -179.5017
162.597098 94.093 -179.6821
163.775344 94.073 -179.8617
164.962128 94.053 179.9591
166.157511 94.033 179.7801
167.361557 94.014 179.6013
168.574328 93.994 179.4232
169.795887 93.974 179.2459
171.026298 93.954 179.0698
172.265625 93.934 178.8950
173.513933 93.913 178.7215
174.771286 93.893 178.5493
176.037751 93.872 178.3784
177.313393 93.851 178.2089
178.598279 93.829 178.0411
179.892476 93.807 177.8749
181.196051 93.785 177.7106
182.509072 93.763 177.5482
183.831608 93.740 177.3877
185.163728 93.717 177.2290
186.505500 93.693 177.0723
187.856996 93.668 176.9174
189.218285 93.643 176.7645
190.589439 93.617 176.6135
191.970529 93.591 176.4641
193.361626 93.564 176.3160
194.762804 93.536 176.1693
196.174136 93.507 176.0241
197.595694 93.478 175.8810
199.027554 93.448 175.7408
200.469790 93.418 175.6046
201.922477 93.388 175.4734
203.385690 93.358 175.3476
204.859507 93.328 175.2273
206.344003 93.298 175.1121
207.839257 93.268 175.0015
209.345346 93.239 174.8950
210.862348 93.210 174.7923
212.390344 93.181 174.6932
213.929412 93.153 174.5978
215.479633 93.125 174.5065
217.041087 93.098 174.4198
218.613856 93.071 174.3383
220.198022 93.046 174.2623
221.793668 93.021 174.1921
223.400876 92.998 174.1275
225.019731 92.977 174.0680
226.650317 92.957 174.0127
228.292718 92.940 173.9606
229.947022 92.924 173.9105
231.613312 92.911 173.8613
233.291678 92.899 173.8120
234.982206 92.890 173.7616
236.684984 92.883 173.7097
238.400101 92.877 173.6556
240.127646 92.872 173.5992
241.867710 92.868 173.5405
243.620383 92.864 173.4794
245.385757 92.861 173.4163
247.163923 92.859 173.3513
248.954975 92.856 173.2850
250.759005 92.853 173.2177
252.576108 92.849 173.1500
254.406379 92.846 173.0819
256.249912 92.843 173.0134
258.106805 92.839 172.9442
259.977153 92.835 172.8741
261.861055 92.831 172.8030
263.758608 92.826 172.7310
265.669911 92.821 172.6584
267.595065 92.816 172.5858
269.534169 92.810 172.5139
271.487325 92.804 172.4435
273.454634 92.798 172.3754
275.436199 92.792 172.3100
277.432123 92.785 172.2474
279.442511 92.779 172.1875
281.467467 92.774 172.1301
283.507096 92.768 172.0751
285.561505 92.764 172.0226
287.630801 92.759 171.9728
289.715093 92.755 171.9261
291.814488 92.751 171.8831
293.929096 92.749 171.8438
296.059027 92.746 171.8082
298.204393 92.744 171.7758
300.365305 92.743 171.7462
302.541876 92.743 171.7193
304.734219 92.742 171.6948
306.942449 92.742 171.6725
309.166680 92.743 171.6526
311.407029 92.743 171.6350
313.663613 92.743 171.6201
315.936549 92.743 171.6078
318.225955 92.743 171.5984
320.531952 92.743 171.5916
322.854659 92.743 171.5872
325.194197 92.742 171.5847
327.550688 92.741 171.5836
329.924255 92.740 171.5834
332.315022 92.739 171.5836
334.723114 92.737 171.5835
337.148655 92.734 171.5831
339.591774 92.731 171.5823
342.052596 92.727 171.5811
344.531250 92.723 171.5800
347.027865 92.717 171.5791
349.542572 92.711 171.5787
352.075502 92.703 171.5789
354.626786 92.694 171.5797
357.196558 92.685 171.5811
359.784951 92.674 171.5830
362.392101 92.662 171.5854
365.018144 92.649 171.5884
367.663216 92.635 171.5922
370.327455 92.620 171.5970
373.011000 92.605 171.6029
375.713992 92.589 171.6100
378.436570 92.573 171.6183
381.178878 92.557 171.6280
383.941057 92.541 171.6390
386.723252 92.525 171.6515
389.525608 92.508 171.6655
392.348271 92.492 171.6813
395.191389 92.475 171.6989
398.055108 92.458 171.7184
400.939580 92.441 171.7399
403.844953 92.422 171.7632
406.771380 92.403 171.7882
409.719013 92.384 171.8146
412.688006 92.363 171.8423
415.678514 92.341 171.8708
418.690692 92.318 171.9004
421.724697 92.293 171.9308
424.780688 92.267 171.9623
427.858824 92.240 171.9951
430.959265 92.212 172.0292
434.082174 92.182 172.0648
437.227712 92.151 172.1018
440.396044 92.119 172.1403
443.587336 92.086 172.1803
446.801752 92.052 172.2222
450.039462 92.017 172.2665
453.300634 91.981 172.3137
456.585437 91.944 172.3639
459.894043 91.908 172.4174
463.226625 91.870 172.4742
466.583356 91.833 172.5339
469.964411 91.797 172.5963
473.369967 91.760 172.6611
476.800201 91.725 172.7279
480.255292 91.690 172.7966
483.735420 91.657 172.8666
487.240766 91.625 172.9377
490.771513 91.594 173.0090
494.327846 91.566 173.0800
497.909949 91.539 173.1501
501.518010 91.513 173.2193
505.152216 91.490 173.2875
508.812758 91.468 173.3549
512.499825 91.448 173.4214
516.213610 91.430 173.4869
519.954306 91.414 173.5511
523.722109 91.400 173.6133
527.517216 91.388 173.6731
531.339823 91.378 173.7302
535.190130 91.370 173.7845
539.068339 91.363 173.8361
542.974650 91.359 173.8854
546.909268 91.356 173.9331
550.872398 91.354 173.9796
554.864247 91.355 174.0257
558.885022 91.356 174.0718
562.934933 91.360 174.1185
567.014192 91.364 174.1662
571.123010 91.369 174.2151
575.261603 91.375 174.2654
579.430186 91.382 174.3176
583.628976 91.388 174.3722
587.858192 91.394 174.4300
592.118055 91.400 174.4921
596.408786 91.405 174.5599
600.730610 91.409 174.6345
605.083752 91.411 174.7173
609.468438 91.413 174.8091
613.884897 91.414 174.9107
618.333360 91.414 175.0222
622.814059 91.413 175.1433
627.327226 91.413 175.2730
631.873098 91.412 175.4098
636.451911 91.412 175.5516
641.063904 91.413 175.6960
645.709317 91.413 175.8409
650.388393 91.415 175.9839
655.101375 91.416 176.1233
659.848510 91.418 176.2577
664.630044 91.419 176.3862
669.446228 91.421 176.5082
674.297311 91.422 176.6236
679.183547 91.422 176.7321
684.105191 91.422 176.8334
689.062499 91.420 176.9276
694.055730 91.418 177.0143
699.085144 91.415 177.0936
704.151003 91.410 177.1651
709.253572 91.404 177.2291
714.393116 91.396 177.2856
719.569903 91.386 177.3355
724.784203 91.374 177.3795
730.036288 91.360 177.4189
735.326432 91.343 177.4551
740.654910 91.324 177.4901
746.022001 91.302 177.5259
751.427984 91.278 177.5645
756.873141 91.251 177.6078
762.357756 91.223 177.6573
767.882114 91.192 177.7142
773.446504 91.160 177.7791
779.051217 91.127 177.8520
784.696543 91.094 177.9327
790.382778 91.060 178.0207
796.110217 91.027 178.1150
801.879160 90.995 178.2138
807.689907 90.964 178.3145
813.542761 90.934 178.4136
819.438027 90.907 178.5074
825.376013 90.881 178.5920
831.357028 90.856 178.6644
837.381383 90.832 178.7225
843.449394 90.808 178.7658
849.561376 90.783 178.7952
855.717648 90.757 178.8130
861.918531 90.729 178.8232
868.164348 90.699 178.8309
874.455424 90.666 178.8425
880.792089 90.630 178.8650
887.174671 90.591 178.9062
893.603505 90.550 178.9741
900.078924 90.507 179.0755
906.601267 90.464 179.2162
913.170874 90.423 179.3994
919.788086 90.384 179.6248
926.453250 90.350 179.8887
933.166712 90.322 -179.8155
939.928823 90.302 -179.4967
946.739934 90.289 -179.1649
953.600402 90.284 -178.8296
960.510584 90.287 -178.4991
967.470839 90.298 -178.1802
974.481532 90.315 -177.8777
981.543027 90.338 -177.5946
988.655692 90.367 -177.3326
995.819899 90.400 -177.0923
1003.036020 90.437 -176.8731
1010.304433 90.477 -176.6741
1017.625515 90.520 -176.4936
1024.999649 90.566 -176.3299
1032.427219 90.613 -176.1810
1039.908612 90.663 -176.0452
1047.444219 90.714 -175.9209
1055.034432 90.766 -175.8071
1062.679646 90.820 -175.7028
1070.380261 90.874 -175.6069
1078.136677 90.929 -175.5191
1085.949300 90.985 -175.4386
1093.818536 91.041 -175.3654
1101.744796 91.097 -175.2992
1109.728493 91.152 -175.2395
1117.770043 91.208 -175.1861
1125.869866 91.263 -175.1385
1134.028383 91.316 -175.0963
1142.246020 91.370 -175.0591
1150.523206 91.422 -175.0266
1158.860371 91.473 -174.9984
1167.257951 91.523 -174.9737
1175.716383 91.572 -174.9518
1184.236109 91.621 -174.9316
1192.817572 91.668 -174.9117
1201.461220 91.715 -174.8912
1210.167503 91.761 -174.8690
1218.936876 91.807 -174.8452
1227.769795 91.853 -174.8197
1236.666721 91.899 -174.7929
1245.628118 91.944 -174.7648
1254.654453 91.990 -174.7354
1263.746196 92.036 -174.7044
1272.903822 92.082 -174.6720
1282.127808 92.127 -174.6389
1291.418634 92.173 -174.6057
1300.776786 92.219 -174.5736
1310.202751 92.265 -174.5429
1319.697020 92.311 -174.5141
1329.260089 92.356 -174.4870
1338.892455 92.401 -174.4612
1348.594622 92.446 -174.4359
1358.367094 92.491 -174.4099
1368.210382 92.536 -174.3820
1378.124999 92.581 -174.3512
1388.111461 92.627 -174.3170
1398.170288 92.674 -174.2794
1408.302007 92.722 -174.2385
1418.507144 92.771 -174.1946
1428.786231 92.821 -174.1483
1439.139805 92.873 -174.0999
1449.568405 92.926 -174.0499
1460.072576 92.982 -173.9986
1470.652863 93.038 -173.9461
1481.309820 93.096 -173.8928
1492.044002 93.154 -173.8390
1502.855968 93.213 -173.7850
1513.746282 93.272 -173.7308
1524.715511 93.331 -173.6759
1535.764228 93.388 -173.6199
1546.893009 93.444 -173.5616
1558.102433 93.498 -173.4999
1569.393086 93.550 -173.4334
1580.765555 93.599 -173.3608
1592.220434 93.646 -173.2810
1603.758320 93.689 -173.1935
1615.379813 93.730 -173.0987
1627.085521 93.768 -172.9978
1638.876054 93.804 -172.8920
1650.752025 93.836 -172.7825
1662.714055 93.866 -172.6706
1674.762766 93.893 -172.5568
1686.898788 93.918 -172.4411
1699.122752 93.940 -172.3232
1711.435296 93.959 -172.2022
1723.837061 93.976 -172.0772
1736.328695 93.992 -171.9476
1748.910849 94.006 -171.8133
1761.584178 94.020 -171.6746
1774.349343 94.032 -171.5330
1787.207010 94.045 -171.3903
1800.157848 94.056 -171.2493
1813.202534 94.068 -171.1126
1826.341747 94.078 -170.9821
1839.576172 94.086 -170.8586
1852.906500 94.092 -170.7416
1866.333424 94.095 -170.6291
1879.857645 94.095 -170.5181
1893.479869 94.092 -170.4047
1907.200804 94.085 -170.2850
1921.021168 94.074 -170.1556
1934.941679 94.061 -170.0137
1948.963064 94.045 -169.8579
1963.086054 94.027 -169.6882
1977.311384 94.008 -169.5061
1991.639798 93.988 -169.3148
2006.072041 93.969 -169.1187
2020.608866 93.949 -168.9227
2035.251031 93.930 -168.7317
2049.999299 93.911 -168.5498
2064.854438 93.892 -168.3797
2079.817225 93.873 -168.2226
2094.888438 93.853 -168.0781
2110.068863 93.831 -167.9442
2125.359292 93.809 -167.8181
2140.760521 93.786 -167.6964
2156.273355 93.762 -167.5758
2171.898600 93.738 -167.4538
2187.637073 93.714 -167.3289
2203.489593 93.691 -167.2006
2219.456987 93.670 -167.0698
2235.540087 93.651 -166.9378
2251.739732 93.633 -166.8067
2268.056766 93.618 -166.6781
2284.492041 93.606 -166.5539
2301.046412 93.596 -166.4350
2317.720742 93.588 -166.3223
2334.515902 93.583 -166.2163
2351.432767 93.581 -166.1173
2368.472218 93.581 -166.0252
2385.635144 93.584 -165.9395
2402.922440 93.589 -165.8593
2420.335006 93.597 -165.7836
2437.873752 93.609 -165.7112
2455.539590 93.624 -165.6417
2473.333442 93.643 -165.5753
2491.256235 93.666 -165.5131
2509.308905 93.694 -165.4568
2527.492392 93.727 -165.4087
2545.807644 93.765 -165.3708
2564.255615 93.808 -165.3451
2582.837268 93.854 -165.3326
2601.553572 93.905 -165.3338
2620.405502 93.960 -165.3484
2639.394040 94.018 -165.3751
2658.520177 94.079 -165.4127
2677.784910 94.144 -165.4597
2697.189244 94.212 -165.5154
2716.734189 94.284 -165.5802
2736.420765 94.358 -165.6553
2756.249998 94.436 -165.7424
2776.222921 94.517 -165.8436
2796.340577 94.599 -165.9604
2816.604013 94.684 -166.0939
2837.014287 94.770 -166.2447
2857.572462 94.856 -166.4125
2878.279610 94.942 -166.5971
2899.136811 95.027 -166.7981
2920.145151 95.111 -167.0153
2941.305727 95.194 -167.2485
2962.619641 95.274 -167.4977
2984.088004 95.350 -167.7621
3005.711935 95.422 -168.0405
3027.492563 95.490 -168.3312
3049.431022 95.552 -168.6317
3071.528457 95.608 -168.9395
3093.786018 95.657 -169.2525
3116.204867 95.700 -169.5687
3138.786172 95.735 -169.8870
3161.531110 95.764 -170.2063
3184.440868 95.784 -170.5260
3207.516639 95.797 -170.8453
3230.759627 95.802 -171.1634
3254.171043 95.798 -171.4792
3277.752108 95.786 -171.7919
3301.504051 95.766 -172.1003
3325.428110 95.738 -172.4037
3349.525533 95.703 -172.7010
3373.797576 95.659 -172.9915
3398.245504 95.608 -173.2741
3422.870591 95.550 -173.5480
3447.674123 95.485 -173.8121
3472.657391 95.414 -174.0650
3497.821698 95.338 -174.3051
3523.168356 95.256 -174.5303
3548.698686 95.170 -174.7388
3574.414019 95.080 -174.9286
3600.315697 94.987 -175.0978
3626.405068 94.892 -175.2449
3652.683494 94.797 -175.3688
3679.152345 94.701 -175.4686
3705.812999 94.606 -175.5434
3732.666848 94.513 -175.5926
3759.715291 94.423 -175.6155
3786.959737 94.336 -175.6113
3814.401609 94.254 -175.5798
3842.042335 94.176 -175.5209
3869.883358 94.104 -175.4344
3897.926128 94.038 -175.3203
3926.172107 93.978 -175.1783
3954.622769 93.925 -175.0078
3983.279596 93.880 -174.8078
4012.144082 93.841 -174.5773
4041.217732 93.810 -174.3150
4070.502061 93.787 -174.0202
4099.998597 93.772 -173.6926
4129.708877 93.765 -173.3329
4159.634450 93.767 -172.9434
4189.776876 93.779 -172.5274
4220.137726 93.800 -172.0904
4250.718584 93.831 -171.6394
4281.521043 93.871 -171.1835
4312.546709 93.922 -170.7333
4343.797200 93.982 -170.3005
4375.274146 94.050 -169.8977
4406.979186 94.127 -169.5377
4438.913974 94.210 -169.2330
4471.080174 94.299 -168.9952
4503.479464 94.391 -168.8346
4536.113533 94.485 -168.7592
4568.984081 94.579 -168.7746
4602.092823 94.671 -168.8839
4635.441485 94.760 -169.0873
4669.031805 94.843 -169.3831
4702.865534 94.920 -169.7675
4736.944436 94.989 -170.2352
4771.270288 95.050 -170.7796
4805.844880 95.101 -171.3934
4840.670013 95.142 -172.0691
4875.747503 95.173 -172.7986
4911.079179 95.194 -173.5745
4946.666884 95.204 -174.3892
4982.512471 95.204 -175.2356
5018.617810 95.193 -176.1068
5054.984784 95.171 -176.9957
5091.615287 95.139 -177.8955
5128.511230 95.096 -178.7987
5165.674537 95.043 -179.6972
5203.107144 94.979 179.4179
5240.811003 94.903 178.5563
5278.788080 94.818 177.7288
5317.040355 94.721 176.9468
5355.569821 94.615 176.2227
5394.378487 94.499 175.5690
5433.468378 94.375 174.9981
5472.841529 94.244 174.5216
5512.499995 94.109 174.1497
5552.445842 93.971 173.8905
5592.681154 93.832 173.7497
5633.208027 93.696 173.7298
5674.028574 93.565 173.8295
5715.144924 93.441 174.0431
5756.559221 93.327 174.3604
5798.273622 93.225 174.7668
5840.290302 93.136 175.2443
5882.611454 93.060 175.7725
5925.239281 92.997 176.3308
5968.176007 92.946 176.8996
6011.423871 92.904 177.4622
6054.985126 92.870 178.0064
6098.862045 92.840 178.5250
6143.056913 92.812 179.0168
6187.572036 92.782 179.4865
6232.409733 92.749 179.9436
6277.572344 92.710 -179.5978
6323.062220 92.665 -179.1205
6368.881736 92.613 -178.6047
6415.033278 92.555 -178.0295
6461.519254 92.492 -177.3741
6508.342086 92.427 -176.6183
6555.504216 92.363 -175.7439
6603.008102 92.305 -174.7361
6650.856220 92.257 -173.5855
6699.051066 92.227 -172.2900
6747.595151 92.221 -170.8580
6796.491007 92.246 -169.3115
6845.741183 92.309 -167.6882
6895.348246 92.415 -166.0423
6945.314781 92.569 -164.4418
6995.643395 92.772 -162.9644
7046.336711 93.020 -161.6895
7097.397372 93.308 -160.6911
7148.828039 93.630 -160.0307
7200.631394 93.975 -159.7538
7252.810137 94.334 -159.8886
7305.366989 94.697 -160.4473
7358.304690 95.053 -161.4285
7411.625999 95.395 -162.8205
7465.333696 95.714 -164.6035
7519.430581 96.004 -166.7522
7573.919475 96.257 -169.2376
7628.803218 96.469 -172.0283
7684.084670 96.635 -175.0910
7739.766716 96.750 -178.3909
7795.852256 96.811 178.1083
7852.344215 96.815 174.4448
7909.245538 96.757 170.6596
7966.559191 96.635 166.7974
8024.288163 96.446 162.9076
8082.435463 96.188 159.0454
8141.004122 95.858 155.2737
8199.997194 95.456 151.6642
8259.417754 94.981 148.2997
8319.268900 94.433 145.2768
8379.553752 93.815 142.7106
8440.275452 93.131 140.7422
8501.437168 92.385 139.5492
8563.042086 91.586 139.3627
8625.093419 90.747 140.4878
8687.594401 89.884 143.3195
8750.548291 89.020 148.3202
8813.958371 88.186 155.8749
8877.827947 87.422 165.9150
8942.160348 86.770 177.4624
9006.958928 86.273 -171.2099
9072.227065 85.958 -161.5753
9137.968162 85.834 -154.1676
9204.185647 85.886 -148.8083
9270.882970 86.082 -145.0809
9338.063610 86.386 -142.5901
9405.731068 86.761 -141.0350
9473.888873 87.178 -140.2055
9542.540577 87.617 -139.9598
9611.689759 88.059 -140.2032
9681.340025 88.495 -140.8718
9751.495006 88.914 -141.9207
9822.158359 89.310 -143.3165
9893.333767 89.678 -145.0313
9965.024942 90.012 -147.0395
10037.235620 90.308 -149.3151
10109.969567 90.562 -151.8311
10183.230574 90.771 -154.5579
10257.022461 90.932 -157.4640
10331.349074 91.044 -160.5157
10406.214288 91.105 -163.6783
10481.622007 91.114 -166.9166
10557.576160 91.071 -170.1957
10634.080709 90.977 -173.4820
10711.139642 90.834 -176.7435
10788.756975 90.642 -179.9505
10866.936755 90.404 176.9245
10945.683059 90.123 173.9066
11024.999990 89.800 171.0188
11104.891685 89.440 168.2811
11185.362308 89.046 165.7108
11266.416054 88.621 163.3206
11348.057149 88.170 161.1183
11430.289849 87.699 159.1050
11513.118441 87.211 157.2739
11596.547243 86.714 155.6100
11680.580605 86.212 154.0912
11765.222907 85.710 152.6891
11850.478562 85.212 151.3726
11936.352015 84.722 150.1105
12022.847742 84.240 148.8748
12109.970253 83.768 147.6434
12197.724089 83.306 146.4007
12286.113826 82.853 145.1374
12375.144072 82.409 143.8477
12464.819467 81.975 142.5269
12555.144687 81.555 141.1677
12646.124441 81.152 139.7576
12737.763472 80.771 138.2772
12830.066557 80.420 136.7000
12923.038508 80.107 134.9917
13016.684172 79.841 133.1103
13111.008431 79.631 131.0067
13206.016203 79.485 128.6245
13301.712440 79.408 125.9020
13398.102132 79.404 122.7756
13495.190303 79.467 119.1852
13592.982015 79.589 115.0795
13691.482366 79.760 110.4233
13790.696491 79.966 105.2011
13890.629563 80.193 99.4193
13991.286791 80.432 93.1057
14092.673422 80.675 86.3059
14194.794743 80.919 79.0782
14297.656077 81.165 71.4874
14401.262787 81.414 63.5995
14505.620274 81.671 55.4766
14610.733978 81.936 47.1731
14716.609379 82.212 38.7342
14823.251997 82.499 30.1947
14930.667392 82.793 21.5798
15038.861162 83.090 12.9067
15147.838950 83.385 4.1865
15257.606435 83.670 -4.5746
15368.169341 83.941 -13.3733
15479.533431 84.191 -22.2086
15591.704511 84.414 -31.0822
15704.688430 84.603 -39.9960
15818.491076 84.751 -48.9511
15933.118383 84.852 -57.9441
16048.576327 84.898 -66.9640
16164.870926 84.882 -75.9908
16282.008245 84.800 -84.9963
16399.994388 84.649 -93.9466
16518.835508 84.427 -102.8042
16638.537799 84.136 -111.5311
16759.107503 83.777 -120.0911
16880.550905 83.355 -128.4517
17002.874335 82.878 -136.5887
17126.084171 82.357 -144.4886
17250.186837 81.806 -152.1531
17375.188802 81.246 -159.6030
17501.096582 80.702 -166.8815
17627.916743 80.207 -174.0563
17755.655894 79.793 178.7800
17884.320696 79.492 171.5121
18013.917856 79.323 164.0046
18144.454131 79.289 156.1089
18275.936325 79.374 147.6669
18408.371293 79.550 138.5121
18541.765940 79.781 128.4664
18676.127219 80.031 117.3319
18811.462136 80.274 104.8967
18947.777745 80.487 90.9852
19085.081153 80.657 75.6093
19223.379519 80.778 59.2402
19362.680051 80.849 43.0062
19502.990012 80.880 28.4445
19644.316718 80.883 16.8680
19786.667534 80.872 8.9871
19930.049884 80.863 5.0322
