* Measurement data measured by REW V5.31.3
* Source: EXCL: Headset (USB-C to 3.5mm Headphone Jack Adapter), MICROPHONE (Master Volume), 0, volume: 0.750
* Format: 256k Log Swept Sine, 1 sweep at -12.0 dBFS with no timing reference
* Dated: Apr 7, 2025 12:29:07 PM
* REW Settings:
*  C-weighting compensation: Off
*  Target level: 75.0 dB
* Note: ; 
* Measurement: HD6XX (Back) R2
* Smoothing: 1/6 octave
* Frequency Step: 96 ppo
* Start Frequency: 20.0 Hz
*
* Freq(Hz) SPL(dB) Phase(degrees)
20.187378 79.096 -94.5896
20.333664 79.132 -94.7466
20.481010 79.181 -94.9605
20.629424 79.242 -95.2287
20.778913 79.315 -95.5475
20.929486 79.397 -95.9107
21.081150 79.488 -96.3108
21.233912 79.587 -96.7386
21.387782 79.691 -97.1841
21.542767 79.800 -97.6372
21.698874 79.911 -98.0889
21.856113 80.024 -98.5314
22.014492 80.136 -98.9595
22.174018 80.247 -99.3700
22.334700 80.354 -99.7624
22.496546 80.457 -100.1383
22.659566 80.554 -100.5010
22.823766 80.645 -100.8550
22.989157 80.728 -101.2053
23.155745 80.802 -101.5567
23.323542 80.869 -101.9132
23.492554 80.928 -102.2779
23.662790 80.980 -102.6524
23.834261 81.025 -103.0370
24.006973 81.066 -103.4309
24.180938 81.103 -103.8323
24.356163 81.139 -104.2387
24.532658 81.175 -104.6474
24.710431 81.213 -105.0561
24.889493 81.255 -105.4624
25.069853 81.300 -105.8649
25.251519 81.350 -106.2626
25.434502 81.404 -106.6550
25.618811 81.462 -107.0420
25.804456 81.522 -107.4233
25.991445 81.583 -107.7986
26.179790 81.643 -108.1672
26.369500 81.702 -108.5280
26.560584 81.757 -108.8796
26.753053 81.809 -109.2203
26.946917 81.856 -109.5491
27.142185 81.899 -109.8654
27.338869 81.938 -110.1696
27.536977 81.974 -110.4636
27.736522 82.007 -110.7507
27.937512 82.040 -111.0353
28.139959 82.072 -111.3224
28.343872 82.105 -111.6174
28.549264 82.139 -111.9247
28.756143 82.173 -112.2476
28.964522 82.208 -112.5875
29.174411 82.244 -112.9441
29.385821 82.281 -113.3154
29.598763 82.319 -113.6984
29.813248 82.358 -114.0900
30.029287 82.399 -114.4871
30.246891 82.443 -114.8878
30.466073 82.489 -115.2913
30.686842 82.540 -115.6975
30.909212 82.595 -116.1068
31.133193 82.654 -116.5194
31.358797 82.717 -116.9344
31.586035 82.783 -117.3498
31.814921 82.854 -117.7622
32.045465 82.927 -118.1672
32.277680 83.004 -118.5604
32.511577 83.085 -118.9377
32.747169 83.170 -119.2963
32.984469 83.259 -119.6351
33.223488 83.353 -119.9548
33.464239 83.451 -120.2573
33.706735 83.555 -120.5455
33.950987 83.662 -120.8224
34.197010 83.773 -121.0906
34.444816 83.885 -121.3523
34.694417 83.998 -121.6087
34.945827 84.111 -121.8610
35.199059 84.221 -122.1104
35.454126 84.329 -122.3587
35.711041 84.432 -122.6086
35.969818 84.530 -122.8635
36.230470 84.622 -123.1278
36.493011 84.710 -123.4061
36.757455 84.792 -123.7026
37.023814 84.869 -124.0205
37.292104 84.943 -124.3614
37.562338 85.013 -124.7251
37.834530 85.083 -125.1089
38.108695 85.151 -125.5081
38.384846 85.219 -125.9168
38.662999 85.288 -126.3282
38.943167 85.358 -126.7361
39.225365 85.427 -127.1359
39.509608 85.496 -127.5248
39.795911 85.563 -127.9027
40.084289 85.627 -128.2716
40.374756 85.687 -128.6349
40.667328 85.743 -128.9961
40.962020 85.794 -129.3583
41.258848 85.840 -129.7227
41.557827 85.882 -130.0886
41.858972 85.921 -130.4533
42.162299 85.956 -130.8131
42.467824 85.991 -131.1645
42.775564 86.026 -131.5049
43.085533 86.061 -131.8340
43.397749 86.098 -132.1537
43.712227 86.135 -132.4677
44.028983 86.172 -132.7807
44.348036 86.210 -133.0972
44.669400 86.247 -133.4209
44.993093 86.285 -133.7540
45.319131 86.322 -134.0976
45.647532 86.361 -134.4515
45.978313 86.400 -134.8143
46.311491 86.440 -135.1836
46.647083 86.481 -135.5559
46.985107 86.521 -135.9269
47.325581 86.560 -136.2923
47.668521 86.597 -136.6487
48.013947 86.632 -136.9948
48.361876 86.664 -137.3315
48.712326 86.692 -137.6621
49.065315 86.718 -137.9907
49.420863 86.742 -138.3212
49.778987 86.763 -138.6555
50.139706 86.782 -138.9937
50.503039 86.799 -139.3332
50.869005 86.815 -139.6703
51.237623 86.830 -140.0005
51.608912 86.844 -140.3194
51.982891 86.859 -140.6237
52.359580 86.874 -140.9109
52.739000 86.890 -141.1801
53.121168 86.908 -141.4319
53.506106 86.928 -141.6688
53.893833 86.950 -141.8942
54.284370 86.973 -142.1122
54.677737 86.997 -142.3265
55.073955 87.023 -142.5398
55.473043 87.051 -142.7534
55.875024 87.082 -142.9664
56.279917 87.116 -143.1767
56.687745 87.154 -143.3807
57.098527 87.197 -143.5752
57.512287 87.244 -143.7585
57.929045 87.294 -143.9327
58.348822 87.346 -144.1050
58.771642 87.396 -144.2885
59.197525 87.442 -144.4991
59.626495 87.483 -144.7526
60.058573 87.515 -145.0593
60.493782 87.539 -145.4213
60.932145 87.556 -145.8322
61.373685 87.567 -146.2793
61.818424 87.575 -146.7470
62.266386 87.584 -147.2206
62.717593 87.595 -147.6882
63.172071 87.610 -148.1421
63.629842 87.629 -148.5782
64.090930 87.653 -148.9956
64.555359 87.682 -149.3951
65.023154 87.715 -149.7781
65.494339 87.751 -150.1461
65.968938 87.790 -150.5001
66.446976 87.832 -150.8409
66.928478 87.875 -151.1700
67.413469 87.920 -151.4890
67.901975 87.965 -151.8005
68.394021 88.010 -152.1068
68.889632 88.054 -152.4107
69.388835 88.098 -152.7145
69.891655 88.140 -153.0202
70.398118 88.180 -153.3293
70.908252 88.219 -153.6425
71.422083 88.255 -153.9597
71.939636 88.289 -154.2803
72.460941 88.320 -154.6039
72.986023 88.349 -154.9296
73.514909 88.375 -155.2567
74.047629 88.399 -155.5844
74.584208 88.419 -155.9119
75.124676 88.437 -156.2384
75.669061 88.452 -156.5632
76.217390 88.465 -156.8859
76.769692 88.475 -157.2067
77.325997 88.483 -157.5259
77.886333 88.489 -157.8443
78.450730 88.494 -158.1625
79.019216 88.498 -158.4813
79.591822 88.502 -158.8014
80.168577 88.505 -159.1231
80.749512 88.509 -159.4463
81.334656 88.513 -159.7704
81.924040 88.517 -160.0941
82.517696 88.521 -160.4154
83.115653 88.525 -160.7319
83.717943 88.529 -161.0419
84.324598 88.533 -161.3447
84.935649 88.536 -161.6406
85.551128 88.539 -161.9314
86.171066 88.541 -162.2192
86.795497 88.542 -162.5061
87.424453 88.542 -162.7937
88.057967 88.542 -163.0828
88.696071 88.540 -163.3737
89.338800 88.538 -163.6661
89.986185 88.535 -163.9599
90.638262 88.532 -164.2546
91.295065 88.528 -164.5500
91.956626 88.524 -164.8459
92.622982 88.519 -165.1419
93.294166 88.513 -165.4377
93.970214 88.508 -165.7332
94.651161 88.502 -166.0282
95.337042 88.497 -166.3224
96.027894 88.492 -166.6157
96.723752 88.486 -166.9077
97.424652 88.482 -167.1981
98.130631 88.477 -167.4866
98.841726 88.473 -167.7733
99.557974 88.470 -168.0581
100.279412 88.466 -168.3409
101.006078 88.463 -168.6218
101.738010 88.460 -168.9011
102.475245 88.457 -169.1794
103.217823 88.455 -169.4582
103.965782 88.454 -169.7393
104.719161 88.453 -170.0255
105.477999 88.454 -170.3189
106.242336 88.455 -170.6209
107.012212 88.458 -170.9305
107.787666 88.462 -171.2453
108.568740 88.467 -171.5619
109.355474 88.473 -171.8768
110.147909 88.480 -172.1877
110.946086 88.487 -172.4931
111.750047 88.495 -172.7927
112.559834 88.503 -173.0868
113.375489 88.510 -173.3763
114.197055 88.518 -173.6621
115.024574 88.525 -173.9454
115.858089 88.531 -174.2271
116.697645 88.537 -174.5075
117.543284 88.543 -174.7868
118.395051 88.549 -175.0644
119.252990 88.555 -175.3400
120.117147 88.560 -175.6125
120.987565 88.566 -175.8815
121.864291 88.571 -176.1463
122.747370 88.576 -176.4068
123.636848 88.580 -176.6630
124.532771 88.584 -176.9154
125.435187 88.586 -177.1641
126.344142 88.588 -177.4094
127.259684 88.587 -177.6517
128.181860 88.586 -177.8913
129.110718 88.582 -178.1288
130.046308 88.577 -178.3647
130.988677 88.571 -178.5994
131.937875 88.563 -178.8332
132.893951 88.556 -179.0666
133.856956 88.547 -179.2999
134.826938 88.539 -179.5331
135.803950 88.530 -179.7664
136.788041 88.521 -179.9996
137.779264 88.511 179.7673
138.777669 88.499 179.5343
139.783309 88.486 179.3011
140.796237 88.472 179.0675
141.816504 88.456 178.8335
142.844165 88.440 178.5992
143.879273 88.422 178.3647
144.921881 88.404 178.1306
145.972045 88.385 177.8971
147.029819 88.365 177.6649
148.095257 88.345 177.4344
149.168417 88.324 177.2064
150.249353 88.302 176.9808
151.338121 88.280 176.7576
152.434780 88.257 176.5367
153.539385 88.234 176.3175
154.651995 88.210 176.0999
155.772667 88.186 175.8838
156.901460 88.162 175.6694
158.038432 88.138 175.4569
159.183644 88.115 175.2464
160.337154 88.091 175.0375
161.499023 88.068 174.8295
162.669312 88.044 174.6220
163.848081 88.021 174.4149
165.035392 87.998 174.2085
166.231306 87.975 174.0036
167.435887 87.953 173.8010
168.649196 87.930 173.6015
169.871298 87.907 173.4055
171.102255 87.884 173.2128
172.342133 87.861 173.0231
173.590995 87.837 172.8356
174.848907 87.812 172.6494
176.115934 87.787 172.4634
177.392143 87.761 172.2764
178.677599 87.734 172.0873
179.972371 87.707 171.8952
181.276525 87.679 171.7001
182.590129 87.651 171.5028
183.913252 87.623 171.3051
185.245964 87.594 171.1088
186.588332 87.566 170.9159
187.940428 87.537 170.7278
189.302322 87.508 170.5453
190.674085 87.479 170.3687
192.055788 87.450 170.1975
193.447503 87.420 170.0308
194.849303 87.390 169.8678
196.261262 87.360 169.7079
197.683452 87.330 169.5510
199.115948 87.300 169.3976
200.558824 87.269 169.2486
202.012156 87.238 169.1052
203.476019 87.207 168.9690
204.950490 87.176 168.8408
206.435646 87.144 168.7214
207.931564 87.112 168.6106
209.438322 87.079 168.5075
210.955998 87.047 168.4108
212.484672 87.015 168.3192
214.024424 86.984 168.2314
215.575333 86.954 168.1470
217.137481 86.925 168.0656
218.710948 86.898 167.9875
220.295818 86.872 167.9128
221.892172 86.848 167.8413
223.500094 86.826 167.7726
225.119668 86.806 167.7057
226.750978 86.787 167.6395
228.394109 86.771 167.5721
230.049147 86.756 167.5017
231.716178 86.743 167.4266
233.395289 86.732 167.3451
235.086567 86.722 167.2562
236.790102 86.713 167.1591
238.505980 86.705 167.0542
240.234293 86.697 166.9423
241.975130 86.689 166.8248
243.728581 86.682 166.7039
245.494739 86.674 166.5821
247.273695 86.666 166.4617
249.065542 86.658 166.3447
250.870374 86.649 166.2322
252.688284 86.641 166.1244
254.519367 86.632 166.0204
256.363720 86.623 165.9194
258.221437 86.613 165.8198
260.092616 86.604 165.7206
261.977354 86.595 165.6212
263.875750 86.586 165.5214
265.787903 86.576 165.4218
267.713911 86.567 165.3231
269.653877 86.558 165.2262
271.607900 86.550 165.1315
273.576083 86.541 165.0393
275.558528 86.533 164.9500
277.555338 86.525 164.8635
279.566619 86.517 164.7802
281.592474 86.509 164.6998
283.633009 86.500 164.6227
285.688331 86.492 164.5491
287.758546 86.483 164.4792
289.843763 86.475 164.4129
291.944090 86.466 164.3499
294.059638 86.457 164.2897
296.190515 86.449 164.2313
298.336833 86.440 164.1739
300.498705 86.433 164.1167
302.676243 86.425 164.0597
304.869559 86.419 164.0031
307.078770 86.413 163.9476
309.303989 86.407 163.8939
311.545334 86.401 163.8423
313.802919 86.396 163.7931
316.076865 86.391 163.7462
318.367288 86.385 163.7015
320.674309 86.379 163.6586
322.998047 86.373 163.6171
325.338624 86.367 163.5765
327.696162 86.361 163.5362
330.070783 86.354 163.4958
332.462612 86.347 163.4549
334.871773 86.340 163.4133
337.298392 86.332 163.3712
339.742595 86.324 163.3291
342.204510 86.315 163.2875
344.684265 86.305 163.2473
347.181989 86.295 163.2089
349.697813 86.283 163.1730
352.231868 86.269 163.1403
354.784285 86.255 163.1115
357.355198 86.239 163.0870
359.944741 86.221 163.0675
362.553049 86.203 163.0531
365.180258 86.184 163.0437
367.826505 86.165 163.0384
370.491927 86.145 163.0363
373.176665 86.125 163.0364
375.880856 86.105 163.0378
378.604644 86.084 163.0401
381.348169 86.064 163.0430
384.111575 86.044 163.0466
386.895006 86.023 163.0511
389.698607 86.002 163.0568
392.522524 85.980 163.0638
395.366904 85.958 163.0724
398.231895 85.935 163.0828
401.117648 85.912 163.0955
404.024312 85.888 163.1106
406.952038 85.864 163.1279
409.900981 85.839 163.1464
412.871292 85.814 163.1650
415.863128 85.787 163.1823
418.876643 85.760 163.1974
421.911996 85.731 163.2097
424.969344 85.701 163.2193
428.048847 85.669 163.2265
431.150666 85.636 163.2319
434.274961 85.601 163.2359
437.421897 85.564 163.2394
440.591636 85.525 163.2433
443.784345 85.485 163.2484
447.000189 85.444 163.2557
450.239337 85.402 163.2661
453.501956 85.359 163.2798
456.788219 85.316 163.2971
460.098294 85.273 163.3178
463.432356 85.230 163.3419
466.790578 85.188 163.3689
470.173135 85.146 163.3987
473.580203 85.106 163.4308
477.011961 85.066 163.4648
480.468586 85.028 163.5006
483.950259 84.990 163.5379
487.457163 84.954 163.5764
490.989478 84.919 163.6161
494.547390 84.886 163.6567
498.131084 84.853 163.6977
501.740748 84.822 163.7386
505.376568 84.792 163.7787
509.038735 84.764 163.8176
512.727439 84.737 163.8546
516.442874 84.712 163.8896
520.185232 84.688 163.9229
523.954708 84.665 163.9545
527.751500 84.644 163.9851
531.575805 84.625 164.0154
535.427822 84.608 164.0459
539.307753 84.593 164.0770
543.215800 84.580 164.1093
547.152165 84.570 164.1431
551.117055 84.562 164.1790
555.110677 84.556 164.2176
559.133237 84.553 164.2594
563.184947 84.552 164.3052
567.266018 84.552 164.3557
571.376661 84.553 164.4113
575.517092 84.555 164.4727
579.687526 84.558 164.5399
583.888181 84.561 164.6123
588.119275 84.565 164.6894
592.381030 84.569 164.7701
596.673667 84.573 164.8530
600.997410 84.577 164.9366
605.352485 84.581 165.0191
609.739119 84.584 165.0987
614.157540 84.586 165.1740
618.607979 84.586 165.2444
623.090667 84.585 165.3098
627.605839 84.582 165.3714
632.153730 84.577 165.4308
636.734576 84.571 165.4897
641.348617 84.563 165.5499
645.996094 84.554 165.6126
650.677248 84.544 165.6790
655.392323 84.533 165.7497
660.141566 84.521 165.8250
664.925224 84.509 165.9047
669.743546 84.496 165.9882
674.596784 84.484 166.0747
679.485191 84.472 166.1629
684.409020 84.459 166.2514
689.368530 84.446 166.3384
694.363979 84.433 166.4220
699.395626 84.420 166.5004
704.463736 84.406 166.5721
709.568570 84.391 166.6359
714.710396 84.375 166.6915
719.889483 84.357 166.7394
725.106099 84.337 166.7810
730.360516 84.315 166.8183
735.653010 84.290 166.8538
740.983855 84.263 166.8906
746.353329 84.234 166.9317
751.761713 84.201 166.9799
757.209288 84.166 167.0378
762.696339 84.129 167.1068
768.223151 84.091 167.1879
773.790013 84.051 167.2804
779.397214 84.011 167.3829
785.045047 83.971 167.4932
790.733808 83.932 167.6080
796.463791 83.894 167.7238
802.235296 83.858 167.8369
808.048623 83.823 167.9432
813.904077 83.790 168.0394
819.801961 83.758 168.1226
825.742584 83.727 168.1908
831.726255 83.697 168.2431
837.753287 83.666 168.2794
843.823992 83.635 168.3011
849.938689 83.602 168.3102
856.097695 83.568 168.3103
862.301332 83.531 168.3058
868.549922 83.492 168.3024
874.843793 83.450 168.3063
881.183272 83.404 168.3246
887.568689 83.356 168.3651
894.000378 83.306 168.4353
900.478673 83.254 168.5424
907.003913 83.202 168.6923
913.576437 83.152 168.8885
920.196588 83.104 169.1316
926.864712 83.061 169.4185
933.581156 83.025 169.7429
940.346270 82.996 170.0956
947.160407 82.976 170.4654
954.023921 82.965 170.8407
960.937172 82.963 171.2105
967.900519 82.970 171.5654
974.914325 82.984 171.8985
981.978956 83.005 172.2055
989.094780 83.032 172.4847
996.262169 83.064 172.7360
1003.481495 83.099 172.9607
1010.753136 83.137 173.1609
1018.077470 83.178 173.3391
1025.454879 83.221 173.4976
1032.885748 83.265 173.6389
1040.370463 83.311 173.7654
1047.909417 83.358 173.8791
1055.503000 83.405 173.9820
1063.151610 83.453 174.0761
1070.855645 83.501 174.1633
1078.615506 83.550 174.2453
1086.431599 83.598 174.3235
1094.304330 83.647 174.3992
1102.234110 83.696 174.4734
1110.221353 83.744 174.5471
1118.266475 83.792 174.6206
1126.369895 83.840 174.6943
1134.532035 83.888 174.7681
1142.753322 83.936 174.8412
1151.034184 83.983 174.9127
1159.375052 84.031 174.9813
1167.776361 84.078 175.0459
1176.238550 84.125 175.1055
1184.762060 84.172 175.1594
1193.347334 84.219 175.2073
1201.994821 84.265 175.2493
1210.704971 84.310 175.2856
1219.478238 84.354 175.3167
1228.315080 84.398 175.3436
1237.215957 84.441 175.3681
1246.181334 84.484 175.3921
1255.211678 84.526 175.4175
1264.307459 84.568 175.4461
1273.469152 84.609 175.4791
1282.697235 84.650 175.5172
1291.992188 84.691 175.5610
1301.354495 84.732 175.6105
1310.784647 84.774 175.6648
1320.283132 84.815 175.7228
1329.850448 84.858 175.7826
1339.487093 84.900 175.8426
1349.193569 84.944 175.9014
1358.970381 84.987 175.9583
1368.818041 85.031 176.0131
1378.737061 85.076 176.0662
1388.727958 85.121 176.1182
1398.791253 85.167 176.1703
1408.927471 85.214 176.2233
1419.137140 85.261 176.2780
1429.420793 85.310 176.3350
1439.778965 85.360 176.3949
1450.212197 85.412 176.4584
1460.721033 85.465 176.5258
1471.306019 85.519 176.5972
1481.967709 85.575 176.6725
1492.706658 85.631 176.7513
1503.523426 85.688 176.8327
1514.418576 85.746 176.9161
1525.392678 85.804 177.0010
1536.446302 85.860 177.0872
1547.580025 85.915 177.1751
1558.794428 85.969 177.2655
1570.090095 86.020 177.3591
1581.467615 86.068 177.4563
1592.927581 86.114 177.5574
1604.470591 86.156 177.6628
1616.097246 86.195 177.7728
1627.808153 86.230 177.8878
1639.603922 86.262 178.0089
1651.485168 86.290 178.1375
1663.452510 86.315 178.2748
1675.506573 86.336 178.4224
1687.647984 86.355 178.5807
1699.877377 86.372 178.7503
1712.195390 86.387 178.9307
1724.602663 86.400 179.1213
1737.099845 86.413 179.3216
1749.687587 86.425 179.5310
1762.366544 86.437 179.7490
1775.137379 86.449 179.9752
1788.000756 86.461 -179.7912
1800.957346 86.474 -179.5518
1814.007826 86.487 -179.3087
1827.152874 86.501 -179.0644
1840.393177 86.516 -178.8215
1853.729425 86.531 -178.5821
1867.162312 86.545 -178.3480
1880.692540 86.559 -178.1199
1894.320813 86.573 -177.8984
1908.047843 86.584 -177.6833
1921.874344 86.595 -177.4745
1935.801038 86.604 -177.2718
1949.828650 86.611 -177.0747
1963.957912 86.617 -176.8825
1978.189561 86.621 -176.6941
1992.524338 86.623 -176.5087
2006.962991 86.624 -176.3260
2021.506272 86.625 -176.1464
2036.154940 86.625 -175.9714
2050.909758 86.625 -175.8034
2065.771495 86.626 -175.6453
2080.740927 86.628 -175.5004
2095.818833 86.630 -175.3718
2111.006001 86.633 -175.2622
2126.303220 86.638 -175.1738
2141.711290 86.642 -175.1082
2157.231013 86.648 -175.0665
2172.863198 86.653 -175.0489
2188.608660 86.658 -175.0550
2204.468221 86.663 -175.0838
2220.442706 86.667 -175.1336
2236.532950 86.670 -175.2021
2252.739789 86.671 -175.2861
2269.064070 86.671 -175.3818
2285.506644 86.669 -175.4853
2302.068367 86.665 -175.5924
2318.750104 86.661 -175.6995
2335.552723 86.656 -175.8035
2352.477101 86.651 -175.9021
2369.524119 86.646 -175.9943
2386.694668 86.643 -176.0801
2403.989641 86.642 -176.1606
2421.409941 86.644 -176.2378
2438.956476 86.649 -176.3143
2456.630160 86.657 -176.3928
2474.431915 86.669 -176.4760
2492.362668 86.684 -176.5660
2510.423356 86.703 -176.6642
2528.614918 86.724 -176.7710
2546.938304 86.748 -176.8854
2565.394469 86.775 -177.0060
2583.984375 86.803 -177.1306
2602.708991 86.834 -177.2567
2621.569293 86.868 -177.3820
2640.566265 86.903 -177.5047
2659.700897 86.942 -177.6233
2678.974186 86.983 -177.7368
2698.387137 87.027 -177.8449
2717.940763 87.075 -177.9480
2737.636082 87.126 -178.0473
2757.474121 87.181 -178.1449
2777.455915 87.240 -178.2431
2797.582506 87.302 -178.3448
2817.854942 87.368 -178.4531
2838.274281 87.436 -178.5708
2858.841586 87.506 -178.7001
2879.557931 87.578 -178.8429
2900.424394 87.650 -179.0001
2921.442065 87.722 -179.1720
2942.612039 87.793 -179.3583
2963.935418 87.862 -179.5582
2985.413316 87.928 -179.7704
3007.046852 87.991 -179.9936
3028.837153 88.051 179.7736
3050.785356 88.106 179.5324
3072.892604 88.156 179.2838
3095.160050 88.201 179.0283
3117.588856 88.240 178.7661
3140.180190 88.273 178.4974
3162.935230 88.299 178.2223
3185.855163 88.319 177.9410
3208.941182 88.331 177.6538
3232.194493 88.335 177.3612
3255.616307 88.331 177.0636
3279.207844 88.319 176.7621
3302.970336 88.299 176.4576
3326.905021 88.270 176.1517
3351.013146 88.232 175.8464
3375.295969 88.186 175.5437
3399.754755 88.131 175.2461
3424.390779 88.068 174.9564
3449.205326 87.998 174.6774
3474.199690 87.920 174.4121
3499.375173 87.836 174.1635
3524.733088 87.745 173.9341
3550.274757 87.650 173.7262
3576.001511 87.551 173.5416
3601.914692 87.449 173.3818
3628.015651 87.345 173.2476
3654.305748 87.240 173.1400
3680.786354 87.134 173.0593
3707.458849 87.030 173.0061
3734.324624 86.927 172.9808
3761.385080 86.827 172.9835
3788.641627 86.731 173.0143
3816.095686 86.639 173.0732
3843.748688 86.551 173.1603
3871.602076 86.469 173.2761
3899.657300 86.393 173.4212
3927.915825 86.323 173.5969
3956.379122 86.259 173.8046
3985.048676 86.202 174.0460
4013.925981 86.152 174.3224
4043.012544 86.110 174.6349
4072.309879 86.075 174.9841
4101.819515 86.049 175.3698
4131.542990 86.031 175.7910
4161.481854 86.022 176.2450
4191.637667 86.023 176.7277
4222.012001 86.033 177.2326
4252.606441 86.053 177.7516
4283.422580 86.083 178.2746
4314.462026 86.123 178.7903
4345.726396 86.171 179.2865
4377.217321 86.226 179.7510
4408.936442 86.289 -179.8278
4440.885413 86.357 -179.4605
4473.065899 86.428 -179.1559
4505.479579 86.501 -178.9207
4538.128141 86.574 -178.7593
4571.013288 86.646 -178.6736
4604.136735 86.715 -178.6631
4637.500207 86.779 -178.7255
4671.105446 86.839 -178.8571
4704.954201 86.892 -179.0530
4739.048239 86.938 -179.3079
4773.389336 86.978 -179.6163
4807.979283 87.010 -179.9724
4842.819883 87.036 179.6295
4877.912952 87.054 179.1945
4913.260320 87.065 178.7277
4948.863830 87.070 178.2330
4984.725337 87.069 177.7139
5020.846712 87.062 177.1729
5057.229836 87.049 176.6126
5093.876609 87.030 176.0351
5130.788938 87.004 175.4432
5167.968750 86.972 174.8408
5205.417982 86.932 174.2336
5243.138586 86.883 173.6298
5281.132530 86.824 173.0402
5319.401793 86.756 172.4784
5357.948371 86.678 171.9600
5396.774274 86.590 171.5022
5435.881525 86.493 171.1229
5475.272163 86.388 170.8394
5514.948243 86.279 170.6665
5554.911831 86.168 170.6162
5595.165012 86.058 170.6955
5635.709884 85.952 170.9062
5676.548561 85.855 171.2442
5717.683172 85.770 171.6991
5759.115861 85.699 172.2546
5800.848789 85.644 172.8896
5842.884130 85.606 173.5795
5885.224077 85.586 174.2977
5927.870837 85.583 175.0184
5970.826633 85.594 175.7178
6014.093704 85.618 176.3755
6057.674306 85.650 176.9755
6101.570711 85.689 177.5064
6145.785208 85.730 177.9614
6190.320101 85.771 178.3387
6235.177712 85.806 178.6412
6280.360380 85.835 178.8770
6325.870460 85.853 179.0591
6371.710325 85.858 179.2050
6417.882365 85.849 179.3375
6464.388986 85.824 179.4838
6511.232613 85.783 179.6755
6558.415689 85.727 179.9489
6605.940673 85.659 -179.6567
6653.810042 85.583 -179.1006
6702.026292 85.505 -178.3437
6750.591937 85.433 -177.3537
6799.509509 85.378 -176.1121
6848.781558 85.353 -174.6221
6898.410653 85.369 -172.9165
6948.399380 85.437 -171.0620
6998.750346 85.565 -169.1589
7049.466176 85.756 -167.3306
7100.549514 86.006 -165.7085
7152.003023 86.307 -164.4124
7203.829385 86.647 -163.5362
7256.031302 87.011 -163.1399
7308.611496 87.385 -163.2491
7361.572708 87.753 -163.8609
7414.917698 88.104 -164.9513
7468.649249 88.428 -166.4823
7522.770160 88.716 -168.4085
7577.283253 88.960 -170.6805
7632.191371 89.155 -173.2473
7687.497376 89.297 -176.0578
7743.204151 89.381 -179.0602
7799.314600 89.405 177.7977
7855.831649 89.366 174.5693
7912.758244 89.262 171.3103
7970.097352 89.092 168.0785
8027.851962 88.855 164.9349
8086.025087 88.552 161.9435
8144.619758 88.183 159.1718
8203.639030 87.752 156.6904
8263.085980 87.261 154.5738
8322.963708 86.715 152.8999
8383.275334 86.121 151.7496
8444.024002 85.486 151.2050
8505.212881 84.821 151.3447
8566.845160 84.139 152.2351
8628.924051 83.456 153.9156
8691.452792 82.792 156.3784
8754.434642 82.167 159.5460
8817.872884 81.605 163.2583
8881.770826 81.126 167.2805
8946.131799 80.747 171.3383
9010.959157 80.475 175.1704
9076.256282 80.308 178.5736
9142.026576 80.235 -178.5763
9208.273470 80.238 -176.3302
9275.000415 80.299 -174.6845
9342.210891 80.398 -173.6042
9409.908403 80.517 -173.0389
9478.096478 80.641 -172.9346
9546.778672 80.759 -173.2383
9615.958566 80.859 -173.9002
9685.639765 80.933 -174.8734
9755.825904 80.974 -176.1121
9826.520640 80.977 -177.5706
9897.727659 80.935 -179.2022
9969.450674 80.846 179.0419
10041.693423 80.706 177.2121
10114.459673 80.514 175.3598
10187.753217 80.268 173.5370
10261.577877 79.969 171.7952
10335.937500 79.618 170.1854
10410.835964 79.217 168.7577
10486.277173 78.768 167.5620
10562.265060 78.274 166.6493
10638.803587 77.740 166.0728
10715.896743 77.170 165.8902
10793.548548 76.569 166.1653
10871.763050 75.943 166.9698
10950.544327 75.303 168.3815
11029.896485 74.657 170.4808
11109.823662 74.021 173.3369
11190.330024 73.410 176.9854
11271.419768 72.846 -178.6073
11353.097122 72.350 -173.5807
11435.366344 71.943 -168.1957
11518.231722 71.638 -162.8052
11601.697577 71.441 -157.7736
11685.768261 71.344 -153.3886
11770.448155 71.332 -149.8091
11855.741674 71.380 -147.0654
11941.653265 71.464 -145.0942
12028.187408 71.563 -143.7802
12115.348612 71.660 -142.9897
12203.141422 71.747 -142.5947
12291.570415 71.820 -142.4877
12380.640201 71.880 -142.5910
12470.355424 71.932 -142.8599
12560.720760 71.980 -143.2816
12651.740920 72.030 -143.8701
12743.420650 72.083 -144.6564
12835.764729 72.137 -145.6783
12928.777972 72.188 -146.9703
13022.465227 72.229 -148.5558
13116.831378 72.251 -150.4432
13211.881345 72.243 -152.6237
13307.620084 72.198 -155.0727
13404.052584 72.105 -157.7510
13501.183875 71.957 -160.6075
13599.019019 71.748 -163.5806
13697.563116 71.474 -166.5999
13796.821305 71.132 -169.5858
13896.798760 70.720 -172.4498
13997.500692 70.239 -175.0919
14098.932352 69.691 -177.3974
14201.099028 69.083 -179.2308
14304.006046 68.421 179.5737
14407.658770 67.721 179.2235
14512.062604 67.001 179.9781
14617.222992 66.291 -177.8557
14723.145416 65.633 -173.9762
14829.835397 65.080 -168.2404
14937.298497 64.691 -160.9328
15045.540320 64.516 -152.9569
15154.566507 64.580 -145.5846
15264.382743 64.870 -139.8400
15374.994752 65.342 -136.1436
15486.408302 65.941 -134.4415
15598.629201 66.612 -134.4814
15711.663298 67.309 -135.9914
15825.516487 68.001 -138.7456
15940.194703 68.661 -142.5730
16055.703925 69.273 -147.3468
16172.050174 69.823 -152.9696
16289.239516 70.301 -159.3615
16407.278061 70.699 -166.4516
16526.171961 71.013 -174.1736
16645.927415 71.240 177.5362
16766.550667 71.382 168.7360
16888.048005 71.441 159.4758
17010.425762 71.424 149.7933
17133.690320 71.341 139.7095
17257.848103 71.207 129.2241
17382.905584 71.038 118.3113
17508.869284 70.859 106.9126
17635.745768 70.696 94.9307
17763.541652 70.580 82.2232
17892.263597 70.538 68.5943
18021.918315 70.594 53.7837
18152.512564 70.759 37.4309
18284.053153 71.031 18.9329
18416.546939 71.392 -3.1844
18550.000830 71.820 -34.4512
18684.421783 72.284 -97.7846
18819.816805 72.759 -168.2427
18956.192956 73.220 159.4762
19093.557344 73.649 139.8516
19231.917131 74.030 125.3233
19371.279531 74.354 113.9316
19511.651807 74.615 105.0196
19653.041280 74.810 98.3602
19795.455318 74.939 93.9025
19938.901348 75.003 91.6625
