* Measurement data measured by REW V5.31.3
* Source: EXCL: Headset (USB-C to 3.5mm Headphone Jack Adapter), MICROPHONE (Master Volume), 0, volume: 0.750
* Format: 256k Log Swept Sine, 1 sweep at -12.0 dBFS with no timing reference
* Dated: Apr 7, 2025 12:30:44 PM
* REW Settings:
*  C-weighting compensation: Off
*  Target level: 75.0 dB
* Note: ; 
* Measurement: HD6XX (Back) R7
* Smoothing: 1/6 octave
* Frequency Step: 96 ppo
* Start Frequency: 20.0 Hz
*
* Freq(Hz) SPL(dB) Phase(degrees)
20.187378 80.071 -98.9106
20.333664 80.107 -98.9819
20.481010 80.157 -99.0775
20.629424 80.218 -99.1950
20.778913 80.292 -99.3331
20.929486 80.376 -99.4919
21.081150 80.471 -99.6728
21.233912 80.573 -99.8789
21.387782 80.683 -100.1142
21.542767 80.799 -100.3833
21.698874 80.920 -100.6904
21.856113 81.043 -101.0389
22.014492 81.168 -101.4308
22.174018 81.293 -101.8663
22.334700 81.416 -102.3433
22.496546 81.537 -102.8578
22.659566 81.653 -103.4035
22.823766 81.764 -103.9720
22.989157 81.870 -104.5537
23.155745 81.969 -105.1376
23.323542 82.061 -105.7125
23.492554 82.146 -106.2670
23.662790 82.224 -106.7909
23.834261 82.295 -107.2755
24.006973 82.361 -107.7144
24.180938 82.421 -108.1039
24.356163 82.476 -108.4430
24.532658 82.527 -108.7340
24.710431 82.574 -108.9818
24.889493 82.617 -109.1935
25.069853 82.657 -109.3773
25.251519 82.693 -109.5421
25.434502 82.725 -109.6961
25.618811 82.753 -109.8464
25.804456 82.775 -109.9982
25.991445 82.792 -110.1550
26.179790 82.804 -110.3185
26.369500 82.811 -110.4892
26.560584 82.813 -110.6667
26.753053 82.811 -110.8509
26.946917 82.807 -111.0423
27.142185 82.802 -111.2420
27.338869 82.797 -111.4524
27.536977 82.794 -111.6761
27.736522 82.793 -111.9159
27.937512 82.795 -112.1740
28.139959 82.801 -112.4513
28.343872 82.812 -112.7474
28.549264 82.827 -113.0602
28.756143 82.848 -113.3869
28.964522 82.873 -113.7241
29.174411 82.905 -114.0688
29.385821 82.943 -114.4194
29.598763 82.988 -114.7756
29.813248 83.039 -115.1386
30.029287 83.096 -115.5108
30.246891 83.158 -115.8949
30.466073 83.224 -116.2930
30.686842 83.294 -116.7064
30.909212 83.366 -117.1343
31.133193 83.440 -117.5747
31.358797 83.516 -118.0244
31.586035 83.594 -118.4792
31.814921 83.674 -118.9352
32.045465 83.758 -119.3888
32.277680 83.845 -119.8368
32.511577 83.936 -120.2767
32.747169 84.030 -120.7059
32.984469 84.128 -121.1213
33.223488 84.229 -121.5192
33.464239 84.331 -121.8954
33.706735 84.433 -122.2455
33.950987 84.534 -122.5664
34.197010 84.634 -122.8564
34.444816 84.732 -123.1171
34.694417 84.829 -123.3532
34.945827 84.924 -123.5727
35.199059 85.017 -123.7856
35.454126 85.108 -124.0030
35.711041 85.198 -124.2350
35.969818 85.287 -124.4893
36.230470 85.373 -124.7704
36.493011 85.458 -125.0786
36.757455 85.541 -125.4111
37.023814 85.623 -125.7624
37.292104 85.703 -126.1256
37.562338 85.782 -126.4936
37.834530 85.859 -126.8601
38.108695 85.934 -127.2202
38.384846 86.007 -127.5708
38.662999 86.078 -127.9106
38.943167 86.147 -128.2401
39.225365 86.213 -128.5613
39.509608 86.276 -128.8771
39.795911 86.336 -129.1911
40.084289 86.394 -129.5065
40.374756 86.449 -129.8263
40.667328 86.501 -130.1526
40.962020 86.551 -130.4865
41.258848 86.599 -130.8288
41.557827 86.647 -131.1802
41.858972 86.694 -131.5420
42.162299 86.741 -131.9155
42.467824 86.790 -132.3023
42.775564 86.840 -132.7029
43.085533 86.891 -133.1166
43.397749 86.943 -133.5404
43.712227 86.996 -133.9697
44.028983 87.049 -134.3988
44.348036 87.101 -134.8222
44.669400 87.152 -135.2358
44.993093 87.200 -135.6378
45.319131 87.246 -136.0286
45.647532 87.287 -136.4105
45.978313 87.324 -136.7864
46.311491 87.356 -137.1588
46.647083 87.383 -137.5290
46.985107 87.407 -137.8971
47.325581 87.427 -138.2616
47.668521 87.446 -138.6201
48.013947 87.464 -138.9700
48.361876 87.482 -139.3084
48.712326 87.500 -139.6327
49.065315 87.518 -139.9408
49.420863 87.536 -140.2313
49.778987 87.553 -140.5033
50.139706 87.568 -140.7570
50.503039 87.581 -140.9935
50.869005 87.593 -141.2149
51.237623 87.603 -141.4249
51.608912 87.614 -141.6293
51.982891 87.625 -141.8360
52.359580 87.638 -142.0544
52.739000 87.655 -142.2943
53.121168 87.673 -142.5631
53.506106 87.692 -142.8647
53.893833 87.711 -143.1979
54.284370 87.729 -143.5574
54.677737 87.745 -143.9350
55.073955 87.758 -144.3219
55.473043 87.768 -144.7096
55.875024 87.775 -145.0914
56.279917 87.779 -145.4626
56.687745 87.781 -145.8207
57.098527 87.780 -146.1655
57.512287 87.779 -146.4984
57.929045 87.777 -146.8219
58.348822 87.776 -147.1387
58.771642 87.778 -147.4512
59.197525 87.784 -147.7615
59.626495 87.797 -148.0715
60.058573 87.818 -148.3833
60.493782 87.848 -148.6986
60.932145 87.885 -149.0182
61.373685 87.931 -149.3419
61.818424 87.982 -149.6684
62.266386 88.036 -149.9962
62.717593 88.094 -150.3244
63.172071 88.152 -150.6526
63.629842 88.211 -150.9808
64.090930 88.269 -151.3091
64.555359 88.326 -151.6375
65.023154 88.382 -151.9653
65.494339 88.437 -152.2915
65.968938 88.491 -152.6153
66.446976 88.544 -152.9363
66.928478 88.596 -153.2550
67.413469 88.648 -153.5726
67.901975 88.699 -153.8908
68.394021 88.749 -154.2112
68.889632 88.798 -154.5350
69.388835 88.846 -154.8629
69.891655 88.893 -155.1945
70.398118 88.937 -155.5281
70.908252 88.979 -155.8607
71.422083 89.018 -156.1880
71.939636 89.053 -156.5057
72.460941 89.083 -156.8100
72.986023 89.110 -157.0994
73.514909 89.131 -157.3745
74.047629 89.149 -157.6378
74.584208 89.163 -157.8934
75.124676 89.174 -158.1461
75.669061 89.183 -158.4002
76.217390 89.191 -158.6593
76.769692 89.197 -158.9259
77.325997 89.203 -159.2011
77.886333 89.208 -159.4849
78.450730 89.212 -159.7766
79.019216 89.216 -160.0748
79.591822 89.219 -160.3777
80.168577 89.221 -160.6842
80.749512 89.222 -160.9932
81.334656 89.223 -161.3044
81.924040 89.223 -161.6175
82.517696 89.223 -161.9323
83.115653 89.223 -162.2486
83.717943 89.222 -162.5660
84.324598 89.221 -162.8841
84.935649 89.220 -163.2023
85.551128 89.219 -163.5201
86.171066 89.219 -163.8371
86.795497 89.218 -164.1532
87.424453 89.218 -164.4681
88.057967 89.217 -164.7815
88.696071 89.216 -165.0936
89.338800 89.214 -165.4043
89.986185 89.211 -165.7138
90.638262 89.209 -166.0221
91.295065 89.205 -166.3291
91.956626 89.202 -166.6347
92.622982 89.198 -166.9387
93.294166 89.195 -167.2410
93.970214 89.191 -167.5414
94.651161 89.187 -167.8400
95.337042 89.183 -168.1367
96.027894 89.179 -168.4318
96.723752 89.174 -168.7255
97.424652 89.168 -169.0180
98.130631 89.162 -169.3096
98.841726 89.156 -169.6004
99.557974 89.149 -169.8907
100.279412 89.143 -170.1805
101.006078 89.136 -170.4701
101.738010 89.129 -170.7598
102.475245 89.123 -171.0504
103.217823 89.118 -171.3425
103.965782 89.113 -171.6369
104.719161 89.111 -171.9340
105.477999 89.110 -172.2336
106.242336 89.111 -172.5350
107.012212 89.115 -172.8372
107.787666 89.120 -173.1390
108.568740 89.128 -173.4391
109.355474 89.136 -173.7365
110.147909 89.146 -174.0304
110.946086 89.156 -174.3204
111.750047 89.167 -174.6066
112.559834 89.177 -174.8895
113.375489 89.187 -175.1697
114.197055 89.197 -175.4476
115.024574 89.205 -175.7234
115.858089 89.212 -175.9969
116.697645 89.219 -176.2682
117.543284 89.224 -176.5376
118.395051 89.229 -176.8055
119.252990 89.234 -177.0727
120.117147 89.238 -177.3397
120.987565 89.242 -177.6068
121.864291 89.246 -177.8737
122.747370 89.249 -178.1399
123.636848 89.252 -178.4046
124.532771 89.254 -178.6670
125.435187 89.255 -178.9268
126.344142 89.255 -179.1837
127.259684 89.255 -179.4376
128.181860 89.254 -179.6886
129.110718 89.251 -179.9368
130.046308 89.248 179.8174
130.988677 89.244 179.5735
131.937875 89.240 179.3309
132.893951 89.234 179.0886
133.856956 89.227 178.8457
134.826938 89.219 178.6017
135.803950 89.209 178.3565
136.788041 89.199 178.1107
137.779264 89.187 177.8653
138.777669 89.173 177.6214
139.783309 89.158 177.3797
140.796237 89.142 177.1404
141.816504 89.124 176.9036
142.844165 89.105 176.6691
143.879273 89.085 176.4367
144.921881 89.064 176.2064
145.972045 89.042 175.9778
147.029819 89.019 175.7506
148.095257 88.996 175.5242
149.168417 88.972 175.2981
150.249353 88.947 175.0718
151.338121 88.922 174.8451
152.434780 88.896 174.6181
153.539385 88.871 174.3909
154.651995 88.845 174.1641
155.772667 88.819 173.9379
156.901460 88.793 173.7131
158.038432 88.767 173.4901
159.183644 88.741 173.2688
160.337154 88.716 173.0494
161.499023 88.691 172.8316
162.669312 88.666 172.6151
163.848081 88.641 172.4000
165.035392 88.618 172.1864
166.231306 88.594 171.9747
167.435887 88.570 171.7656
168.649196 88.547 171.5596
169.871298 88.524 171.3569
171.102255 88.500 171.1577
172.342133 88.476 170.9616
173.590995 88.452 170.7685
174.848907 88.427 170.5779
176.115934 88.402 170.3894
177.392143 88.377 170.2028
178.677599 88.352 170.0179
179.972371 88.326 169.8346
181.276525 88.299 169.6528
182.590129 88.272 169.4728
183.913252 88.244 169.2948
185.245964 88.216 169.1189
186.588332 88.186 168.9452
187.940428 88.157 168.7734
189.302322 88.126 168.6035
190.674085 88.096 168.4350
192.055788 88.064 168.2678
193.447503 88.032 168.1019
194.849303 87.999 167.9375
196.261262 87.966 167.7749
197.683452 87.931 167.6143
199.115948 87.896 167.4561
200.558824 87.860 167.3001
202.012156 87.824 167.1467
203.476019 87.787 166.9961
204.950490 87.751 166.8489
206.435646 87.715 166.7058
207.931564 87.679 166.5670
209.438322 87.643 166.4323
210.955998 87.608 166.3020
212.484672 87.573 166.1766
214.024424 87.540 166.0569
215.575333 87.507 165.9438
217.137481 87.475 165.8378
218.710948 87.445 165.7392
220.295818 87.416 165.6476
221.892172 87.389 165.5622
223.500094 87.365 165.4816
225.119668 87.342 165.4042
226.750978 87.322 165.3279
228.394109 87.304 165.2508
230.049147 87.288 165.1708
231.716178 87.275 165.0868
233.395289 87.263 164.9979
235.086567 87.252 164.9037
236.790102 87.243 164.8041
238.505980 87.234 164.6995
240.234293 87.226 164.5902
241.975130 87.218 164.4767
243.728581 87.210 164.3593
245.494739 87.203 164.2381
247.273695 87.194 164.1132
249.065542 87.186 163.9849
250.870374 87.177 163.8538
252.688284 87.167 163.7212
254.519367 87.157 163.5889
256.363720 87.146 163.4594
258.221437 87.134 163.3354
260.092616 87.123 163.2197
261.977354 87.111 163.1149
263.875750 87.098 163.0223
265.787903 87.086 162.9415
267.713911 87.073 162.8707
269.653877 87.060 162.8071
271.607900 87.047 162.7482
273.576083 87.034 162.6917
275.558528 87.020 162.6357
277.555338 87.006 162.5786
279.566619 86.993 162.5193
281.592474 86.978 162.4571
283.633009 86.964 162.3914
285.688331 86.949 162.3225
287.758546 86.934 162.2513
289.843763 86.919 162.1789
291.944090 86.904 162.1066
294.059638 86.890 162.0355
296.190515 86.875 161.9666
298.336833 86.862 161.9003
300.498705 86.849 161.8374
302.676243 86.837 161.7779
304.869559 86.827 161.7222
307.078770 86.818 161.6701
309.303989 86.810 161.6217
311.545334 86.802 161.5766
313.802919 86.796 161.5345
316.076865 86.789 161.4949
318.367288 86.784 161.4572
320.674309 86.778 161.4211
322.998047 86.771 161.3861
325.338624 86.765 161.3519
327.696162 86.758 161.3182
330.070783 86.751 161.2847
332.462612 86.743 161.2514
334.871773 86.735 161.2184
337.298392 86.727 161.1860
339.742595 86.718 161.1546
342.204510 86.709 161.1248
344.684265 86.698 161.0967
347.181989 86.687 161.0704
349.697813 86.674 161.0455
352.231868 86.660 161.0214
354.784285 86.645 160.9969
357.355198 86.628 160.9710
359.944741 86.609 160.9427
362.553049 86.589 160.9117
365.180258 86.568 160.8786
367.826505 86.547 160.8448
370.491927 86.524 160.8118
373.176665 86.501 160.7811
375.880856 86.477 160.7537
378.604644 86.454 160.7301
381.348169 86.429 160.7108
384.111575 86.405 160.6959
386.895006 86.380 160.6849
389.698607 86.355 160.6773
392.522524 86.329 160.6722
395.366904 86.303 160.6689
398.231895 86.277 160.6672
401.117648 86.251 160.6672
404.024312 86.224 160.6693
406.952038 86.197 160.6740
409.900981 86.170 160.6817
412.871292 86.142 160.6929
415.863128 86.114 160.7075
418.876643 86.085 160.7254
421.911996 86.054 160.7458
424.969344 86.023 160.7681
428.048847 85.990 160.7917
431.150666 85.956 160.8160
434.274961 85.920 160.8406
437.421897 85.883 160.8651
440.591636 85.844 160.8893
443.784345 85.804 160.9132
447.000189 85.762 160.9368
450.239337 85.719 160.9603
453.501956 85.675 160.9836
456.788219 85.631 161.0072
460.098294 85.586 161.0317
463.432356 85.541 161.0581
466.790578 85.497 161.0872
470.173135 85.453 161.1194
473.580203 85.410 161.1550
477.011961 85.368 161.1939
480.468586 85.328 161.2355
483.950259 85.289 161.2792
487.457163 85.252 161.3240
490.989478 85.216 161.3691
494.547390 85.181 161.4137
498.131084 85.148 161.4572
501.740748 85.116 161.4992
505.376568 85.086 161.5396
509.038735 85.057 161.5786
512.727439 85.030 161.6163
516.442874 85.004 161.6531
520.185232 84.980 161.6891
523.954708 84.957 161.7242
527.751500 84.937 161.7583
531.575805 84.917 161.7910
535.427822 84.900 161.8222
539.307753 84.883 161.8524
543.215800 84.868 161.8825
547.152165 84.854 161.9132
551.117055 84.841 161.9456
555.110677 84.830 161.9803
559.133237 84.819 162.0181
563.184947 84.809 162.0595
567.266018 84.800 162.1051
571.376661 84.792 162.1555
575.517092 84.785 162.2113
579.687526 84.778 162.2730
583.888181 84.772 162.3409
588.119275 84.766 162.4151
592.381030 84.761 162.4953
596.673667 84.755 162.5811
600.997410 84.751 162.6715
605.352485 84.746 162.7655
609.739119 84.742 162.8616
614.157540 84.737 162.9585
618.607979 84.732 163.0547
623.090667 84.727 163.1495
627.605839 84.721 163.2426
632.153730 84.714 163.3344
636.734576 84.707 163.4253
641.348617 84.698 163.5165
645.996094 84.688 163.6087
650.677248 84.678 163.7023
655.392323 84.666 163.7969
660.141566 84.654 163.8916
664.925224 84.640 163.9853
669.743546 84.626 164.0764
674.596784 84.611 164.1635
679.485191 84.595 164.2457
684.409020 84.578 164.3224
689.368530 84.559 164.3934
694.363979 84.540 164.4588
699.395626 84.519 164.5190
704.463736 84.496 164.5746
709.568570 84.472 164.6268
714.710396 84.445 164.6769
719.889483 84.416 164.7269
725.106099 84.385 164.7790
730.360516 84.351 164.8356
735.653010 84.315 164.8989
740.983855 84.276 164.9708
746.353329 84.236 165.0525
751.761713 84.194 165.1447
757.209288 84.151 165.2471
762.696339 84.107 165.3588
768.223151 84.063 165.4784
773.790013 84.019 165.6036
779.397214 83.976 165.7320
785.045047 83.934 165.8608
790.733808 83.893 165.9871
796.463791 83.853 166.1077
802.235296 83.816 166.2194
808.048623 83.779 166.3198
813.904077 83.744 166.4064
819.801961 83.710 166.4780
825.742584 83.675 166.5339
831.726255 83.641 166.5743
837.753287 83.605 166.6006
843.823992 83.568 166.6149
849.938689 83.529 166.6198
856.097695 83.488 166.6194
862.301332 83.443 166.6185
868.549922 83.396 166.6226
874.843793 83.345 166.6385
881.183272 83.291 166.6736
887.568689 83.235 166.7356
894.000378 83.176 166.8319
900.478673 83.116 166.9691
907.003913 83.057 167.1518
913.576437 82.999 167.3824
920.196588 82.944 167.6603
926.864712 82.895 167.9815
933.581156 82.853 168.3391
940.346270 82.818 168.7241
947.160407 82.792 169.1262
954.023921 82.774 169.5352
960.937172 82.766 169.9418
967.900519 82.766 170.3386
974.914325 82.774 170.7198
981.978956 82.789 171.0817
989.094780 82.809 171.4223
996.262169 82.835 171.7409
1003.481495 82.866 172.0379
1010.753136 82.901 172.3143
1018.077470 82.940 172.5712
1025.454879 82.981 172.8102
1032.885748 83.026 173.0328
1040.370463 83.072 173.2402
1047.909417 83.121 173.4337
1055.503000 83.172 173.6143
1063.151610 83.224 173.7830
1070.855645 83.277 173.9405
1078.615506 83.332 174.0873
1086.431599 83.388 174.2238
1094.304330 83.445 174.3499
1102.234110 83.502 174.4657
1110.221353 83.560 174.5712
1118.266475 83.618 174.6664
1126.369895 83.676 174.7518
1134.532035 83.733 174.8279
1142.753322 83.790 174.8953
1151.034184 83.846 174.9551
1159.375052 83.901 175.0080
1167.776361 83.956 175.0548
1176.238550 84.009 175.0959
1184.762060 84.061 175.1315
1193.347334 84.113 175.1617
1201.994821 84.163 175.1867
1210.704971 84.213 175.2066
1219.478238 84.262 175.2213
1228.315080 84.311 175.2306
1237.215957 84.359 175.2344
1246.181334 84.407 175.2325
1255.211678 84.454 175.2254
1264.307459 84.500 175.2136
1273.469152 84.546 175.1976
1282.697235 84.591 175.1785
1291.992188 84.634 175.1571
1301.354495 84.676 175.1349
1310.784647 84.718 175.1135
1320.283132 84.758 175.0948
1329.850448 84.796 175.0800
1339.487093 84.835 175.0699
1349.193569 84.872 175.0647
1358.970381 84.910 175.0642
1368.818041 84.947 175.0683
1378.737061 84.984 175.0767
1388.727958 85.022 175.0889
1398.791253 85.060 175.1042
1408.927471 85.099 175.1223
1419.137140 85.139 175.1429
1429.420793 85.180 175.1662
1439.778965 85.221 175.1924
1450.212197 85.264 175.2224
1460.721033 85.307 175.2573
1471.306019 85.350 175.2986
1481.967709 85.394 175.3477
1492.706658 85.438 175.4061
1503.523426 85.483 175.4746
1514.418576 85.527 175.5543
1525.392678 85.571 175.6454
1536.446302 85.615 175.7479
1547.580025 85.659 175.8617
1558.794428 85.701 175.9862
1570.090095 85.742 176.1207
1581.467615 85.781 176.2643
1592.927581 85.819 176.4158
1604.470591 85.854 176.5743
1616.097246 85.887 176.7392
1627.808153 85.918 176.9102
1639.603922 85.945 177.0872
1651.485168 85.971 177.2707
1663.452510 85.993 177.4608
1675.506573 86.014 177.6578
1687.647984 86.032 177.8621
1699.877377 86.048 178.0740
1712.195390 86.062 178.2940
1724.602663 86.075 178.5222
1737.099845 86.087 178.7585
1749.687587 86.099 179.0026
1762.366544 86.110 179.2535
1775.137379 86.122 179.5099
1788.000756 86.134 179.7697
1800.957346 86.147 -179.9691
1814.007826 86.160 -179.7083
1827.152874 86.173 -179.4494
1840.393177 86.186 -179.1932
1853.729425 86.199 -178.9400
1867.162312 86.211 -178.6897
1880.692540 86.222 -178.4422
1894.320813 86.232 -178.1974
1908.047843 86.241 -177.9554
1921.874344 86.249 -177.7162
1935.801038 86.255 -177.4805
1949.828650 86.260 -177.2487
1963.957912 86.265 -177.0214
1978.189561 86.268 -176.7993
1992.524338 86.270 -176.5830
2006.962991 86.271 -176.3739
2021.506272 86.272 -176.1732
2036.154940 86.272 -175.9827
2050.909758 86.273 -175.8044
2065.771495 86.273 -175.6402
2080.740927 86.274 -175.4922
2095.818833 86.274 -175.3622
2111.006001 86.275 -175.2520
2126.303220 86.276 -175.1625
2141.711290 86.276 -175.0944
2157.231013 86.277 -175.0479
2172.863198 86.276 -175.0223
2188.608660 86.276 -175.0166
2204.468221 86.274 -175.0290
2220.442706 86.271 -175.0573
2236.532950 86.267 -175.0987
2252.739789 86.262 -175.1504
2269.064070 86.255 -175.2093
2285.506644 86.248 -175.2729
2302.068367 86.240 -175.3387
2318.750104 86.231 -175.4052
2335.552723 86.223 -175.4710
2352.477101 86.214 -175.5354
2369.524119 86.207 -175.5981
2386.694668 86.200 -175.6588
2403.989641 86.195 -175.7178
2421.409941 86.192 -175.7752
2438.956476 86.191 -175.8313
2456.630160 86.192 -175.8865
2474.431915 86.195 -175.9406
2492.362668 86.201 -175.9937
2510.423356 86.210 -176.0453
2528.614918 86.222 -176.0951
2546.938304 86.237 -176.1431
2565.394469 86.256 -176.1890
2583.984375 86.278 -176.2331
2602.708991 86.303 -176.2757
2621.569293 86.332 -176.3166
2640.566265 86.364 -176.3560
2659.700897 86.400 -176.3938
2678.974186 86.440 -176.4299
2698.387137 86.483 -176.4649
2717.940763 86.530 -176.4995
2737.636082 86.580 -176.5351
2757.474121 86.634 -176.5737
2777.455915 86.691 -176.6173
2797.582506 86.751 -176.6681
2817.854942 86.813 -176.7278
2838.274281 86.876 -176.7975
2858.841586 86.941 -176.8777
2879.557931 87.007 -176.9684
2900.424394 87.072 -177.0691
2921.442065 87.137 -177.1794
2942.612039 87.200 -177.2982
2963.935418 87.260 -177.4245
2985.413316 87.319 -177.5562
3007.046852 87.373 -177.6916
3028.837153 87.425 -177.8288
3050.785356 87.472 -177.9664
3072.892604 87.514 -178.1036
3095.160050 87.553 -178.2400
3117.588856 87.586 -178.3755
3140.180190 87.613 -178.5101
3162.935230 87.636 -178.6437
3185.855163 87.652 -178.7767
3208.941182 87.662 -178.9097
3232.194493 87.666 -179.0433
3255.616307 87.664 -179.1788
3279.207844 87.656 -179.3171
3302.970336 87.641 -179.4591
3326.905021 87.619 -179.6054
3351.013146 87.590 -179.7560
3375.295969 87.554 -179.9106
3399.754755 87.511 179.9320
3424.390779 87.462 179.7734
3449.205326 87.405 179.6160
3474.199690 87.342 179.4628
3499.375173 87.273 179.3173
3524.733088 87.198 179.1830
3550.274757 87.118 179.0631
3576.001511 87.034 178.9604
3601.914692 86.947 178.8770
3628.015651 86.859 178.8143
3654.305748 86.769 178.7736
3680.786354 86.679 178.7554
3707.458849 86.590 178.7602
3734.324624 86.502 178.7882
3761.385080 86.417 178.8396
3788.641627 86.335 178.9142
3816.095686 86.258 179.0123
3843.748688 86.184 179.1341
3871.602076 86.115 179.2808
3899.657300 86.051 179.4543
3927.915825 85.992 179.6571
3956.379122 85.938 179.8923
3985.048676 85.891 -179.8371
4013.925981 85.850 -179.5282
4043.012544 85.815 -179.1789
4072.309879 85.788 -178.7881
4101.819515 85.770 -178.3558
4131.542990 85.759 -177.8833
4161.481854 85.758 -177.3732
4191.637667 85.766 -176.8299
4222.012001 85.783 -176.2592
4252.606441 85.811 -175.6685
4283.422580 85.849 -175.0671
4314.462026 85.896 -174.4653
4345.726396 85.952 -173.8746
4377.217321 86.018 -173.3068
4408.936442 86.090 -172.7738
4440.885413 86.170 -172.2867
4473.065899 86.254 -171.8557
4505.479579 86.343 -171.4892
4538.128141 86.434 -171.1941
4571.013288 86.526 -170.9752
4604.136735 86.617 -170.8352
4637.500207 86.706 -170.7748
4671.105446 86.791 -170.7929
4704.954201 86.873 -170.8867
4739.048239 86.949 -171.0525
4773.389336 87.020 -171.2854
4807.979283 87.084 -171.5803
4842.819883 87.142 -171.9318
4877.912952 87.193 -172.3345
4913.260320 87.237 -172.7831
4948.863830 87.274 -173.2724
4984.725337 87.305 -173.7977
5020.846712 87.328 -174.3542
5057.229836 87.343 -174.9368
5093.876609 87.351 -175.5397
5130.788938 87.351 -176.1560
5167.968750 87.342 -176.7772
5205.417982 87.325 -177.3938
5243.138586 87.298 -177.9941
5281.132530 87.262 -178.5655
5319.401793 87.218 -179.0934
5357.948371 87.165 -179.5633
5396.774274 87.107 -179.9606
5435.881525 87.044 179.7271
5475.272163 86.979 179.5099
5514.948243 86.916 179.3935
5554.911831 86.856 179.3797
5595.165012 86.803 179.4650
5635.709884 86.760 179.6411
5676.548561 86.729 179.8947
5717.683172 86.712 -179.7916
5759.115861 86.710 -179.4380
5800.848789 86.723 -179.0667
5842.884130 86.750 -178.7000
5885.224077 86.789 -178.3592
5927.870837 86.838 -178.0632
5970.826633 86.895 -177.8275
6014.093704 86.957 -177.6638
6057.674306 87.019 -177.5792
6101.570711 87.079 -177.5768
6145.785208 87.133 -177.6553
6190.320101 87.179 -177.8100
6235.177712 87.213 -178.0323
6280.360380 87.233 -178.3099
6325.870460 87.236 -178.6271
6371.710325 87.220 -178.9645
6417.882365 87.184 -179.2987
6464.388986 87.127 -179.6025
6511.232613 87.048 -179.8446
6558.415689 86.948 -179.9896
6605.940673 86.830 -179.9985
6653.810042 86.695 -179.8297
6702.026292 86.551 -179.4410
6750.591937 86.403 -178.7934
6799.509509 86.261 -177.8565
6848.781558 86.137 -176.6161
6898.410653 86.044 -175.0829
6948.399380 85.994 -173.3002
6998.750346 86.001 -171.3479
7049.466176 86.071 -169.3390
7100.549514 86.207 -167.4073
7152.003023 86.405 -165.6892
7203.829385 86.658 -164.3042
7256.031302 86.952 -163.3413
7308.611496 87.272 -162.8536
7361.572708 87.604 -162.8603
7414.917698 87.934 -163.3537
7468.649249 88.249 -164.3075
7522.770160 88.540 -165.6839
7577.283253 88.798 -167.4390
7632.191371 89.016 -169.5263
7687.497376 89.188 -171.8977
7743.204151 89.309 -174.5048
7799.314600 89.374 -177.2975
7855.831649 89.380 179.7756
7912.758244 89.324 176.7690
7970.097352 89.204 173.7399
8027.851962 89.018 170.7487
8086.025087 88.765 167.8591
8144.619758 88.446 165.1380
8203.639030 88.064 162.6548
8263.085980 87.620 160.4820
8322.963708 87.118 158.6955
8383.275334 86.564 157.3748
8444.024002 85.965 156.6041
8505.212881 85.330 156.4719
8566.845160 84.669 157.0684
8628.924051 83.997 158.4789
8691.452792 83.332 160.7702
8754.434642 82.696 163.9680
8817.872884 82.112 168.0253
8881.770826 81.610 172.7933
8946.131799 81.213 178.0123
9010.959157 80.942 -176.6566
9076.256282 80.806 -171.5634
9142.026576 80.801 -166.9959
9208.273470 80.914 -163.1378
9275.000415 81.121 -160.0682
9342.210891 81.398 -157.7894
9409.908403 81.721 -156.2586
9478.096478 82.068 -155.4129
9546.778672 82.421 -155.1844
9615.958566 82.766 -155.5078
9685.639765 83.090 -156.3220
9755.825904 83.383 -157.5696
9826.520640 83.638 -159.1953
9897.727659 83.847 -161.1441
9969.450674 84.005 -163.3599
10041.693423 84.107 -165.7853
10114.459673 84.150 -168.3616
10187.753217 84.134 -171.0305
10261.577877 84.058 -173.7350
10335.937500 83.923 -176.4212
10410.835964 83.731 -179.0398
10486.277173 83.487 178.4526
10562.265060 83.195 176.0934
10638.803587 82.859 173.9128
10715.896743 82.485 171.9341
10793.548548 82.078 170.1738
10871.763050 81.644 168.6406
10950.544327 81.189 167.3360
11029.896485 80.720 166.2531
11109.823662 80.243 165.3763
11190.330024 79.765 164.6802
11271.419768 79.291 164.1294
11353.097122 78.828 163.6790
11435.366344 78.379 163.2765
11518.231722 77.949 162.8657
11601.697577 77.537 162.3912
11685.768261 77.141 161.8049
11770.448155 76.757 161.0714
11855.741674 76.377 160.1735
11941.653265 75.991 159.1144
12028.187408 75.590 157.9197
12115.348612 75.164 156.6357
12203.141422 74.703 155.3270
12291.570415 74.200 154.0713
12380.640201 73.652 152.9544
12470.355424 73.056 152.0644
12560.720760 72.413 151.4859
12651.740920 71.728 151.2954
12743.420650 71.005 151.5557
12835.764729 70.253 152.3096
12928.777972 69.481 153.5718
13022.465227 68.700 155.3201
13116.831378 67.924 157.4867
13211.881345 67.167 159.9561
13307.620084 66.441 162.5741
13404.052584 65.759 165.1696
13501.183875 65.130 167.5861
13599.019019 64.558 169.7136
13697.563116 64.043 171.5129
13796.821305 63.582 173.0298
13896.798760 63.174 174.4072
13997.500692 62.820 175.9057
14098.932352 62.531 177.9520
14201.099028 62.329 -178.7593
14304.006046 62.243 -173.0841
14407.658770 62.307 -163.2741
14512.062604 62.544 -147.7257
14617.222992 62.956 -128.3778
14723.145416 63.524 -111.7522
14829.835397 64.211 -101.4279
14937.298497 64.978 -96.3844
15045.540320 65.784 -94.8060
15154.566507 66.601 -95.4510
15264.382743 67.405 -97.5933
15374.994752 68.182 -100.8143
15486.408302 68.921 -104.8673
15598.629201 69.614 -109.6029
15711.663298 70.255 -114.9278
15825.516487 70.839 -120.7812
15940.194703 71.363 -127.1207
16055.703925 71.822 -133.9137
16172.050174 72.212 -141.1318
16289.239516 72.532 -148.7474
16407.278061 72.779 -156.7327
16526.171961 72.953 -165.0601
16645.927415 73.057 -173.7032
16766.550667 73.093 177.3597
16888.048005 73.066 168.1443
17010.425762 72.983 158.6577
17133.690320 72.854 148.8969
17257.848103 72.690 138.8473
17382.905584 72.504 128.4821
17508.869284 72.315 117.7597
17635.745768 72.142 106.6248
17763.541652 72.005 95.0091
17892.263597 71.927 82.8345
18021.918315 71.922 70.0229
18152.512564 72.001 56.5081
18284.053153 72.164 42.2500
18416.546939 72.399 27.2233
18550.000830 72.690 11.2820
18684.421783 73.014 -6.6885
18819.816805 73.347 -42.9949
18956.192956 73.670 169.1464
19093.557344 73.965 147.8557
19231.917131 74.221 134.5106
19371.279531 74.430 123.9417
19511.651807 74.592 115.5026
19653.041280 74.708 109.1027
19795.455318 74.781 104.7810
19938.901348 74.816 102.6000
