* Measurement data measured by REW V5.31.3
* Source: EXCL: Headset (USB-C to 3.5mm Headphone Jack Adapter), MICROPHONE (Master Volume), 0, volume: 0.750
* Format: 256k Log Swept Sine, 1 sweep at -12.0 dBFS with no timing reference
* Dated: Apr 1, 2025 10:19:49 PM
* REW Settings:
*  C-weighting compensation: Off
*  Target level: 75.0 dB
* Note: ; 
* Measurement: HD6XX (Soulwit) R4
* Smoothing: 1/6 octave
* Frequency Step: 96 ppo
* Start Frequency: 20.0 Hz
*
* Freq(Hz) SPL(dB) Phase(degrees)
20.033247 85.883 -95.7599
20.178416 85.945 -96.0359
20.324637 86.013 -96.3085
20.471918 86.087 -96.5822
20.620266 86.167 -96.8608
20.769689 86.251 -97.1475
20.920195 86.341 -97.4442
21.071791 86.435 -97.7520
21.224486 86.533 -98.0709
21.378287 86.633 -98.4003
21.533203 86.736 -98.7387
21.689242 86.840 -99.0845
21.846411 86.946 -99.4356
22.004719 87.051 -99.7905
22.164174 87.156 -100.1476
22.324785 87.260 -100.5057
22.486559 87.362 -100.8642
22.649506 87.462 -101.2229
22.813634 87.559 -101.5822
22.978951 87.652 -101.9425
23.145466 87.742 -102.3050
23.313188 87.827 -102.6708
23.482124 87.907 -103.0410
23.652286 87.982 -103.4168
23.823680 88.052 -103.7989
23.996316 88.115 -104.1876
24.170203 88.174 -104.5828
24.345351 88.226 -104.9835
24.521767 88.273 -105.3887
24.699462 88.315 -105.7961
24.878444 88.351 -106.2035
25.058724 88.384 -106.6084
25.240310 88.412 -107.0082
25.423211 88.438 -107.4006
25.607438 88.462 -107.7838
25.793000 88.484 -108.1567
25.979907 88.506 -108.5187
26.168168 88.527 -108.8701
26.357794 88.550 -109.2117
26.548793 88.574 -109.5448
26.741176 88.599 -109.8707
26.934954 88.626 -110.1912
27.130136 88.655 -110.5074
27.326732 88.686 -110.8209
27.524753 88.719 -111.1328
27.724208 88.755 -111.4443
27.925110 88.792 -111.7566
28.127466 88.831 -112.0708
28.331290 88.872 -112.3884
28.536590 88.915 -112.7106
28.743378 88.959 -113.0385
28.951664 89.004 -113.3727
29.161460 89.050 -113.7137
29.372776 89.097 -114.0608
29.585623 89.144 -114.4130
29.800013 89.191 -114.7686
30.015956 89.240 -115.1259
30.233464 89.289 -115.4830
30.452548 89.339 -115.8386
30.673220 89.391 -116.1920
30.895490 89.446 -116.5431
31.119372 89.504 -116.8928
31.344876 89.565 -117.2425
31.572014 89.629 -117.5938
31.800797 89.697 -117.9481
32.031239 89.769 -118.3064
32.263351 89.844 -118.6692
32.497144 89.922 -119.0361
32.732632 90.003 -119.4061
32.969826 90.086 -119.7778
33.208739 90.171 -120.1498
33.449383 90.259 -120.5205
33.691771 90.348 -120.8892
33.935916 90.440 -121.2552
34.181829 90.532 -121.6187
34.429525 90.627 -121.9801
34.679015 90.722 -122.3402
34.930314 90.818 -122.6998
35.183433 90.915 -123.0594
35.438387 91.011 -123.4196
35.695188 91.107 -123.7800
35.953850 91.202 -124.1406
36.214387 91.296 -124.5008
36.476811 91.389 -124.8600
36.741137 91.481 -125.2177
37.007378 91.571 -125.5736
37.275549 91.660 -125.9279
37.545663 91.747 -126.2808
37.817734 91.832 -126.6324
38.091777 91.916 -126.9834
38.367806 91.998 -127.3339
38.645835 92.077 -127.6839
38.925879 92.155 -128.0333
39.207952 92.230 -128.3820
39.492069 92.304 -128.7297
39.778244 92.375 -129.0765
40.066494 92.445 -129.4225
40.356832 92.512 -129.7684
40.649275 92.578 -130.1146
40.943836 92.643 -130.4620
41.240532 92.705 -130.8113
41.539378 92.766 -131.1631
41.840389 92.825 -131.5177
42.143582 92.882 -131.8749
42.448972 92.937 -132.2344
42.756574 92.990 -132.5957
43.066406 93.041 -132.9580
43.378483 93.091 -133.3205
43.692822 93.138 -133.6825
44.009438 93.184 -134.0431
44.328348 93.227 -134.4016
44.649570 93.270 -134.7571
44.973119 93.310 -135.1093
45.299013 93.349 -135.4578
45.627268 93.387 -135.8027
45.957902 93.424 -136.1447
46.290932 93.460 -136.4846
46.626375 93.495 -136.8235
46.964249 93.529 -137.1623
47.304571 93.561 -137.5017
47.647360 93.592 -137.8417
47.992632 93.620 -138.1816
48.340407 93.647 -138.5204
48.690701 93.672 -138.8564
49.043534 93.695 -139.1881
49.398924 93.716 -139.5140
49.756889 93.736 -139.8335
50.117447 93.755 -140.1465
50.480619 93.773 -140.4536
50.846423 93.790 -140.7566
51.214877 93.807 -141.0573
51.586001 93.825 -141.3579
51.959814 93.842 -141.6603
52.336336 93.859 -141.9657
52.715587 93.875 -142.2745
53.097586 93.892 -142.5863
53.482353 93.908 -142.9004
53.869908 93.924 -143.2158
54.260272 93.940 -143.5320
54.653464 93.957 -143.8486
55.049506 93.975 -144.1658
55.448417 93.994 -144.4840
55.850219 94.014 -144.8036
56.254933 94.035 -145.1249
56.662579 94.058 -145.4482
57.073180 94.082 -145.7737
57.486755 94.108 -146.1011
57.903328 94.135 -146.4301
58.322919 94.163 -146.7598
58.745551 94.193 -147.0889
59.171246 94.225 -147.4158
59.600025 94.257 -147.7389
60.031911 94.291 -148.0569
60.466927 94.328 -148.3692
60.905096 94.366 -148.6759
61.346439 94.406 -148.9783
61.790981 94.449 -149.2780
62.238744 94.495 -149.5771
62.689751 94.543 -149.8779
63.144027 94.592 -150.1824
63.601595 94.644 -150.4924
64.062478 94.696 -150.8091
64.526701 94.750 -151.1332
64.994288 94.805 -151.4645
65.465264 94.859 -151.8026
65.939652 94.914 -152.1467
66.417478 94.968 -152.4957
66.898766 95.021 -152.8483
67.383542 95.074 -153.2029
67.871831 95.125 -153.5585
68.363659 95.175 -153.9138
68.859050 95.224 -154.2685
69.358031 95.271 -154.6222
69.860628 95.316 -154.9752
70.366867 95.359 -155.3275
70.876774 95.399 -155.6794
71.390376 95.437 -156.0312
71.907700 95.472 -156.3828
72.428773 95.505 -156.7341
72.953622 95.534 -157.0855
73.482274 95.560 -157.4368
74.014757 95.584 -157.7884
74.551098 95.605 -158.1403
75.091326 95.624 -158.4930
75.635469 95.640 -158.8465
76.183555 95.655 -159.2009
76.735612 95.668 -159.5563
77.291670 95.679 -159.9122
77.851757 95.689 -160.2681
78.415903 95.697 -160.6235
78.984137 95.705 -160.9775
79.556489 95.711 -161.3294
80.132988 95.717 -161.6787
80.713665 95.722 -162.0249
81.298549 95.726 -162.3679
81.887672 95.730 -162.7078
82.481064 95.733 -163.0449
83.078756 95.735 -163.3800
83.680778 95.738 -163.7139
84.287164 95.740 -164.0471
84.897943 95.741 -164.3807
85.513149 95.742 -164.7151
86.132812 95.743 -165.0505
86.756966 95.743 -165.3874
87.385643 95.743 -165.7254
88.018875 95.743 -166.0643
88.656696 95.742 -166.4039
89.299139 95.742 -166.7436
89.946238 95.740 -167.0831
90.598025 95.739 -167.4221
91.254536 95.738 -167.7603
91.915804 95.736 -168.0977
92.581864 95.735 -168.4338
93.252750 95.733 -168.7687
93.928498 95.731 -169.1023
94.609143 95.729 -169.4343
95.294719 95.727 -169.7648
95.985264 95.724 -170.0939
96.680813 95.722 -170.4218
97.381402 95.719 -170.7487
98.087068 95.717 -171.0750
98.797847 95.714 -171.4008
99.513777 95.711 -171.7266
100.234895 95.709 -172.0526
100.961238 95.707 -172.3790
101.692845 95.705 -172.7057
102.429753 95.703 -173.0324
103.172002 95.702 -173.3585
103.919628 95.702 -173.6832
104.672673 95.702 -174.0060
105.431174 95.704 -174.3262
106.195172 95.706 -174.6434
106.964706 95.709 -174.9575
107.739816 95.714 -175.2684
108.520543 95.720 -175.5765
109.306928 95.726 -175.8821
110.099011 95.734 -176.1858
110.896834 95.742 -176.4883
111.700438 95.751 -176.7902
112.509866 95.760 -177.0923
113.325158 95.769 -177.3950
114.146359 95.779 -177.6987
114.973511 95.788 -178.0034
115.806656 95.797 -178.3090
116.645839 95.805 -178.6149
117.491103 95.813 -178.9204
118.342492 95.820 -179.2247
119.200050 95.827 -179.5272
120.063823 95.833 -179.8273
120.933855 95.839 179.8754
121.810191 95.844 179.5811
122.692878 95.848 179.2899
123.581962 95.851 179.0021
124.477487 95.854 178.7175
125.379503 95.856 178.4363
126.288054 95.857 178.1581
127.203189 95.857 177.8827
128.124956 95.857 177.6100
129.053402 95.855 177.3397
129.988577 95.853 177.0721
130.930527 95.850 176.8073
131.879304 95.846 176.5457
132.834956 95.840 176.2877
133.797533 95.834 176.0336
134.767085 95.826 175.7833
135.743663 95.817 175.5368
136.727317 95.807 175.2934
137.718100 95.797 175.0524
138.716062 95.785 174.8130
139.721255 95.772 174.5745
140.733733 95.759 174.3366
141.753548 95.745 174.0991
142.780753 95.730 173.8621
143.815401 95.714 173.6261
144.857546 95.698 173.3914
145.907244 95.681 173.1584
146.964548 95.664 172.9274
148.029514 95.647 172.6983
149.102197 95.629 172.4708
150.182652 95.611 172.2445
151.270938 95.593 172.0189
152.367109 95.575 171.7937
153.471224 95.558 171.5685
154.583340 95.540 171.3429
155.703515 95.523 171.1168
156.831807 95.506 170.8902
157.968274 95.490 170.6630
159.112978 95.473 170.4352
160.265976 95.457 170.2069
161.427329 95.442 169.9781
162.597098 95.426 169.7489
163.775344 95.411 169.5192
164.962128 95.395 169.2889
166.157511 95.380 169.0581
167.361557 95.365 168.8268
168.574328 95.349 168.5952
169.795887 95.334 168.3635
171.026298 95.319 168.1320
172.265625 95.304 167.9008
173.513933 95.288 167.6703
174.771286 95.273 167.4407
176.037751 95.257 167.2122
177.313393 95.241 166.9844
178.598279 95.225 166.7574
179.892476 95.208 166.5308
181.196051 95.191 166.3040
182.509072 95.174 166.0767
183.831608 95.155 165.8484
185.163728 95.137 165.6188
186.505500 95.117 165.3882
187.856996 95.096 165.1565
189.218285 95.075 164.9241
190.589439 95.053 164.6917
191.970529 95.029 164.4594
193.361626 95.005 164.2275
194.762804 94.980 163.9962
196.174136 94.954 163.7654
197.595694 94.927 163.5347
199.027554 94.900 163.3042
200.469790 94.872 163.0740
201.922477 94.844 162.8444
203.385690 94.817 162.6166
204.859507 94.789 162.3917
206.344003 94.761 162.1711
207.839257 94.734 161.9561
209.345346 94.706 161.7471
210.862348 94.678 161.5446
212.390344 94.650 161.3481
213.929412 94.623 161.1573
215.479633 94.595 160.9718
217.041087 94.569 160.7915
218.613856 94.542 160.6165
220.198022 94.516 160.4473
221.793668 94.492 160.2847
223.400876 94.468 160.1290
225.019731 94.446 159.9806
226.650317 94.425 159.8391
228.292718 94.406 159.7037
229.947022 94.389 159.5735
231.613312 94.374 159.4471
233.291678 94.361 159.3231
234.982206 94.349 159.2001
236.684984 94.340 159.0767
238.400101 94.333 158.9518
240.127646 94.328 158.8240
241.867710 94.324 158.6924
243.620383 94.321 158.5564
245.385757 94.320 158.4155
247.163923 94.319 158.2697
248.954975 94.319 158.1198
250.759005 94.319 157.9662
252.576108 94.319 157.8104
254.406379 94.319 157.6532
256.249912 94.319 157.4958
258.106805 94.317 157.3391
259.977153 94.316 157.1839
261.861055 94.313 157.0310
263.758608 94.310 156.8808
265.669911 94.307 156.7333
267.595065 94.303 156.5884
269.534169 94.298 156.4452
271.487325 94.293 156.3030
273.454634 94.287 156.1609
275.436199 94.282 156.0186
277.432123 94.277 155.8756
279.442511 94.271 155.7322
281.467467 94.267 155.5887
283.507096 94.262 155.4455
285.561505 94.258 155.3032
287.630801 94.254 155.1623
289.715093 94.250 155.0231
291.814488 94.247 154.8858
293.929096 94.245 154.7504
296.059027 94.242 154.6168
298.204393 94.240 154.4847
300.365305 94.239 154.3541
302.541876 94.237 154.2248
304.734219 94.236 154.0968
306.942449 94.235 153.9700
309.166680 94.234 153.8445
311.407029 94.234 153.7202
313.663613 94.234 153.5972
315.936549 94.234 153.4755
318.225955 94.233 153.3551
320.531952 94.233 153.2362
322.854659 94.233 153.1186
325.194197 94.232 153.0022
327.550688 94.231 152.8870
329.924255 94.230 152.7728
332.315022 94.228 152.6597
334.723114 94.225 152.5478
337.148655 94.222 152.4374
339.591774 94.218 152.3290
342.052596 94.213 152.2229
344.531250 94.207 152.1195
347.027865 94.200 152.0189
349.542572 94.192 151.9210
352.075502 94.183 151.8256
354.626786 94.172 151.7324
357.196558 94.161 151.6414
359.784951 94.148 151.5520
362.392101 94.135 151.4642
365.018144 94.121 151.3779
367.663216 94.106 151.2927
370.327455 94.091 151.2085
373.011000 94.076 151.1251
375.713992 94.060 151.0422
378.436570 94.044 150.9598
381.178878 94.028 150.8779
383.941057 94.011 150.7967
386.723252 93.995 150.7161
389.525608 93.978 150.6363
392.348271 93.962 150.5574
395.191389 93.945 150.4796
398.055108 93.928 150.4028
400.939580 93.910 150.3271
403.844953 93.893 150.2525
406.771380 93.874 150.1786
409.719013 93.856 150.1052
412.688006 93.837 150.0319
415.678514 93.816 149.9583
418.690692 93.795 149.8845
421.724697 93.773 149.8105
424.780688 93.749 149.7367
427.858824 93.725 149.6634
430.959265 93.698 149.5910
434.082174 93.670 149.5197
437.227712 93.641 149.4495
440.396044 93.610 149.3802
443.587336 93.577 149.3118
446.801752 93.544 149.2441
450.039462 93.509 149.1770
453.300634 93.474 149.1107
456.585437 93.438 149.0452
459.894043 93.401 148.9807
463.226625 93.365 148.9171
466.583356 93.328 148.8546
469.964411 93.293 148.7928
473.369967 93.257 148.7318
476.800201 93.222 148.6710
480.255292 93.188 148.6101
483.735420 93.155 148.5490
487.240766 93.123 148.4874
490.771513 93.091 148.4251
494.327846 93.061 148.3624
497.909949 93.031 148.2994
501.518010 93.003 148.2368
505.152216 92.976 148.1751
508.812758 92.950 148.1149
512.499825 92.926 148.0565
516.213610 92.903 147.9999
519.954306 92.882 147.9448
523.722109 92.864 147.8907
527.517216 92.847 147.8375
531.339823 92.833 147.7849
535.190130 92.821 147.7332
539.068339 92.811 147.6829
542.974650 92.804 147.6344
546.909268 92.800 147.5881
550.872398 92.798 147.5441
554.864247 92.798 147.5024
558.885022 92.801 147.4626
562.934933 92.806 147.4243
567.014192 92.812 147.3865
571.123010 92.821 147.3487
575.261603 92.830 147.3104
579.430186 92.841 147.2714
583.628976 92.852 147.2316
587.858192 92.864 147.1914
592.118055 92.876 147.1509
596.408786 92.888 147.1102
600.730610 92.900 147.0692
605.083752 92.911 147.0274
609.468438 92.922 146.9844
613.884897 92.932 146.9399
618.333360 92.940 146.8939
622.814059 92.948 146.8464
627.327226 92.955 146.7975
631.873098 92.960 146.7475
636.451911 92.964 146.6965
641.063904 92.967 146.6444
645.709317 92.969 146.5912
650.388393 92.970 146.5368
655.101375 92.969 146.4810
659.848510 92.968 146.4235
664.630044 92.965 146.3643
669.446228 92.962 146.3032
674.297311 92.958 146.2400
679.183547 92.953 146.1745
684.105191 92.948 146.1066
689.062499 92.941 146.0360
694.055730 92.933 145.9628
699.085144 92.925 145.8867
704.151003 92.915 145.8077
709.253572 92.904 145.7254
714.393116 92.892 145.6395
719.569903 92.879 145.5496
724.784203 92.865 145.4551
730.036288 92.850 145.3554
735.326432 92.833 145.2502
740.654910 92.815 145.1392
746.022001 92.795 145.0222
751.427984 92.774 144.8992
756.873141 92.752 144.7701
762.357756 92.727 144.6348
767.882114 92.701 144.4925
773.446504 92.674 144.3428
779.051217 92.644 144.1854
784.696543 92.612 144.0202
790.382778 92.578 143.8477
796.110217 92.541 143.6688
801.879160 92.502 143.4848
807.689907 92.460 143.2971
813.542761 92.416 143.1074
819.438027 92.368 142.9185
825.376013 92.317 142.7338
831.357028 92.263 142.5580
837.381383 92.206 142.3975
843.449394 92.145 142.2592
849.561376 92.081 142.1508
855.717648 92.015 142.0795
861.918531 91.948 142.0521
868.164348 91.881 142.0739
874.455424 91.815 142.1477
880.792089 91.753 142.2735
887.174671 91.696 142.4476
893.603505 91.646 142.6626
900.078924 91.605 142.9083
906.601267 91.573 143.1720
913.170874 91.551 143.4406
919.788086 91.538 143.7012
926.453250 91.535 143.9428
933.166712 91.540 144.1570
939.928823 91.553 144.3381
946.739934 91.571 144.4833
953.600402 91.594 144.5920
960.510584 91.621 144.6653
967.470839 91.651 144.7056
974.481532 91.683 144.7153
981.543027 91.717 144.6976
988.655692 91.753 144.6553
995.819899 91.789 144.5914
1003.036020 91.827 144.5084
1010.304433 91.865 144.4088
1017.625515 91.904 144.2951
1024.999649 91.943 144.1696
1032.427219 91.983 144.0344
1039.908612 92.023 143.8912
1047.444219 92.064 143.7414
1055.034432 92.104 143.5857
1062.679646 92.145 143.4246
1070.380261 92.185 143.2586
1078.136677 92.225 143.0879
1085.949300 92.265 142.9129
1093.818536 92.304 142.7341
1101.744796 92.341 142.5519
1109.728493 92.378 142.3669
1117.770043 92.414 142.1798
1125.869866 92.448 141.9911
1134.028383 92.480 141.8014
1142.246020 92.512 141.6113
1150.523206 92.542 141.4215
1158.860371 92.570 141.2329
1167.257951 92.598 141.0464
1175.716383 92.624 140.8629
1184.236109 92.649 140.6830
1192.817572 92.673 140.5076
1201.461220 92.696 140.3364
1210.167503 92.719 140.1693
1218.936876 92.741 140.0056
1227.769795 92.762 139.8445
1236.666721 92.784 139.6853
1245.628118 92.804 139.5275
1254.654453 92.825 139.3705
1263.746196 92.845 139.2141
1272.903822 92.864 139.0579
1282.127808 92.882 138.9022
1291.418634 92.899 138.7474
1300.776786 92.916 138.5943
1310.202751 92.931 138.4438
1319.697020 92.945 138.2971
1329.260089 92.957 138.1555
1338.892455 92.968 138.0204
1348.594622 92.978 137.8934
1358.367094 92.987 137.7756
1368.210382 92.995 137.6679
1378.124999 93.003 137.5707
1388.111461 93.011 137.4838
1398.170288 93.019 137.4073
1408.302007 93.027 137.3414
1418.507144 93.036 137.2864
1428.786231 93.046 137.2427
1439.139805 93.057 137.2110
1449.568405 93.069 137.1919
1460.072576 93.082 137.1859
1470.652863 93.097 137.1932
1481.309820 93.113 137.2140
1492.044002 93.130 137.2480
1502.855968 93.149 137.2948
1513.746282 93.169 137.3536
1524.715511 93.189 137.4233
1535.764228 93.210 137.5034
1546.893009 93.230 137.5935
1558.102433 93.249 137.6938
1569.393086 93.266 137.8050
1580.765555 93.282 137.9282
1592.220434 93.295 138.0648
1603.758320 93.306 138.2161
1615.379813 93.315 138.3832
1627.085521 93.322 138.5660
1638.876054 93.327 138.7634
1650.752025 93.331 138.9727
1662.714055 93.334 139.1902
1674.762766 93.336 139.4122
1686.898788 93.336 139.6352
1699.122752 93.335 139.8570
1711.435296 93.333 140.0773
1723.837061 93.328 140.2982
1736.328695 93.321 140.5233
1748.910849 93.311 140.7573
1761.584178 93.300 141.0045
1774.349343 93.288 141.2676
1787.207010 93.276 141.5474
1800.157848 93.264 141.8423
1813.202534 93.254 142.1489
1826.341747 93.245 142.4628
1839.576172 93.237 142.7788
1852.906500 93.230 143.0928
1866.333424 93.223 143.4010
1879.857645 93.217 143.7009
1893.479869 93.210 143.9908
1907.200804 93.201 144.2704
1921.021168 93.190 144.5400
1934.941679 93.177 144.8020
1948.963064 93.160 145.0595
1963.086054 93.139 145.3168
1977.311384 93.116 145.5787
1991.639798 93.089 145.8495
2006.072041 93.059 146.1326
2020.608866 93.027 146.4300
2035.251031 92.995 146.7415
2049.999299 92.962 147.0657
2064.854438 92.929 147.3996
2079.817225 92.898 147.7395
2094.888438 92.869 148.0815
2110.068863 92.841 148.4220
2125.359292 92.815 148.7581
2140.760521 92.791 149.0877
2156.273355 92.769 149.4100
2171.898600 92.748 149.7252
2187.637073 92.729 150.0344
2203.489593 92.712 150.3391
2219.456987 92.696 150.6412
2235.540087 92.683 150.9419
2251.739732 92.671 151.2421
2268.056766 92.663 151.5419
2284.492041 92.657 151.8418
2301.046412 92.654 152.1419
2317.720742 92.654 152.4424
2334.515902 92.659 152.7434
2351.432767 92.667 153.0440
2368.472218 92.681 153.3425
2385.635144 92.700 153.6362
2402.922440 92.725 153.9213
2420.335006 92.756 154.1937
2437.873752 92.793 154.4488
2455.539590 92.835 154.6827
2473.333442 92.884 154.8917
2491.256235 92.937 155.0733
2509.308905 92.995 155.2258
2527.492392 93.057 155.3490
2545.807644 93.122 155.4442
2564.255615 93.190 155.5139
2582.837268 93.260 155.5613
2601.553572 93.333 155.5897
2620.405502 93.408 155.6021
2639.394040 93.485 155.6011
2658.520177 93.564 155.5886
2677.784910 93.645 155.5656
2697.189244 93.729 155.5325
2716.734189 93.815 155.4893
2736.420765 93.903 155.4348
2756.249998 93.993 155.3682
2776.222921 94.084 155.2885
2796.340577 94.177 155.1947
2816.604013 94.270 155.0867
2837.014287 94.363 154.9642
2857.572462 94.456 154.8275
2878.279610 94.548 154.6771
2899.136811 94.638 154.5145
2920.145151 94.725 154.3413
2941.305727 94.810 154.1597
2962.619641 94.892 153.9716
2984.088004 94.970 153.7785
3005.711935 95.043 153.5822
3027.492563 95.112 153.3839
3049.431022 95.175 153.1854
3071.528457 95.233 152.9885
3093.786018 95.285 152.7947
3116.204867 95.330 152.6058
3138.786172 95.369 152.4230
3161.531110 95.401 152.2469
3184.440868 95.426 152.0779
3207.516639 95.445 151.9150
3230.759627 95.456 151.7579
3254.171043 95.460 151.6055
3277.752108 95.457 151.4576
3301.504051 95.447 151.3146
3325.428110 95.429 151.1770
3349.525533 95.403 151.0461
3373.797576 95.371 150.9232
3398.245504 95.331 150.8095
3422.870591 95.285 150.7063
3447.674123 95.233 150.6146
3472.657391 95.176 150.5354
3497.821698 95.113 150.4698
3523.168356 95.047 150.4187
3548.698686 94.977 150.3830
3574.414019 94.904 150.3635
3600.315697 94.829 150.3609
3626.405068 94.753 150.3757
3652.683494 94.677 150.4086
3679.152345 94.600 150.4604
3705.812999 94.525 150.5320
3732.666848 94.451 150.6245
3759.715291 94.380 150.7390
3786.959737 94.312 150.8768
3814.401609 94.247 151.0386
3842.042335 94.187 151.2258
3869.883358 94.131 151.4394
3897.926128 94.080 151.6813
3926.172107 94.035 151.9535
3954.622769 93.996 152.2584
3983.279596 93.963 152.5980
4012.144082 93.937 152.9739
4041.217732 93.919 153.3870
4070.502061 93.908 153.8371
4099.998597 93.906 154.3230
4129.708877 93.912 154.8425
4159.634450 93.927 155.3922
4189.776876 93.951 155.9672
4220.137726 93.984 156.5614
4250.718584 94.026 157.1674
4281.521043 94.077 157.7764
4312.546709 94.137 158.3785
4343.797200 94.204 158.9630
4375.274146 94.278 159.5187
4406.979186 94.359 160.0345
4438.913974 94.444 160.4997
4471.080174 94.533 160.9047
4503.479464 94.624 161.2418
4536.113533 94.715 161.5053
4568.984081 94.804 161.6920
4602.092823 94.891 161.8008
4635.441485 94.974 161.8330
4669.031805 95.051 161.7911
4702.865534 95.121 161.6791
4736.944436 95.185 161.5016
4771.270288 95.241 161.2639
4805.844880 95.289 160.9711
4840.670013 95.328 160.6291
4875.747503 95.359 160.2434
4911.079179 95.381 159.8198
4946.666884 95.393 159.3638
4982.512471 95.397 158.8812
5018.617810 95.391 158.3777
5054.984784 95.376 157.8597
5091.615287 95.351 157.3344
5128.511230 95.316 156.8102
5165.674537 95.270 156.2972
5203.107144 95.213 155.8067
5240.811003 95.147 155.3510
5278.788080 95.069 154.9439
5317.040355 94.983 154.5998
5355.569821 94.888 154.3336
5394.378487 94.785 154.1599
5433.468378 94.678 154.0919
5472.841529 94.568 154.1410
5512.499995 94.458 154.3149
5552.445842 94.352 154.6167
5592.681154 94.253 155.0444
5633.208027 94.163 155.5895
5674.028574 94.086 156.2377
5715.144924 94.024 156.9692
5756.559221 93.978 157.7596
5798.273622 93.949 158.5825
5840.290302 93.934 159.4104
5882.611454 93.934 160.2183
5925.239281 93.943 160.9849
5968.176007 93.960 161.6947
6011.423871 93.981 162.3388
6054.985126 94.001 162.9152
6098.862045 94.017 163.4283
6143.056913 94.026 163.8887
6187.572036 94.025 164.3113
6232.409733 94.012 164.7155
6277.572344 93.986 165.1232
6323.062220 93.947 165.5579
6368.881736 93.894 166.0428
6415.033278 93.831 166.6004
6461.519254 93.757 167.2496
6508.342086 93.678 168.0058
6555.504216 93.595 168.8787
6603.008102 93.513 169.8721
6650.856220 93.435 170.9825
6699.051066 93.367 172.1985
6747.595151 93.311 173.5009
6796.491007 93.271 174.8622
6845.741183 93.250 176.2488
6895.348246 93.250 177.6218
6945.314781 93.271 178.9402
6995.643395 93.312 -179.8362
7046.336711 93.371 -178.7437
7097.397372 93.446 -177.8123
7148.828039 93.532 -177.0647
7200.631394 93.626 -176.5159
7252.810137 93.724 -176.1747
7305.366989 93.821 -176.0447
7358.304690 93.914 -176.1260
7411.625999 93.999 -176.4169
7465.333696 94.073 -176.9141
7519.430581 94.133 -177.6136
7573.919475 94.174 -178.5105
7628.803218 94.192 -179.5974
7684.084670 94.184 179.1358
7739.766716 94.144 177.7040
7795.852256 94.067 176.1281
7852.344215 93.948 174.4371
7909.245538 93.781 172.6703
7966.559191 93.561 170.8788
8024.288163 93.284 169.1287
8082.435463 92.945 167.5027
8141.004122 92.542 166.1045
8199.997194 92.075 165.0617
8259.417754 91.547 164.5321
8319.268900 90.961 164.7099
8379.553752 90.329 165.8331
8440.275452 89.665 168.1856
8501.437168 88.990 172.0799
8563.042086 88.332 177.7894
8625.093419 87.723 -174.6075
8687.594401 87.198 -165.4520
8750.548291 86.790 -155.5964
8813.958371 86.522 -146.1216
8877.827947 86.399 -137.8398
8942.160348 86.413 -131.0579
9006.958928 86.542 -125.7007
9072.227065 86.761 -121.5326
9137.968162 87.042 -118.3008
9204.185647 87.365 -115.7936
9270.882970 87.712 -113.8513
9338.063610 88.072 -112.3609
9405.731068 88.437 -111.2455
9473.888873 88.799 -110.4548
9542.540577 89.156 -109.9576
9611.689759 89.504 -109.7354
9681.340025 89.840 -109.7775
9751.495006 90.161 -110.0781
9822.158359 90.463 -110.6326
9893.333767 90.744 -111.4360
9965.024942 90.999 -112.4816
10037.235620 91.225 -113.7591
10109.969567 91.417 -115.2545
10183.230574 91.573 -116.9496
10257.022461 91.688 -118.8221
10331.349074 91.758 -120.8456
10406.214288 91.783 -122.9901
10481.622007 91.758 -125.2220
10557.576160 91.682 -127.5057
10634.080709 91.555 -129.8036
10711.139642 91.375 -132.0771
10788.756975 91.145 -134.2878
10866.936755 90.864 -136.3983
10945.683059 90.535 -138.3728
11024.999990 90.161 -140.1786
11104.891685 89.745 -141.7868
11185.362308 89.292 -143.1738
11266.416054 88.805 -144.3231
11348.057149 88.292 -145.2269
11430.289849 87.758 -145.8883
11513.118441 87.209 -146.3228
11596.547243 86.653 -146.5589
11680.580605 86.095 -146.6375
11765.222907 85.541 -146.6083
11850.478562 84.995 -146.5260
11936.352015 84.460 -146.4427
12022.847742 83.935 -146.4020
12109.970253 83.419 -146.4326
12197.724089 82.909 -146.5436
12286.113826 82.400 -146.7229
12375.144072 81.887 -146.9370
12464.819467 81.369 -147.1343
12555.144687 80.844 -147.2501
12646.124441 80.319 -147.2150
12737.763472 79.804 -146.9674
12830.066557 79.318 -146.4705
12923.038508 78.887 -145.7335
13016.684172 78.543 -144.8323
13111.008431 78.320 -143.9204
13206.016203 78.243 -143.2190
13301.712440 78.325 -142.9808
13398.102132 78.557 -143.4409
13495.190303 78.915 -144.7726
13592.982015 79.364 -147.0668
13691.482366 79.870 -150.3342
13790.696491 80.403 -154.5214
13890.629563 80.938 -159.5317
13991.286791 81.460 -165.2435
14092.673422 81.957 -171.5250
14194.794743 82.422 -178.2463
14297.656077 82.850 174.7134
14401.262787 83.238 167.4604
14505.620274 83.582 160.0845
14610.733978 83.879 152.6606
14716.609379 84.125 145.2507
14823.251997 84.319 137.9070
14930.667392 84.456 130.6752
15038.861162 84.538 123.5955
15147.838950 84.565 116.7027
15257.606435 84.541 110.0235
15368.169341 84.471 103.5748
15479.533431 84.363 97.3609
15591.704511 84.224 91.3728
15704.688430 84.061 85.5896
15818.491076 83.881 79.9823
15933.118383 83.686 74.5193
16048.576327 83.476 69.1735
16164.870926 83.247 63.9265
16282.008245 82.998 58.7708
16399.994388 82.724 53.7078
16518.835508 82.425 48.7447
16638.537799 82.100 43.8906
16759.107503 81.754 39.1542
16880.550905 81.390 34.5430
17002.874335 81.018 30.0624
17126.084171 80.649 25.7164
17250.186837 80.299 21.5046
17375.188802 79.987 17.4176
17501.096582 79.740 13.4288
17627.916743 79.581 9.4853
17755.655894 79.530 5.4994
17884.320696 79.596 1.3460
18013.917856 79.771 -3.1323
18144.454131 80.031 -8.1101
18275.936325 80.343 -13.7592
18408.371293 80.669 -20.2291
18541.765940 80.975 -27.6324
18676.127219 81.230 -36.0391
18811.462136 81.416 -45.4697
18947.777745 81.520 -55.8782
19085.081153 81.539 -67.1127
19223.379519 81.481 -78.8449
19362.680051 81.362 -90.5023
19502.990012 81.206 -101.2757
19644.316718 81.046 -110.2627
19786.667534 80.914 -116.6821
19930.049884 80.840 -120.0132
