* Measurement data measured by REW V5.31.3
* Source: EXCL: Headset (USB-C to 3.5mm Headphone Jack Adapter), MICROPHONE (Master Volume), 0, volume: 0.750
* Format: 256k Log Swept Sine, 1 sweep at -12.0 dBFS with no timing reference
* Dated: Apr 1, 2025 10:11:53 PM
* REW Settings:
*  C-weighting compensation: Off
*  Target level: 75.0 dB
* Note: ; 
* Measurement: HD6XX L6
* Smoothing: 1/6 octave
* Frequency Step: 96 ppo
* Start Frequency: 20.0 Hz
*
* Freq(Hz) SPL(dB) Phase(degrees)
20.033247 84.083 -95.3877
20.178416 84.155 -95.7421
20.324637 84.229 -96.0695
20.471918 84.307 -96.3699
20.620266 84.389 -96.6452
20.769689 84.478 -96.8995
20.920195 84.572 -97.1382
21.071791 84.674 -97.3676
21.224486 84.781 -97.5940
21.378287 84.893 -97.8235
21.533203 85.011 -98.0614
21.689242 85.131 -98.3117
21.846411 85.253 -98.5772
22.004719 85.376 -98.8595
22.164174 85.497 -99.1591
22.324785 85.616 -99.4756
22.486559 85.732 -99.8077
22.649506 85.843 -100.1542
22.813634 85.948 -100.5131
22.978951 86.047 -100.8824
23.145466 86.139 -101.2607
23.313188 86.224 -101.6459
23.482124 86.301 -102.0367
23.652286 86.370 -102.4318
23.823680 86.431 -102.8300
23.996316 86.485 -103.2308
24.170203 86.532 -103.6335
24.345351 86.573 -104.0379
24.521767 86.608 -104.4438
24.699462 86.637 -104.8510
24.878444 86.661 -105.2589
25.058724 86.681 -105.6667
25.240310 86.697 -106.0734
25.423211 86.710 -106.4768
25.607438 86.720 -106.8749
25.793000 86.729 -107.2655
25.979907 86.736 -107.6465
26.168168 86.744 -108.0162
26.357794 86.752 -108.3742
26.548793 86.762 -108.7212
26.741176 86.775 -109.0591
26.934954 86.791 -109.3911
27.130136 86.810 -109.7211
27.326732 86.833 -110.0531
27.524753 86.860 -110.3907
27.724208 86.889 -110.7360
27.925110 86.921 -111.0896
28.127466 86.954 -111.4501
28.331290 86.988 -111.8147
28.536590 87.023 -112.1791
28.743378 87.058 -112.5389
28.951664 87.094 -112.8904
29.161460 87.132 -113.2307
29.372776 87.173 -113.5591
29.585623 87.216 -113.8771
29.800013 87.264 -114.1874
30.015956 87.315 -114.4943
30.233464 87.371 -114.8018
30.452548 87.430 -115.1136
30.673220 87.493 -115.4321
30.895490 87.559 -115.7578
31.119372 87.628 -116.0897
31.344876 87.700 -116.4258
31.572014 87.775 -116.7635
31.800797 87.852 -117.1005
32.031239 87.933 -117.4352
32.263351 88.017 -117.7670
32.497144 88.105 -118.0966
32.732632 88.196 -118.4249
32.969826 88.291 -118.7532
33.208739 88.388 -119.0825
33.449383 88.487 -119.4133
33.691771 88.589 -119.7451
33.935916 88.691 -120.0773
34.181829 88.795 -120.4087
34.429525 88.899 -120.7388
34.679015 89.004 -121.0672
34.930314 89.110 -121.3945
35.183433 89.215 -121.7219
35.438387 89.320 -122.0509
35.695188 89.425 -122.3831
35.953850 89.529 -122.7198
36.214387 89.632 -123.0620
36.476811 89.732 -123.4097
36.741137 89.830 -123.7623
37.007378 89.926 -124.1188
37.275549 90.018 -124.4777
37.545663 90.107 -124.8375
37.817734 90.194 -125.1974
38.091777 90.277 -125.5567
38.367806 90.358 -125.9156
38.645835 90.436 -126.2745
38.925879 90.511 -126.6339
39.207952 90.582 -126.9937
39.492069 90.651 -127.3528
39.778244 90.716 -127.7096
40.066494 90.778 -128.0615
40.356832 90.837 -128.4064
40.649275 90.894 -128.7427
40.943836 90.949 -129.0706
41.240532 91.004 -129.3917
41.539378 91.058 -129.7091
41.840389 91.112 -130.0266
42.143582 91.165 -130.3471
42.448972 91.217 -130.6726
42.756574 91.268 -131.0033
43.066406 91.317 -131.3377
43.378483 91.364 -131.6733
43.692822 91.410 -132.0075
44.009438 91.454 -132.3383
44.328348 91.498 -132.6646
44.649570 91.541 -132.9867
44.973119 91.583 -133.3060
45.299013 91.625 -133.6240
45.627268 91.667 -133.9420
45.957902 91.707 -134.2608
46.290932 91.747 -134.5798
46.626375 91.785 -134.8981
46.964249 91.821 -135.2144
47.304571 91.857 -135.5277
47.647360 91.891 -135.8380
47.992632 91.923 -136.1461
48.340407 91.955 -136.4527
48.690701 91.984 -136.7582
49.043534 92.012 -137.0619
49.398924 92.038 -137.3625
49.756889 92.061 -137.6583
50.117447 92.084 -137.9483
50.480619 92.105 -138.2330
50.846423 92.125 -138.5142
51.214877 92.145 -138.7947
51.586001 92.165 -139.0775
51.959814 92.184 -139.3652
52.336336 92.203 -139.6596
52.715587 92.221 -139.9615
53.097586 92.239 -140.2711
53.482353 92.257 -140.5880
53.869908 92.274 -140.9117
54.260272 92.291 -141.2414
54.653464 92.308 -141.5762
55.049506 92.326 -141.9152
55.448417 92.344 -142.2578
55.850219 92.363 -142.6030
56.254933 92.383 -142.9500
56.662579 92.404 -143.2968
57.073180 92.425 -143.6419
57.486755 92.448 -143.9830
57.903328 92.473 -144.3178
58.322919 92.499 -144.6442
58.745551 92.527 -144.9599
59.171246 92.557 -145.2631
59.600025 92.589 -145.5529
60.031911 92.625 -145.8298
60.466927 92.664 -146.0961
60.905096 92.707 -146.3560
61.346439 92.753 -146.6138
61.790981 92.802 -146.8741
62.238744 92.854 -147.1401
62.689751 92.909 -147.4142
63.144027 92.964 -147.6974
63.601595 93.021 -147.9902
64.062478 93.078 -148.2927
64.526701 93.136 -148.6039
64.994288 93.193 -148.9232
65.465264 93.251 -149.2494
65.939652 93.309 -149.5812
66.417478 93.367 -149.9180
66.898766 93.424 -150.2592
67.383542 93.481 -150.6041
67.871831 93.537 -150.9524
68.363659 93.593 -151.3036
68.859050 93.648 -151.6570
69.358031 93.701 -152.0118
69.860628 93.752 -152.3670
70.366867 93.802 -152.7218
70.876774 93.849 -153.0754
71.390376 93.893 -153.4272
71.907700 93.934 -153.7769
72.428773 93.973 -154.1243
72.953622 94.009 -154.4697
73.482274 94.041 -154.8135
74.014757 94.071 -155.1564
74.551098 94.098 -155.4990
75.091326 94.121 -155.8419
75.635469 94.142 -156.1859
76.183555 94.161 -156.5316
76.735612 94.177 -156.8793
77.291670 94.192 -157.2295
77.851757 94.204 -157.5822
78.415903 94.215 -157.9371
78.984137 94.225 -158.2938
79.556489 94.234 -158.6516
80.132988 94.241 -159.0098
80.713665 94.249 -159.3673
81.298549 94.256 -159.7233
81.887672 94.262 -160.0768
82.481064 94.269 -160.4275
83.078756 94.275 -160.7748
83.680778 94.282 -161.1187
84.287164 94.288 -161.4590
84.897943 94.294 -161.7963
85.513149 94.300 -162.1306
86.132812 94.305 -162.4623
86.756966 94.310 -162.7919
87.385643 94.314 -163.1198
88.018875 94.318 -163.4470
88.656696 94.320 -163.7743
89.299139 94.323 -164.1030
89.946238 94.324 -164.4343
90.598025 94.325 -164.7692
91.254536 94.326 -165.1083
91.915804 94.326 -165.4513
92.581864 94.325 -165.7980
93.252750 94.325 -166.1476
93.928498 94.324 -166.4991
94.609143 94.323 -166.8517
95.294719 94.321 -167.2045
95.985264 94.320 -167.5565
96.680813 94.319 -167.9067
97.381402 94.318 -168.2544
98.087068 94.318 -168.5987
98.797847 94.318 -168.9393
99.513777 94.318 -169.2758
100.234895 94.318 -169.6084
100.961238 94.319 -169.9370
101.692845 94.321 -170.2618
102.429753 94.324 -170.5831
103.172002 94.327 -170.9011
103.919628 94.330 -171.2162
104.672673 94.335 -171.5292
105.431174 94.341 -171.8413
106.195172 94.348 -172.1537
106.964706 94.356 -172.4681
107.739816 94.365 -172.7859
108.520543 94.374 -173.1079
109.306928 94.385 -173.4342
110.099011 94.397 -173.7644
110.896834 94.409 -174.0977
111.700438 94.421 -174.4328
112.509866 94.433 -174.7685
113.325158 94.446 -175.1033
114.146359 94.458 -175.4360
114.973511 94.470 -175.7654
115.806656 94.482 -176.0908
116.645839 94.493 -176.4121
117.491103 94.505 -176.7294
118.342492 94.515 -177.0430
119.200050 94.525 -177.3536
120.063823 94.535 -177.6620
120.933855 94.544 -177.9684
121.810191 94.553 -178.2732
122.692878 94.560 -178.5763
123.581962 94.567 -178.8776
124.477487 94.573 -179.1770
125.379503 94.578 -179.4744
126.288054 94.582 -179.7698
127.203189 94.586 179.9366
128.124956 94.588 179.6449
129.053402 94.590 179.3549
129.988577 94.590 179.0668
130.930527 94.590 178.7805
131.879304 94.589 178.4962
132.834956 94.586 178.2137
133.797533 94.582 177.9332
134.767085 94.578 177.6544
135.743663 94.571 177.3773
136.727317 94.564 177.1020
137.718100 94.555 176.8286
138.716062 94.544 176.5573
139.721255 94.533 176.2881
140.733733 94.520 176.0211
141.753548 94.506 175.7561
142.780753 94.492 175.4929
143.815401 94.476 175.2313
144.857546 94.459 174.9708
145.907244 94.442 174.7109
146.964548 94.423 174.4515
148.029514 94.405 174.1925
149.102197 94.386 173.9339
150.182652 94.366 173.6760
151.270938 94.346 173.4192
152.367109 94.326 173.1636
153.471224 94.307 172.9095
154.583340 94.287 172.6569
155.703515 94.268 172.4056
156.831807 94.248 172.1556
157.968274 94.229 171.9069
159.112978 94.211 171.6594
160.265976 94.193 171.4135
161.427329 94.175 171.1691
162.597098 94.157 170.9268
163.775344 94.140 170.6864
164.962128 94.123 170.4482
166.157511 94.106 170.2122
167.361557 94.089 169.9779
168.574328 94.071 169.7452
169.795887 94.054 169.5137
171.026298 94.037 169.2833
172.265625 94.020 169.0540
173.513933 94.002 168.8257
174.771286 93.985 168.5984
176.037751 93.967 168.3718
177.313393 93.949 168.1455
178.598279 93.930 167.9191
179.892476 93.910 167.6922
181.196051 93.890 167.4647
182.509072 93.869 167.2366
183.831608 93.848 167.0082
185.163728 93.826 166.7797
186.505500 93.803 166.5516
187.856996 93.781 166.3242
189.218285 93.757 166.0981
190.589439 93.733 165.8740
191.970529 93.709 165.6526
193.361626 93.685 165.4348
194.762804 93.661 165.2213
196.174136 93.636 165.0126
197.595694 93.612 164.8088
199.027554 93.588 164.6097
200.469790 93.565 164.4147
201.922477 93.541 164.2230
203.385690 93.517 164.0334
204.859507 93.493 163.8451
206.344003 93.469 163.6569
207.839257 93.446 163.4681
209.345346 93.422 163.2789
210.862348 93.398 163.0898
212.390344 93.375 162.9015
213.929412 93.351 162.7148
215.479633 93.327 162.5304
217.041087 93.303 162.3488
218.613856 93.280 162.1699
220.198022 93.257 161.9938
221.793668 93.234 161.8203
223.400876 93.213 161.6491
225.019731 93.193 161.4798
226.650317 93.174 161.3119
228.292718 93.157 161.1451
229.947022 93.141 160.9792
231.613312 93.127 160.8143
233.291678 93.114 160.6505
234.982206 93.103 160.4883
236.684984 93.093 160.3275
238.400101 93.085 160.1683
240.127646 93.077 160.0103
241.867710 93.071 159.8531
243.620383 93.066 159.6962
245.385757 93.062 159.5394
247.163923 93.059 159.3823
248.954975 93.055 159.2250
250.759005 93.053 159.0677
252.576108 93.050 158.9107
254.406379 93.048 158.7544
256.249912 93.045 158.5990
258.106805 93.042 158.4448
259.977153 93.039 158.2923
261.861055 93.035 158.1418
263.758608 93.031 157.9939
265.669911 93.027 157.8493
267.595065 93.023 157.7086
269.534169 93.017 157.5723
271.487325 93.012 157.4409
273.454634 93.006 157.3141
275.436199 92.999 157.1913
277.432123 92.991 157.0714
279.442511 92.984 156.9533
281.467467 92.976 156.8359
283.507096 92.968 156.7184
285.561505 92.961 156.5999
287.630801 92.954 156.4801
289.715093 92.948 156.3584
291.814488 92.943 156.2347
293.929096 92.938 156.1093
296.059027 92.933 155.9828
298.204393 92.929 155.8561
300.365305 92.924 155.7304
302.541876 92.920 155.6072
304.734219 92.916 155.4878
306.942449 92.913 155.3732
309.166680 92.909 155.2639
311.407029 92.907 155.1603
313.663613 92.904 155.0618
315.936549 92.902 154.9677
318.225955 92.901 154.8768
320.531952 92.900 154.7880
322.854659 92.900 154.7002
325.194197 92.899 154.6127
327.550688 92.899 154.5250
329.924255 92.899 154.4364
332.315022 92.898 154.3466
334.723114 92.896 154.2550
337.148655 92.893 154.1617
339.591774 92.890 154.0668
342.052596 92.885 153.9708
344.531250 92.878 153.8745
347.027865 92.871 153.7784
349.542572 92.863 153.6835
352.075502 92.853 153.5900
354.626786 92.843 153.4984
357.196558 92.832 153.4089
359.784951 92.820 153.3215
362.392101 92.808 153.2363
365.018144 92.795 153.1534
367.663216 92.781 153.0731
370.327455 92.766 152.9951
373.011000 92.751 152.9193
375.713992 92.736 152.8452
378.436570 92.720 152.7725
381.178878 92.705 152.7009
383.941057 92.689 152.6298
386.723252 92.673 152.5590
389.525608 92.657 152.4883
392.348271 92.641 152.4179
395.191389 92.625 152.3484
398.055108 92.608 152.2807
400.939580 92.590 152.2155
403.844953 92.571 152.1537
406.771380 92.552 152.0956
409.719013 92.531 152.0411
412.688006 92.510 151.9897
415.678514 92.487 151.9402
418.690692 92.464 151.8918
421.724697 92.439 151.8436
424.780688 92.413 151.7952
427.858824 92.387 151.7462
430.959265 92.358 151.6967
434.082174 92.329 151.6471
437.227712 92.299 151.5976
440.396044 92.267 151.5485
443.587336 92.235 151.4999
446.801752 92.201 151.4522
450.039462 92.166 151.4055
453.300634 92.131 151.3598
456.585437 92.095 151.3151
459.894043 92.059 151.2712
463.226625 92.023 151.2278
466.583356 91.986 151.1847
469.964411 91.951 151.1417
473.369967 91.915 151.0988
476.800201 91.881 151.0560
480.255292 91.847 151.0134
483.735420 91.815 150.9711
487.240766 91.784 150.9289
490.771513 91.754 150.8866
494.327846 91.726 150.8439
497.909949 91.699 150.8007
501.518010 91.673 150.7570
505.152216 91.649 150.7131
508.812758 91.627 150.6692
512.499825 91.606 150.6256
516.213610 91.587 150.5826
519.954306 91.570 150.5402
523.722109 91.555 150.4983
527.517216 91.542 150.4567
531.339823 91.530 150.4150
535.190130 91.521 150.3735
539.068339 91.514 150.3318
542.974650 91.509 150.2903
546.909268 91.505 150.2490
550.872398 91.504 150.2079
554.864247 91.504 150.1674
558.885022 91.505 150.1277
562.934933 91.508 150.0892
567.014192 91.512 150.0522
571.123010 91.516 150.0172
575.261603 91.521 149.9844
579.430186 91.527 149.9540
583.628976 91.532 149.9266
587.858192 91.538 149.9025
592.118055 91.543 149.8821
596.408786 91.549 149.8659
600.730610 91.554 149.8540
605.083752 91.559 149.8461
609.468438 91.564 149.8418
613.884897 91.570 149.8402
618.333360 91.575 149.8401
622.814059 91.580 149.8406
627.327226 91.584 149.8403
631.873098 91.589 149.8385
636.451911 91.592 149.8343
641.063904 91.595 149.8271
645.709317 91.597 149.8170
650.388393 91.598 149.8038
655.101375 91.597 149.7882
659.848510 91.595 149.7708
664.630044 91.592 149.7521
669.446228 91.588 149.7331
674.297311 91.583 149.7144
679.183547 91.577 149.6965
684.105191 91.570 149.6797
689.062499 91.562 149.6641
694.055730 91.554 149.6489
699.085144 91.545 149.6332
704.151003 91.536 149.6157
709.253572 91.526 149.5949
714.393116 91.515 149.5690
719.569903 91.503 149.5367
724.784203 91.489 149.4969
730.036288 91.474 149.4493
735.326432 91.456 149.3943
740.654910 91.436 149.3329
746.022001 91.414 149.2671
751.427984 91.388 149.1994
756.873141 91.359 149.1332
762.357756 91.327 149.0720
767.882114 91.292 149.0197
773.446504 91.255 148.9792
779.051217 91.217 148.9529
784.696543 91.178 148.9417
790.382778 91.139 148.9449
796.110217 91.101 148.9610
801.879160 91.064 148.9868
807.689907 91.029 149.0187
813.542761 90.997 149.0524
819.438027 90.968 149.0837
825.376013 90.941 149.1085
831.357028 90.916 149.1230
837.381383 90.893 149.1243
843.449394 90.871 149.1104
849.561376 90.850 149.0809
855.717648 90.828 149.0370
861.918531 90.805 148.9817
868.164348 90.781 148.9192
874.455424 90.754 148.8552
880.792089 90.725 148.7961
887.174671 90.693 148.7492
893.603505 90.659 148.7214
900.078924 90.624 148.7193
906.601267 90.588 148.7487
913.170874 90.553 148.8137
919.788086 90.519 148.9165
926.453250 90.490 149.0565
933.166712 90.466 149.2308
939.928823 90.448 149.4338
946.739934 90.437 149.6580
953.600402 90.435 149.8943
960.510584 90.442 150.1335
967.470839 90.456 150.3668
974.481532 90.479 150.5865
981.543027 90.509 150.7870
988.655692 90.545 150.9636
995.819899 90.588 151.1136
1003.036020 90.634 151.2357
1010.304433 90.685 151.3293
1017.625515 90.739 151.3954
1024.999649 90.796 151.4355
1032.427219 90.854 151.4518
1039.908612 90.913 151.4468
1047.444219 90.974 151.4233
1055.034432 91.035 151.3835
1062.679646 91.097 151.3295
1070.380261 91.159 151.2623
1078.136677 91.221 151.1830
1085.949300 91.282 151.0921
1093.818536 91.344 150.9899
1101.744796 91.404 150.8772
1109.728493 91.464 150.7550
1117.770043 91.521 150.6248
1125.869866 91.577 150.4887
1134.028383 91.631 150.3488
1142.246020 91.684 150.2069
1150.523206 91.734 150.0646
1158.860371 91.784 149.9225
1167.257951 91.832 149.7809
1175.716383 91.878 149.6394
1184.236109 91.924 149.4979
1192.817572 91.968 149.3564
1201.461220 92.011 149.2155
1210.167503 92.053 149.0764
1218.936876 92.093 148.9407
1227.769795 92.133 148.8099
1236.666721 92.172 148.6849
1245.628118 92.212 148.5659
1254.654453 92.251 148.4518
1263.746196 92.291 148.3412
1272.903822 92.331 148.2327
1282.127808 92.371 148.1251
1291.418634 92.411 148.0177
1300.776786 92.452 147.9103
1310.202751 92.491 147.8029
1319.697020 92.531 147.6957
1329.260089 92.569 147.5894
1338.892455 92.607 147.4843
1348.594622 92.645 147.3810
1358.367094 92.682 147.2808
1368.210382 92.718 147.1848
1378.124999 92.754 147.0941
1388.111461 92.791 147.0100
1398.170288 92.827 146.9329
1408.302007 92.865 146.8628
1418.507144 92.904 146.7993
1428.786231 92.944 146.7427
1439.139805 92.985 146.6931
1449.568405 93.028 146.6519
1460.072576 93.072 146.6200
1470.652863 93.118 146.5986
1481.309820 93.166 146.5880
1492.044002 93.216 146.5876
1502.855968 93.268 146.5959
1513.746282 93.322 146.6106
1524.715511 93.378 146.6283
1535.764228 93.434 146.6459
1546.893009 93.491 146.6604
1558.102433 93.547 146.6699
1569.393086 93.601 146.6738
1580.765555 93.654 146.6720
1592.220434 93.703 146.6649
1603.758320 93.749 146.6531
1615.379813 93.792 146.6378
1627.085521 93.830 146.6201
1638.876054 93.863 146.6016
1650.752025 93.892 146.5845
1662.714055 93.917 146.5706
1674.762766 93.937 146.5622
1686.898788 93.953 146.5616
1699.122752 93.965 146.5714
1711.435296 93.974 146.5935
1723.837061 93.980 146.6302
1736.328695 93.984 146.6827
1748.910849 93.987 146.7515
1761.584178 93.989 146.8356
1774.349343 93.990 146.9330
1787.207010 93.991 147.0408
1800.157848 93.993 147.1559
1813.202534 93.995 147.2755
1826.341747 93.997 147.3969
1839.576172 93.999 147.5181
1852.906500 94.000 147.6376
1866.333424 94.000 147.7549
1879.857645 93.998 147.8705
1893.479869 93.994 147.9859
1907.200804 93.988 148.1029
1921.021168 93.980 148.2234
1934.941679 93.969 148.3488
1948.963064 93.956 148.4796
1963.086054 93.942 148.6157
1977.311384 93.926 148.7566
1991.639798 93.908 148.9012
2006.072041 93.890 149.0482
2020.608866 93.871 149.1953
2035.251031 93.852 149.3395
2049.999299 93.833 149.4779
2064.854438 93.813 149.6074
2079.817225 93.793 149.7261
2094.888438 93.773 149.8330
2110.068863 93.753 149.9280
2125.359292 93.731 150.0117
2140.760521 93.708 150.0857
2156.273355 93.685 150.1522
2171.898600 93.661 150.2141
2187.637073 93.636 150.2742
2203.489593 93.610 150.3349
2219.456987 93.584 150.3975
2235.540087 93.559 150.4626
2251.739732 93.534 150.5306
2268.056766 93.510 150.6019
2284.492041 93.487 150.6773
2301.046412 93.464 150.7584
2317.720742 93.443 150.8467
2334.515902 93.424 150.9440
2351.432767 93.407 151.0513
2368.472218 93.393 151.1689
2385.635144 93.381 151.2964
2402.922440 93.374 151.4326
2420.335006 93.370 151.5757
2437.873752 93.371 151.7240
2455.539590 93.377 151.8757
2473.333442 93.387 152.0292
2491.256235 93.402 152.1826
2509.308905 93.423 152.3342
2527.492392 93.449 152.4830
2545.807644 93.480 152.6279
2564.255615 93.517 152.7687
2582.837268 93.558 152.9052
2601.553572 93.605 153.0372
2620.405502 93.657 153.1652
2639.394040 93.713 153.2897
2658.520177 93.774 153.4111
2677.784910 93.840 153.5298
2697.189244 93.911 153.6454
2716.734189 93.987 153.7571
2736.420765 94.067 153.8638
2756.249998 94.152 153.9636
2776.222921 94.242 154.0546
2796.340577 94.336 154.1340
2816.604013 94.434 154.1990
2837.014287 94.536 154.2469
2857.572462 94.640 154.2756
2878.279610 94.746 154.2833
2899.136811 94.852 154.2692
2920.145151 94.959 154.2325
2941.305727 95.065 154.1734
2962.619641 95.170 154.0923
2984.088004 95.272 153.9902
3005.711935 95.370 153.8683
3027.492563 95.465 153.7287
3049.431022 95.554 153.5739
3071.528457 95.638 153.4065
3093.786018 95.716 153.2291
3116.204867 95.788 153.0439
3138.786172 95.853 152.8530
3161.531110 95.911 152.6576
3184.440868 95.963 152.4589
3207.516639 96.007 152.2571
3230.759627 96.044 152.0527
3254.171043 96.074 151.8454
3277.752108 96.096 151.6348
3301.504051 96.112 151.4200
3325.428110 96.119 151.2006
3349.525533 96.120 150.9761
3373.797576 96.113 150.7468
3398.245504 96.099 150.5140
3422.870591 96.077 150.2798
3447.674123 96.049 150.0465
3472.657391 96.014 149.8167
3497.821698 95.973 149.5924
3523.168356 95.926 149.3756
3548.698686 95.875 149.1682
3574.414019 95.819 148.9721
3600.315697 95.761 148.7894
3626.405068 95.699 148.6225
3652.683494 95.635 148.4741
3679.152345 95.570 148.3467
3705.812999 95.505 148.2430
3732.666848 95.440 148.1652
3759.715291 95.377 148.1151
3786.959737 95.316 148.0941
3814.401609 95.258 148.1029
3842.042335 95.205 148.1421
3869.883358 95.157 148.2115
3897.926128 95.114 148.3107
3926.172107 95.078 148.4395
3954.622769 95.048 148.5978
3983.279596 95.025 148.7861
4012.144082 95.008 149.0054
4041.217732 95.000 149.2568
4070.502061 94.999 149.5411
4099.998597 95.006 149.8580
4129.708877 95.021 150.2061
4159.634450 95.046 150.5823
4189.776876 95.079 150.9818
4220.137726 95.122 151.3990
4250.718584 95.175 151.8264
4281.521043 95.236 152.2556
4312.546709 95.306 152.6770
4343.797200 95.386 153.0800
4375.274146 95.473 153.4528
4406.979186 95.567 153.7824
4438.913974 95.668 154.0555
4471.080174 95.774 154.2589
4503.479464 95.883 154.3809
4536.113533 95.993 154.4118
4568.984081 96.102 154.3456
4602.092823 96.208 154.1793
4635.441485 96.310 153.9131
4669.031805 96.405 153.5502
4702.865534 96.492 153.0951
4736.944436 96.570 152.5533
4771.270288 96.638 151.9305
4805.844880 96.696 151.2327
4840.670013 96.743 150.4656
4875.747503 96.778 149.6350
4911.079179 96.801 148.7471
4946.666884 96.811 147.8080
4982.512471 96.807 146.8242
5018.617810 96.790 145.8022
5054.984784 96.758 144.7495
5091.615287 96.710 143.6748
5128.511230 96.646 142.5888
5165.674537 96.563 141.5049
5203.107144 96.460 140.4392
5240.811003 96.338 139.4109
5278.788080 96.196 138.4418
5317.040355 96.033 137.5563
5355.569821 95.850 136.7804
5394.378487 95.649 136.1410
5433.468378 95.432 135.6639
5472.841529 95.203 135.3730
5512.499995 94.965 135.2881
5552.445842 94.724 135.4232
5592.681154 94.485 135.7853
5633.208027 94.254 136.3721
5674.028574 94.036 137.1713
5715.144924 93.837 138.1600
5756.559221 93.661 139.3060
5798.273622 93.510 140.5701
5840.290302 93.387 141.9088
5882.611454 93.289 143.2786
5925.239281 93.215 144.6393
5968.176007 93.162 145.9576
6011.423871 93.125 147.2090
6054.985126 93.099 148.3785
6098.862045 93.079 149.4611
6143.056913 93.060 150.4600
6187.572036 93.039 151.3858
6232.409733 93.012 152.2548
6277.572344 92.975 153.0873
6323.062220 92.928 153.9072
6368.881736 92.869 154.7407
6415.033278 92.797 155.6151
6461.519254 92.714 156.5588
6508.342086 92.621 157.5994
6555.504216 92.520 158.7629
6603.008102 92.416 160.0721
6650.856220 92.312 161.5453
6699.051066 92.214 163.1942
6747.595151 92.127 165.0216
6796.491007 92.059 167.0191
6845.741183 92.015 169.1643
6895.348246 92.003 171.4196
6945.314781 92.027 173.7313
6995.643395 92.091 176.0330
7046.336711 92.196 178.2491
7097.397372 92.342 -179.6981
7148.828039 92.524 -177.8815
7200.631394 92.736 -176.3629
7252.810137 92.971 -175.1886
7305.366989 93.220 -174.3879
7358.304690 93.473 -173.9740
7411.625999 93.722 -173.9458
7465.333696 93.958 -174.2908
7519.430581 94.172 -174.9882
7573.919475 94.358 -176.0104
7628.803218 94.509 -177.3256
7684.084670 94.619 -178.8981
7739.766716 94.683 179.3110
7795.852256 94.695 177.3442
7852.344215 94.653 175.2478
7909.245538 94.552 173.0732
7966.559191 94.388 170.8783
8024.288163 94.160 168.7297
8082.435463 93.866 166.7057
8141.004122 93.504 164.9004
8199.997194 93.076 163.4293
8259.417754 92.584 162.4374
8319.268900 92.035 162.1098
8379.553752 91.436 162.6852
8440.275452 90.804 164.4697
8501.437168 90.160 167.8375
8563.042086 89.532 173.1833
8625.093419 88.957 -179.2423
8687.594401 88.474 -169.6583
8750.548291 88.120 -159.0253
8813.958371 87.921 -148.7740
8877.827947 87.881 -140.0353
8942.160348 87.987 -133.2083
9006.958928 88.212 -128.1490
9072.227065 88.522 -124.5170
9137.968162 88.887 -121.9756
9204.185647 89.282 -120.2581
9270.882970 89.689 -119.1716
9338.063610 90.093 -118.5823
9405.731068 90.487 -118.3990
9473.888873 90.863 -118.5600
9542.540577 91.215 -119.0220
9611.689759 91.540 -119.7528
9681.340025 91.833 -120.7256
9751.495006 92.091 -121.9153
9822.158359 92.310 -123.2953
9893.333767 92.487 -124.8366
9965.024942 92.619 -126.5069
10037.235620 92.705 -128.2704
10109.969567 92.744 -130.0891
10183.230574 92.736 -131.9241
10257.022461 92.682 -133.7370
10331.349074 92.583 -135.4922
10406.214288 92.443 -137.1579
10481.622007 92.266 -138.7078
10557.576160 92.056 -140.1216
10634.080709 91.817 -141.3858
10711.139642 91.554 -142.4933
10788.756975 91.272 -143.4434
10866.936755 90.976 -144.2414
10945.683059 90.669 -144.8983
11024.999990 90.357 -145.4303
11104.891685 90.041 -145.8580
11185.362308 89.726 -146.2054
11266.416054 89.413 -146.4990
11348.057149 89.104 -146.7646
11430.289849 88.797 -147.0257
11513.118441 88.493 -147.2997
11596.547243 88.188 -147.5951
11680.580605 87.880 -147.9092
11765.222907 87.566 -148.2264
11850.478562 87.246 -148.5200
11936.352015 86.918 -148.7565
12022.847742 86.588 -148.9035
12109.970253 86.263 -148.9407
12197.724089 85.954 -148.8713
12286.113826 85.677 -148.7305
12375.144072 85.447 -148.5897
12464.819467 85.279 -148.5524
12555.144687 85.181 -148.7432
12646.124441 85.158 -149.2910
12737.763472 85.204 -150.3131
12830.066557 85.307 -151.9027
12923.038508 85.450 -154.1217
13016.684172 85.615 -156.9999
13111.008431 85.782 -160.5386
13206.016203 85.937 -164.7156
13301.712440 86.067 -169.4912
13398.102132 86.164 -174.8155
13495.190303 86.224 179.3664
13592.982015 86.248 173.1087
13691.482366 86.237 166.4625
13790.696491 86.195 159.4756
13890.629563 86.124 152.1937
13991.286791 86.028 144.6639
14092.673422 85.909 136.9369
14194.794743 85.767 129.0679
14297.656077 85.601 121.1166
14401.262787 85.412 113.1458
14505.620274 85.197 105.2173
14610.733978 84.956 97.3901
14716.609379 84.689 89.7167
14823.251997 84.395 82.2413
14930.667392 84.073 75.0002
15038.861162 83.725 68.0215
15147.838950 83.349 61.3287
15257.606435 82.944 54.9407
15368.169341 82.512 48.8751
15479.533431 82.052 43.1473
15591.704511 81.566 37.7683
15704.688430 81.058 32.7393
15818.491076 80.536 28.0458
15933.118383 80.009 23.6512
16048.576327 79.487 19.4954
16164.870926 78.979 15.5004
16282.008245 78.489 11.5829
16399.994388 78.019 7.6710
16518.835508 77.562 3.7186
16638.537799 77.108 -0.2878
16759.107503 76.645 -4.3306
16880.550905 76.163 -8.3668
17002.874335 75.653 -12.3358
17126.084171 75.112 -16.1645
17250.186837 74.540 -19.7720
17375.188802 73.944 -23.0733
17501.096582 73.337 -25.9841
17627.916743 72.740 -28.4319
17755.655894 72.182 -30.3770
17884.320696 71.699 -31.8463
18013.917856 71.329 -32.9739
18144.454131 71.101 -34.0260
18275.936325 71.024 -35.3801
18408.371293 71.085 -37.4473
18541.765940 71.249 -40.5724
18676.127219 71.475 -44.9641
18811.462136 71.721 -50.6725
18947.777745 71.952 -57.5948
19085.081153 72.145 -65.4785
19223.379519 72.289 -73.9152
19362.680051 72.380 -82.3502
19502.990012 72.424 -90.1329
19644.316718 72.435 -96.6135
19786.667534 72.430 -101.2462
19930.049884 72.422 -103.6553
