* Measurement data measured by REW V5.31.3
* Source: EXCL: Headset (USB-C to 3.5mm Headphone Jack Adapter), MICROPHONE (Master Volume), 0, volume: 0.750
* Format: 256k Log Swept Sine, 1 sweep at -12.0 dBFS with no timing reference
* Dated: Apr 7, 2025 12:17:53 PM
* REW Settings:
*  C-weighting compensation: Off
*  Target level: 75.0 dB
* Note: ; 
* Measurement: HD6XX R1
* Smoothing: 1/6 octave
* Frequency Step: 96 ppo
* Start Frequency: 20.0 Hz
*
* Freq(Hz) SPL(dB) Phase(degrees)
20.187378 80.651 -98.1055
20.333664 80.698 -98.1622
20.481010 80.761 -98.2405
20.629424 80.837 -98.3411
20.778913 80.924 -98.4648
20.929486 81.018 -98.6118
21.081150 81.118 -98.7820
21.233912 81.220 -98.9740
21.387782 81.322 -99.1853
21.542767 81.422 -99.4123
21.698874 81.518 -99.6506
21.856113 81.610 -99.8956
22.014492 81.696 -100.1427
22.174018 81.777 -100.3884
22.334700 81.853 -100.6304
22.496546 81.923 -100.8686
22.659566 81.990 -101.1047
22.823766 82.053 -101.3424
22.989157 82.112 -101.5870
23.155745 82.169 -101.8445
23.323542 82.224 -102.1209
23.492554 82.276 -102.4216
23.662790 82.326 -102.7501
23.834261 82.373 -103.1081
24.006973 82.417 -103.4950
24.180938 82.459 -103.9081
24.356163 82.499 -104.3430
24.532658 82.536 -104.7941
24.710431 82.573 -105.2558
24.889493 82.608 -105.7224
25.069853 82.644 -106.1892
25.251519 82.680 -106.6525
25.434502 82.716 -107.1097
25.618811 82.753 -107.5590
25.804456 82.791 -107.9991
25.991445 82.829 -108.4291
26.179790 82.867 -108.8478
26.369500 82.904 -109.2540
26.560584 82.939 -109.6464
26.753053 82.973 -110.0236
26.946917 83.005 -110.3847
27.142185 83.036 -110.7293
27.338869 83.066 -111.0580
27.536977 83.095 -111.3722
27.736522 83.124 -111.6741
27.937512 83.153 -111.9660
28.139959 83.183 -112.2504
28.343872 83.213 -112.5295
28.549264 83.245 -112.8044
28.756143 83.278 -113.0757
28.964522 83.312 -113.3433
29.174411 83.348 -113.6069
29.385821 83.386 -113.8664
29.598763 83.426 -114.1226
29.813248 83.470 -114.3772
30.029287 83.516 -114.6332
30.246891 83.567 -114.8945
30.466073 83.621 -115.1656
30.686842 83.679 -115.4505
30.909212 83.739 -115.7524
31.133193 83.803 -116.0730
31.358797 83.869 -116.4119
31.586035 83.937 -116.7667
31.814921 84.006 -117.1333
32.045465 84.077 -117.5064
32.277680 84.149 -117.8801
32.511577 84.223 -118.2486
32.747169 84.299 -118.6073
32.984469 84.377 -118.9530
33.223488 84.458 -119.2842
33.464239 84.542 -119.6014
33.706735 84.629 -119.9067
33.950987 84.719 -120.2035
34.197010 84.811 -120.4958
34.444816 84.905 -120.7877
34.694417 85.001 -121.0831
34.945827 85.097 -121.3851
35.199059 85.194 -121.6958
35.454126 85.291 -122.0166
35.711041 85.387 -122.3477
35.969818 85.483 -122.6892
36.230470 85.578 -123.0403
36.493011 85.672 -123.4002
36.757455 85.766 -123.7677
37.023814 85.859 -124.1416
37.292104 85.950 -124.5201
37.562338 86.040 -124.9012
37.834530 86.128 -125.2824
38.108695 86.215 -125.6612
38.384846 86.300 -126.0351
38.662999 86.383 -126.4020
38.943167 86.463 -126.7606
39.225365 86.542 -127.1106
39.509608 86.618 -127.4531
39.795911 86.691 -127.7899
40.084289 86.761 -128.1237
40.374756 86.827 -128.4570
40.667328 86.889 -128.7920
40.962020 86.946 -129.1299
41.258848 86.999 -129.4710
41.557827 87.048 -129.8150
41.858972 87.093 -130.1618
42.162299 87.136 -130.5118
42.467824 87.177 -130.8663
42.775564 87.217 -131.2276
43.085533 87.257 -131.5980
43.397749 87.297 -131.9792
43.712227 87.338 -132.3714
44.028983 87.379 -132.7729
44.348036 87.420 -133.1809
44.669400 87.461 -133.5920
44.993093 87.502 -134.0029
45.319131 87.543 -134.4110
45.647532 87.584 -134.8143
45.978313 87.623 -135.2108
46.311491 87.661 -135.5985
46.647083 87.697 -135.9747
46.985107 87.731 -136.3369
47.325581 87.762 -136.6836
47.668521 87.791 -137.0147
48.013947 87.817 -137.3320
48.361876 87.840 -137.6384
48.712326 87.861 -137.9378
49.065315 87.880 -138.2337
49.420863 87.895 -138.5292
49.778987 87.908 -138.8267
50.139706 87.918 -139.1275
50.503039 87.926 -139.4319
50.869005 87.932 -139.7385
51.237623 87.937 -140.0450
51.608912 87.941 -140.3481
51.982891 87.947 -140.6450
52.359580 87.954 -140.9341
52.739000 87.964 -141.2158
53.121168 87.976 -141.4922
53.506106 87.992 -141.7664
53.893833 88.010 -142.0411
54.284370 88.030 -142.3186
54.677737 88.051 -142.6003
55.073955 88.072 -142.8871
55.473043 88.093 -143.1808
55.875024 88.113 -143.4834
56.279917 88.132 -143.7973
56.687745 88.151 -144.1249
57.098527 88.170 -144.4672
57.512287 88.189 -144.8236
57.929045 88.210 -145.1909
58.348822 88.232 -145.5633
58.771642 88.258 -145.9327
59.197525 88.287 -146.2898
59.626495 88.320 -146.6261
60.058573 88.358 -146.9356
60.493782 88.399 -147.2163
60.932145 88.444 -147.4704
61.373685 88.492 -147.7032
61.818424 88.541 -147.9222
62.266386 88.592 -148.1348
62.717593 88.643 -148.3479
63.172071 88.694 -148.5667
63.629842 88.746 -148.7947
64.090930 88.798 -149.0338
64.555359 88.850 -149.2840
65.023154 88.902 -149.5449
65.494339 88.954 -149.8153
65.968938 89.004 -150.0942
66.446976 89.054 -150.3807
66.928478 89.102 -150.6738
67.413469 89.149 -150.9730
67.901975 89.194 -151.2779
68.394021 89.237 -151.5887
68.889632 89.279 -151.9058
69.388835 89.319 -152.2302
69.891655 89.358 -152.5625
70.398118 89.395 -152.9027
70.908252 89.431 -153.2502
71.422083 89.465 -153.6036
71.939636 89.498 -153.9611
72.460941 89.528 -154.3206
72.986023 89.556 -154.6799
73.514909 89.582 -155.0372
74.047629 89.606 -155.3912
74.584208 89.626 -155.7410
75.124676 89.645 -156.0865
75.669061 89.660 -156.4278
76.217390 89.673 -156.7652
76.769692 89.684 -157.0993
77.325997 89.693 -157.4305
77.886333 89.699 -157.7593
78.450730 89.704 -158.0860
79.019216 89.707 -158.4107
79.591822 89.708 -158.7336
80.168577 89.708 -159.0546
80.749512 89.707 -159.3737
81.334656 89.706 -159.6905
81.924040 89.704 -160.0048
82.517696 89.701 -160.3164
83.115653 89.699 -160.6250
83.717943 89.696 -160.9303
84.324598 89.694 -161.2323
84.935649 89.691 -161.5316
85.551128 89.689 -161.8287
86.171066 89.686 -162.1245
86.795497 89.684 -162.4200
87.424453 89.681 -162.7156
88.057967 89.677 -163.0117
88.696071 89.674 -163.3084
89.338800 89.670 -163.6055
89.986185 89.665 -163.9029
90.638262 89.661 -164.2002
91.295065 89.656 -164.4974
91.956626 89.651 -164.7942
92.622982 89.646 -165.0907
93.294166 89.640 -165.3867
93.970214 89.635 -165.6819
94.651161 89.629 -165.9758
95.337042 89.624 -166.2676
96.027894 89.617 -166.5564
96.723752 89.611 -166.8415
97.424652 89.604 -167.1222
98.130631 89.596 -167.3984
98.841726 89.589 -167.6701
99.557974 89.582 -167.9381
100.279412 89.575 -168.2029
101.006078 89.570 -168.4656
101.738010 89.565 -168.7269
102.475245 89.561 -168.9880
103.217823 89.558 -169.2501
103.965782 89.557 -169.5151
104.719161 89.558 -169.7844
105.477999 89.560 -170.0591
106.242336 89.565 -170.3393
107.012212 89.570 -170.6238
107.787666 89.577 -170.9110
108.568740 89.585 -171.1991
109.355474 89.593 -171.4866
110.147909 89.602 -171.7729
110.946086 89.611 -172.0575
111.750047 89.620 -172.3407
112.559834 89.630 -172.6228
113.375489 89.640 -172.9038
114.197055 89.650 -173.1837
115.024574 89.659 -173.4620
115.858089 89.669 -173.7381
116.697645 89.679 -174.0110
117.543284 89.688 -174.2798
118.395051 89.696 -174.5438
119.252990 89.703 -174.8022
120.117147 89.710 -175.0553
120.987565 89.715 -175.3037
121.864291 89.720 -175.5487
122.747370 89.724 -175.7918
123.636848 89.727 -176.0343
124.532771 89.729 -176.2767
125.435187 89.731 -176.5194
126.344142 89.732 -176.7624
127.259684 89.732 -177.0058
128.181860 89.732 -177.2494
129.110718 89.732 -177.4932
130.046308 89.731 -177.7371
130.988677 89.730 -177.9814
131.937875 89.727 -178.2266
132.893951 89.724 -178.4731
133.856956 89.719 -178.7209
134.826938 89.713 -178.9699
135.803950 89.705 -179.2191
136.788041 89.695 -179.4673
137.779264 89.684 -179.7130
138.777669 89.672 -179.9553
139.783309 89.658 179.8062
140.796237 89.642 179.5715
141.816504 89.626 179.3401
142.844165 89.609 179.1117
143.879273 89.590 178.8856
144.921881 89.571 178.6615
145.972045 89.551 178.4388
147.029819 89.531 178.2171
148.095257 89.509 177.9960
149.168417 89.488 177.7752
150.249353 89.465 177.5543
151.338121 89.443 177.3332
152.434780 89.420 177.1117
153.539385 89.396 176.8898
154.651995 89.373 176.6678
155.772667 89.349 176.4464
156.901460 89.326 176.2264
158.038432 89.302 176.0087
159.183644 89.279 175.7940
160.337154 89.255 175.5828
161.499023 89.232 175.3752
162.669312 89.208 175.1718
163.848081 89.185 174.9723
165.035392 89.162 174.7769
166.231306 89.139 174.5851
167.435887 89.116 174.3962
168.649196 89.094 174.2092
169.871298 89.071 174.0229
171.102255 89.049 173.8366
172.342133 89.027 173.6497
173.590995 89.005 173.4620
174.848907 88.982 173.2736
176.115934 88.959 173.0851
177.392143 88.936 172.8974
178.677599 88.911 172.7115
179.972371 88.886 172.5286
181.276525 88.860 172.3495
182.590129 88.833 172.1744
183.913252 88.806 172.0032
185.245964 88.777 171.8353
186.588332 88.748 171.6702
187.940428 88.717 171.5074
189.302322 88.687 171.3464
190.674085 88.655 171.1868
192.055788 88.623 171.0283
193.447503 88.590 170.8701
194.849303 88.557 170.7120
196.261262 88.524 170.5536
197.683452 88.490 170.3947
199.115948 88.456 170.2357
200.558824 88.423 170.0772
202.012156 88.389 169.9205
203.476019 88.355 169.7676
204.950490 88.322 169.6207
206.435646 88.289 169.4821
207.931564 88.256 169.3533
209.438322 88.224 169.2352
210.955998 88.193 169.1275
212.484672 88.163 169.0291
214.024424 88.133 168.9383
215.575333 88.104 168.8531
217.137481 88.076 168.7719
218.710948 88.049 168.6934
220.295818 88.022 168.6166
221.892172 87.997 168.5413
223.500094 87.972 168.4675
225.119668 87.948 168.3952
226.750978 87.926 168.3246
228.394109 87.905 168.2554
230.049147 87.886 168.1874
231.716178 87.869 168.1196
233.395289 87.854 168.0511
235.086567 87.840 167.9808
236.790102 87.827 167.9082
238.505980 87.815 167.8333
240.234293 87.805 167.7564
241.975130 87.796 167.6788
243.728581 87.787 167.6014
245.494739 87.779 167.5250
247.273695 87.771 167.4495
249.065542 87.764 167.3746
250.870374 87.756 167.3000
252.688284 87.748 167.2250
254.519367 87.740 167.1491
256.363720 87.731 167.0721
258.221437 87.722 166.9938
260.092616 87.713 166.9141
261.977354 87.704 166.8332
263.875750 87.695 166.7511
265.787903 87.686 166.6679
267.713911 87.678 166.5836
269.653877 87.671 166.4980
271.607900 87.664 166.4112
273.576083 87.657 166.3232
275.558528 87.650 166.2343
277.555338 87.642 166.1450
279.566619 87.635 166.0565
281.592474 87.628 165.9700
283.633009 87.620 165.8871
285.688331 87.613 165.8090
287.758546 87.605 165.7367
289.843763 87.598 165.6707
291.944090 87.591 165.6110
294.059638 87.585 165.5569
296.190515 87.578 165.5074
298.336833 87.572 165.4615
300.498705 87.566 165.4186
302.676243 87.560 165.3781
304.869559 87.555 165.3398
307.078770 87.549 165.3037
309.303989 87.544 165.2698
311.545334 87.538 165.2383
313.802919 87.533 165.2091
316.076865 87.528 165.1822
318.367288 87.523 165.1570
320.674309 87.518 165.1335
322.998047 87.513 165.1115
325.338624 87.508 165.0912
327.696162 87.503 165.0729
330.070783 87.498 165.0571
332.462612 87.493 165.0439
334.871773 87.488 165.0333
337.298392 87.482 165.0248
339.742595 87.476 165.0175
342.204510 87.469 165.0105
344.684265 87.462 165.0029
347.181989 87.454 164.9946
349.697813 87.444 164.9854
352.231868 87.434 164.9757
354.784285 87.422 164.9664
357.355198 87.408 164.9583
359.944741 87.394 164.9520
362.553049 87.378 164.9482
365.180258 87.360 164.9471
367.826505 87.341 164.9481
370.491927 87.321 164.9505
373.176665 87.300 164.9531
375.880856 87.279 164.9550
378.604644 87.258 164.9554
381.348169 87.236 164.9543
384.111575 87.215 164.9524
386.895006 87.193 164.9508
389.698607 87.172 164.9511
392.522524 87.150 164.9547
395.366904 87.129 164.9628
398.231895 87.107 164.9760
401.117648 87.085 164.9945
404.024312 87.063 165.0179
406.952038 87.039 165.0455
409.900981 87.015 165.0759
412.871292 86.990 165.1081
415.863128 86.963 165.1411
418.876643 86.936 165.1738
421.911996 86.908 165.2059
424.969344 86.879 165.2372
428.048847 86.848 165.2680
431.150666 86.816 165.2984
434.274961 86.783 165.3289
437.421897 86.748 165.3599
440.591636 86.712 165.3913
443.784345 86.674 165.4234
447.000189 86.635 165.4563
450.239337 86.594 165.4903
453.501956 86.554 165.5261
456.788219 86.512 165.5645
460.098294 86.471 165.6065
463.432356 86.429 165.6529
466.790578 86.388 165.7038
470.173135 86.348 165.7591
473.580203 86.308 165.8178
477.011961 86.269 165.8787
480.468586 86.231 165.9405
483.950259 86.194 166.0020
487.457163 86.158 166.0623
490.989478 86.123 166.1208
494.547390 86.090 166.1769
498.131084 86.058 166.2304
501.740748 86.028 166.2813
505.376568 85.999 166.3298
509.038735 85.972 166.3763
512.727439 85.946 166.4213
516.442874 85.922 166.4655
520.185232 85.901 166.5097
523.954708 85.881 166.5546
527.751500 85.864 166.6007
531.575805 85.848 166.6484
535.427822 85.835 166.6981
539.307753 85.824 166.7498
543.215800 85.814 166.8030
547.152165 85.806 166.8574
551.117055 85.800 166.9121
555.110677 85.795 166.9667
559.133237 85.792 167.0211
563.184947 85.789 167.0754
567.266018 85.788 167.1304
571.376661 85.787 167.1870
575.517092 85.787 167.2463
579.687526 85.788 167.3098
583.888181 85.789 167.3789
588.119275 85.791 167.4545
592.381030 85.793 167.5374
596.673667 85.795 167.6276
600.997410 85.798 167.7245
605.352485 85.801 167.8266
609.739119 85.803 167.9319
614.157540 85.806 168.0385
618.607979 85.808 168.1441
623.090667 85.809 168.2475
627.605839 85.810 168.3479
632.153730 85.809 168.4450
636.734576 85.808 168.5389
641.348617 85.805 168.6301
645.996094 85.802 168.7187
650.677248 85.797 168.8052
655.392323 85.792 168.8901
660.141566 85.785 168.9737
664.925224 85.777 169.0561
669.743546 85.769 169.1373
674.596784 85.760 169.2172
679.485191 85.749 169.2956
684.409020 85.738 169.3723
689.368530 85.725 169.4465
694.363979 85.711 169.5179
699.395626 85.696 169.5860
704.463736 85.680 169.6506
709.568570 85.663 169.7117
714.710396 85.643 169.7695
719.889483 85.622 169.8248
725.106099 85.598 169.8783
730.360516 85.573 169.9312
735.653010 85.545 169.9850
740.983855 85.515 170.0412
746.353329 85.482 170.1012
751.761713 85.447 170.1664
757.209288 85.410 170.2380
762.696339 85.371 170.3172
768.223151 85.331 170.4048
773.790013 85.289 170.5020
779.397214 85.247 170.6097
785.045047 85.204 170.7285
790.733808 85.161 170.8580
796.463791 85.119 170.9972
802.235296 85.079 171.1434
808.048623 85.040 171.2929
813.904077 85.003 171.4413
819.801961 84.969 171.5840
825.742584 84.936 171.7169
831.726255 84.905 171.8366
837.753287 84.876 171.9408
843.823992 84.847 172.0286
849.938689 84.818 172.1005
856.097695 84.788 172.1582
862.301332 84.756 172.2052
868.549922 84.721 172.2461
874.843793 84.684 172.2871
881.183272 84.644 172.3356
887.568689 84.600 172.4000
894.000378 84.553 172.4892
900.478673 84.504 172.6123
907.003913 84.453 172.7775
913.576437 84.402 172.9911
920.196588 84.354 173.2564
926.864712 84.309 173.5729
933.581156 84.271 173.9357
940.346270 84.240 174.3363
947.160407 84.219 174.7632
954.023921 84.207 175.2038
960.937172 84.206 175.6453
967.900519 84.214 176.0768
974.914325 84.231 176.4891
981.978956 84.256 176.8760
989.094780 84.288 177.2337
996.262169 84.326 177.5609
1003.481495 84.369 177.8578
1010.753136 84.415 178.1262
1018.077470 84.465 178.3683
1025.454879 84.517 178.5871
1032.885748 84.570 178.7856
1040.370463 84.625 178.9664
1047.909417 84.682 179.1320
1055.503000 84.739 179.2846
1063.151610 84.796 179.4263
1070.855645 84.855 179.5591
1078.615506 84.913 179.6847
1086.431599 84.972 179.8046
1094.304330 85.031 179.9196
1102.234110 85.090 -179.9699
1110.221353 85.149 -179.8636
1118.266475 85.209 -179.7617
1126.369895 85.268 -179.6645
1134.532035 85.327 -179.5726
1142.753322 85.386 -179.4867
1151.034184 85.445 -179.4079
1159.375052 85.504 -179.3370
1167.776361 85.562 -179.2749
1176.238550 85.620 -179.2223
1184.762060 85.677 -179.1797
1193.347334 85.734 -179.1470
1201.994821 85.789 -179.1234
1210.704971 85.844 -179.1079
1219.478238 85.897 -179.0988
1228.315080 85.950 -179.0945
1237.215957 86.001 -179.0928
1246.181334 86.051 -179.0922
1255.211678 86.100 -179.0908
1264.307459 86.148 -179.0869
1273.469152 86.195 -179.0792
1282.697235 86.242 -179.0668
1291.992188 86.288 -179.0492
1301.354495 86.334 -179.0262
1310.784647 86.379 -178.9977
1320.283132 86.424 -178.9644
1329.850448 86.470 -178.9274
1339.487093 86.516 -178.8880
1349.193569 86.562 -178.8481
1358.970381 86.609 -178.8093
1368.818041 86.656 -178.7726
1378.737061 86.704 -178.7387
1388.727958 86.752 -178.7078
1398.791253 86.800 -178.6796
1408.927471 86.849 -178.6535
1419.137140 86.899 -178.6285
1429.420793 86.949 -178.6037
1439.778965 87.000 -178.5780
1450.212197 87.051 -178.5501
1460.721033 87.103 -178.5188
1471.306019 87.156 -178.4827
1481.967709 87.209 -178.4403
1492.706658 87.262 -178.3907
1503.523426 87.316 -178.3332
1514.418576 87.370 -178.2679
1525.392678 87.423 -178.1949
1536.446302 87.476 -178.1150
1547.580025 87.528 -178.0285
1558.794428 87.579 -177.9355
1570.090095 87.627 -177.8352
1581.467615 87.673 -177.7271
1592.927581 87.717 -177.6106
1604.470591 87.758 -177.4855
1616.097246 87.796 -177.3521
1627.808153 87.832 -177.2112
1639.603922 87.865 -177.0642
1651.485168 87.896 -176.9126
1663.452510 87.924 -176.7573
1675.506573 87.949 -176.5988
1687.647984 87.971 -176.4367
1699.877377 87.990 -176.2695
1712.195390 88.007 -176.0953
1724.602663 88.021 -175.9120
1737.099845 88.034 -175.7177
1749.687587 88.045 -175.5114
1762.366544 88.055 -175.2926
1775.137379 88.065 -175.0622
1788.000756 88.076 -174.8215
1800.957346 88.087 -174.5730
1814.007826 88.098 -174.3192
1827.152874 88.111 -174.0636
1840.393177 88.123 -173.8093
1853.729425 88.136 -173.5590
1867.162312 88.149 -173.3147
1880.692540 88.161 -173.0773
1894.320813 88.172 -172.8462
1908.047843 88.181 -172.6200
1921.874344 88.188 -172.3968
1935.801038 88.193 -172.1744
1949.828650 88.196 -171.9516
1963.957912 88.198 -171.7280
1978.189561 88.199 -171.5043
1992.524338 88.199 -171.2823
2006.962991 88.199 -171.0643
2021.506272 88.198 -170.8530
2036.154940 88.198 -170.6510
2050.909758 88.197 -170.4612
2065.771495 88.197 -170.2863
2080.740927 88.197 -170.1282
2095.818833 88.197 -169.9885
2111.006001 88.196 -169.8680
2126.303220 88.195 -169.7667
2141.711290 88.194 -169.6837
2157.231013 88.192 -169.6175
2172.863198 88.189 -169.5663
2188.608660 88.185 -169.5277
2204.468221 88.180 -169.4992
2220.442706 88.175 -169.4783
2236.532950 88.169 -169.4625
2252.739789 88.163 -169.4500
2269.064070 88.156 -169.4394
2285.506644 88.151 -169.4297
2302.068367 88.145 -169.4207
2318.750104 88.141 -169.4120
2335.552723 88.138 -169.4036
2352.477101 88.136 -169.3953
2369.524119 88.136 -169.3869
2386.694668 88.138 -169.3783
2403.989641 88.142 -169.3698
2421.409941 88.150 -169.3624
2438.956476 88.160 -169.3576
2456.630160 88.174 -169.3572
2474.431915 88.191 -169.3629
2492.362668 88.212 -169.3757
2510.423356 88.235 -169.3959
2528.614918 88.262 -169.4229
2546.938304 88.292 -169.4558
2565.394469 88.325 -169.4926
2583.984375 88.361 -169.5316
2602.708991 88.399 -169.5708
2621.569293 88.441 -169.6087
2640.566265 88.487 -169.6443
2659.700897 88.536 -169.6773
2678.974186 88.589 -169.7083
2698.387137 88.646 -169.7386
2717.940763 88.708 -169.7698
2737.636082 88.774 -169.8042
2757.474121 88.844 -169.8444
2777.455915 88.917 -169.8929
2797.582506 88.995 -169.9525
2817.854942 89.075 -170.0258
2838.274281 89.157 -170.1145
2858.841586 89.241 -170.2197
2879.557931 89.325 -170.3416
2900.424394 89.410 -170.4797
2921.442065 89.493 -170.6333
2942.612039 89.576 -170.8015
2963.935418 89.656 -170.9836
2985.413316 89.733 -171.1788
3007.046852 89.807 -171.3864
3028.837153 89.877 -171.6054
3050.785356 89.941 -171.8345
3072.892604 90.001 -172.0719
3095.160050 90.054 -172.3154
3117.588856 90.101 -172.5629
3140.180190 90.140 -172.8123
3162.935230 90.173 -173.0625
3185.855163 90.199 -173.3123
3208.941182 90.217 -173.5613
3232.194493 90.228 -173.8095
3255.616307 90.231 -174.0565
3279.207844 90.227 -174.3025
3302.970336 90.216 -174.5471
3326.905021 90.196 -174.7898
3351.013146 90.170 -175.0301
3375.295969 90.136 -175.2669
3399.754755 90.094 -175.4990
3424.390779 90.047 -175.7253
3449.205326 89.992 -175.9445
3474.199690 89.932 -176.1554
3499.375173 89.867 -176.3568
3524.733088 89.796 -176.5470
3550.274757 89.722 -176.7244
3576.001511 89.644 -176.8870
3601.914692 89.563 -177.0330
3628.015651 89.481 -177.1606
3654.305748 89.398 -177.2687
3680.786354 89.315 -177.3563
3707.458849 89.233 -177.4228
3734.324624 89.152 -177.4680
3761.385080 89.075 -177.4913
3788.641627 89.000 -177.4923
3816.095686 88.930 -177.4702
3843.748688 88.864 -177.4239
3871.602076 88.803 -177.3522
3899.657300 88.747 -177.2540
3927.915825 88.698 -177.1280
3956.379122 88.655 -176.9733
3985.048676 88.618 -176.7890
4013.925981 88.589 -176.5742
4043.012544 88.566 -176.3281
4072.309879 88.551 -176.0500
4101.819515 88.544 -175.7399
4131.542990 88.545 -175.3986
4161.481854 88.554 -175.0282
4191.637667 88.571 -174.6318
4222.012001 88.598 -174.2144
4252.606441 88.633 -173.7825
4283.422580 88.677 -173.3443
4314.462026 88.730 -172.9092
4345.726396 88.792 -172.4879
4377.217321 88.861 -172.0916
4408.936442 88.937 -171.7318
4440.885413 89.020 -171.4193
4473.065899 89.107 -171.1643
4505.479579 89.197 -170.9756
4538.128141 89.290 -170.8602
4571.013288 89.382 -170.8229
4604.136735 89.474 -170.8666
4637.500207 89.563 -170.9921
4671.105446 89.649 -171.1987
4704.954201 89.730 -171.4842
4739.048239 89.807 -171.8457
4773.389336 89.877 -172.2794
4807.979283 89.941 -172.7809
4842.819883 89.998 -173.3455
4877.912952 90.048 -173.9687
4913.260320 90.091 -174.6462
4948.863830 90.127 -175.3739
4984.725337 90.156 -176.1482
5020.846712 90.177 -176.9656
5057.229836 90.191 -177.8224
5093.876609 90.196 -178.7147
5130.788938 90.193 -179.6377
5167.968750 90.180 179.4142
5205.417982 90.157 178.4481
5243.138586 90.123 177.4724
5281.132530 90.078 176.4970
5319.401793 90.020 175.5333
5357.948371 89.951 174.5935
5396.774274 89.870 173.6905
5435.881525 89.777 172.8371
5475.272163 89.674 172.0453
5514.948243 89.561 171.3260
5554.911831 89.440 170.6884
5595.165012 89.312 170.1398
5635.709884 89.180 169.6854
5676.548561 89.043 169.3288
5717.683172 88.905 169.0712
5759.115861 88.767 168.9122
5800.848789 88.629 168.8492
5842.884130 88.494 168.8779
5885.224077 88.361 168.9923
5927.870837 88.232 169.1860
5970.826633 88.106 169.4524
6014.093704 87.984 169.7857
6057.674306 87.865 170.1816
6101.570711 87.748 170.6376
6145.785208 87.632 171.1533
6190.320101 87.518 171.7308
6235.177712 87.404 172.3746
6280.360380 87.291 173.0910
6325.870460 87.179 173.8884
6371.710325 87.069 174.7759
6417.882365 86.961 175.7632
6464.388986 86.859 176.8594
6511.232613 86.764 178.0716
6558.415689 86.680 179.4044
6605.940673 86.612 -179.1416
6653.810042 86.564 -177.5717
6702.026292 86.540 -175.8987
6750.591937 86.546 -174.1445
6799.509509 86.588 -172.3418
6848.781558 86.669 -170.5350
6898.410653 86.792 -168.7794
6948.399380 86.959 -167.1389
6998.750346 87.168 -165.6815
7049.466176 87.415 -164.4738
7100.549514 87.694 -163.5750
7152.003023 87.997 -163.0325
7203.829385 88.315 -162.8787
7256.031302 88.637 -163.1309
7308.611496 88.955 -163.7918
7361.572708 89.258 -164.8517
7414.917698 89.537 -166.2907
7468.649249 89.786 -168.0808
7522.770160 89.996 -170.1878
7577.283253 90.164 -172.5736
7632.191371 90.283 -175.1968
7687.497376 90.350 -178.0148
7743.204151 90.363 179.0161
7799.314600 90.319 175.9391
7855.831649 90.217 172.7973
7912.758244 90.057 169.6334
7970.097352 89.837 166.4901
8027.851962 89.557 163.4106
8086.025087 89.218 160.4402
8144.619758 88.821 157.6270
8203.639030 88.365 155.0240
8263.085980 87.852 152.6914
8322.963708 87.284 150.7001
8383.275334 86.663 149.1353
8444.024002 85.992 148.1029
8505.212881 85.276 147.7370
8566.845160 84.525 148.2087
8628.924051 83.749 149.7357
8691.452792 82.964 152.5826
8754.434642 82.195 157.0372
8817.872884 81.471 163.3223
8881.770826 80.830 171.4108
8946.131799 80.312 -179.1992
9010.959157 79.951 -169.4992
9076.256282 79.766 -160.5803
9142.026576 79.755 -153.1477
9208.273470 79.899 -147.3916
9275.000415 80.163 -143.1708
9342.210891 80.512 -140.2296
9409.908403 80.911 -138.3166
9478.096478 81.336 -137.2256
9546.778672 81.766 -136.8002
9615.958566 82.186 -136.9242
9685.639765 82.587 -137.5111
9755.825904 82.961 -138.4947
9826.520640 83.302 -139.8218
9897.727659 83.604 -141.4470
9969.450674 83.864 -143.3290
10041.693423 84.080 -145.4283
10114.459673 84.248 -147.7059
10187.753217 84.367 -150.1230
10261.577877 84.436 -152.6409
10335.937500 84.456 -155.2216
10410.835964 84.426 -157.8284
10486.277173 84.348 -160.4271
10562.265060 84.224 -162.9855
10638.803587 84.056 -165.4750
10715.896743 83.846 -167.8694
10793.548548 83.598 -170.1458
10871.763050 83.314 -172.2838
10950.544327 82.998 -174.2654
11029.896485 82.653 -176.0754
11109.823662 82.284 -177.7011
11190.330024 81.894 -179.1342
11271.419768 81.487 179.6292
11353.097122 81.070 178.5856
11435.366344 80.648 177.7238
11518.231722 80.227 177.0235
11601.697577 79.812 176.4557
11685.768261 79.407 175.9845
11770.448155 79.018 175.5698
11855.741674 78.645 175.1712
11941.653265 78.291 174.7522
12028.187408 77.954 174.2826
12115.348612 77.634 173.7401
12203.141422 77.327 173.1097
12291.570415 77.033 172.3815
12380.640201 76.749 171.5474
12470.355424 76.475 170.5986
12560.720760 76.210 169.5238
12651.740920 75.952 168.3102
12743.420650 75.700 166.9457
12835.764729 75.451 165.4224
12928.777972 75.200 163.7396
13022.465227 74.945 161.9056
13116.831378 74.681 159.9370
13211.881345 74.406 157.8561
13307.620084 74.121 155.6866
13404.052584 73.829 153.4479
13501.183875 73.534 151.1498
13599.019019 73.244 148.7886
13697.563116 72.968 146.3453
13796.821305 72.716 143.7867
13896.798760 72.496 141.0697
13997.500692 72.313 138.1476
14098.932352 72.172 134.9772
14201.099028 72.073 131.5242
14304.006046 72.016 127.7667
14407.658770 72.001 123.6940
14512.062604 72.029 119.3041
14617.222992 72.103 114.5988
14723.145416 72.224 109.5789
14829.835397 72.397 104.2418
14937.298497 72.623 98.5797
15045.540320 72.900 92.5804
15154.566507 73.221 86.2282
15264.382743 73.579 79.5078
15374.994752 73.959 72.4055
15486.408302 74.348 64.9129
15598.629201 74.728 57.0290
15711.663298 75.083 48.7622
15825.516487 75.398 40.1333
15940.194703 75.656 31.1772
16055.703925 75.845 21.9445
16172.050174 75.953 12.5013
16289.239516 75.973 2.9276
16407.278061 75.900 -6.6891
16526.171961 75.734 -16.2600
16645.927415 75.479 -25.7031
16766.550667 75.141 -34.9509
16888.048005 74.732 -43.9535
17010.425762 74.267 -52.6818
17133.690320 73.764 -61.1282
17257.848103 73.247 -69.3077
17382.905584 72.747 -77.2565
17508.869284 72.296 -85.0325
17635.745768 71.931 -92.7137
17763.541652 71.685 -100.3965
17892.263597 71.581 -108.1948
18021.918315 71.623 -116.2392
18152.512564 71.797 -124.6778
18284.053153 72.072 -133.6765
18416.546939 72.409 -143.4209
18550.000830 72.771 -154.1210
18684.421783 73.125 -166.0086
18819.816805 73.446 -179.3156
18956.192956 73.717 165.8133
19093.557344 73.929 149.5266
19231.917131 74.080 132.5430
19371.279531 74.176 116.1997
19511.651807 74.225 101.9879
19653.041280 74.242 90.9528
19795.455318 74.242 83.5430
19938.901348 74.239 79.8475
