* Measurement data measured by REW V5.31.3
* Source: EXCL: Headset (USB-C to 3.5mm Headphone Jack Adapter), MICROPHONE (Master Volume), 0, volume: 0.750
* Format: 256k Log Swept Sine, 1 sweep at -12.0 dBFS with no timing reference
* Dated: Apr 1, 2025 10:21:05 PM
* REW Settings:
*  C-weighting compensation: Off
*  Target level: 75.0 dB
* Note: ; 
* Measurement: HD6XX (Soulwit) R8
* Smoothing: 1/6 octave
* Frequency Step: 96 ppo
* Start Frequency: 20.0 Hz
*
* Freq(Hz) SPL(dB) Phase(degrees)
20.033247 84.931 -98.6833
20.178416 85.011 -99.0416
20.324637 85.093 -99.3921
20.471918 85.179 -99.7355
20.620266 85.269 -100.0738
20.769689 85.364 -100.4098
20.920195 85.462 -100.7467
21.071791 85.565 -101.0879
21.224486 85.670 -101.4362
21.378287 85.777 -101.7933
21.533203 85.885 -102.1595
21.689242 85.993 -102.5334
21.846411 86.099 -102.9120
22.004719 86.203 -103.2907
22.164174 86.303 -103.6643
22.324785 86.399 -104.0272
22.486559 86.491 -104.3746
22.649506 86.579 -104.7031
22.813634 86.664 -105.0114
22.978951 86.745 -105.3011
23.145466 86.824 -105.5760
23.313188 86.901 -105.8426
23.482124 86.975 -106.1087
23.652286 87.046 -106.3827
23.823680 87.113 -106.6720
23.996316 87.176 -106.9824
24.170203 87.233 -107.3165
24.345351 87.283 -107.6738
24.521767 87.326 -108.0502
24.699462 87.360 -108.4391
24.878444 87.387 -108.8319
25.058724 87.407 -109.2195
25.240310 87.421 -109.5936
25.423211 87.432 -109.9478
25.607438 87.441 -110.2789
25.793000 87.450 -110.5871
25.979907 87.461 -110.8761
26.168168 87.476 -111.1527
26.357794 87.497 -111.4257
26.548793 87.522 -111.7043
26.741176 87.553 -111.9973
26.934954 87.589 -112.3115
27.130136 87.627 -112.6511
27.326732 87.668 -113.0177
27.524753 87.710 -113.4099
27.724208 87.752 -113.8242
27.925110 87.794 -114.2557
28.127466 87.834 -114.6985
28.331290 87.873 -115.1464
28.536590 87.910 -115.5938
28.743378 87.946 -116.0354
28.951664 87.982 -116.4669
29.161460 88.017 -116.8849
29.372776 88.053 -117.2871
29.585623 88.090 -117.6723
29.800013 88.128 -118.0404
30.015956 88.169 -118.3926
30.233464 88.213 -118.7313
30.452548 88.261 -119.0597
30.673220 88.312 -119.3814
30.895490 88.368 -119.7004
31.119372 88.427 -120.0199
31.344876 88.490 -120.3426
31.572014 88.557 -120.6699
31.800797 88.626 -121.0026
32.031239 88.697 -121.3404
32.263351 88.771 -121.6824
32.497144 88.847 -122.0278
32.732632 88.925 -122.3754
32.969826 89.004 -122.7246
33.208739 89.084 -123.0744
33.449383 89.166 -123.4243
33.691771 89.248 -123.7733
33.935916 89.331 -124.1208
34.181829 89.415 -124.4658
34.429525 89.499 -124.8078
34.679015 89.583 -125.1467
34.930314 89.669 -125.4830
35.183433 89.755 -125.8179
35.438387 89.841 -126.1531
35.695188 89.929 -126.4902
35.953850 90.016 -126.8308
36.214387 90.103 -127.1756
36.476811 90.190 -127.5247
36.741137 90.276 -127.8777
37.007378 90.361 -128.2336
37.275549 90.446 -128.5917
37.545663 90.529 -128.9513
37.817734 90.612 -129.3125
38.091777 90.693 -129.6756
38.367806 90.773 -130.0412
38.645835 90.851 -130.4095
38.925879 90.927 -130.7803
39.207952 91.001 -131.1530
39.492069 91.072 -131.5263
39.778244 91.140 -131.8987
40.066494 91.206 -132.2687
40.356832 91.268 -132.6349
40.649275 91.327 -132.9964
40.943836 91.384 -133.3527
41.240532 91.438 -133.7036
41.539378 91.490 -134.0493
41.840389 91.539 -134.3902
42.143582 91.586 -134.7271
42.448972 91.632 -135.0609
42.756574 91.675 -135.3926
43.066406 91.717 -135.7233
43.378483 91.758 -136.0539
43.692822 91.797 -136.3848
44.009438 91.835 -136.7164
44.328348 91.873 -137.0487
44.649570 91.909 -137.3818
44.973119 91.946 -137.7157
45.299013 91.982 -138.0508
45.627268 92.018 -138.3870
45.957902 92.054 -138.7244
46.290932 92.090 -139.0626
46.626375 92.126 -139.4008
46.964249 92.161 -139.7379
47.304571 92.197 -140.0732
47.647360 92.232 -140.4057
47.992632 92.266 -140.7351
48.340407 92.300 -141.0611
48.690701 92.333 -141.3835
49.043534 92.364 -141.7021
49.398924 92.394 -142.0164
49.756889 92.422 -142.3254
50.117447 92.447 -142.6282
50.480619 92.471 -142.9235
50.846423 92.491 -143.2106
51.214877 92.510 -143.4890
51.586001 92.528 -143.7597
51.959814 92.544 -144.0247
52.336336 92.560 -144.2873
52.715587 92.575 -144.5519
53.097586 92.591 -144.8229
53.482353 92.608 -145.1043
53.869908 92.624 -145.3989
54.260272 92.642 -145.7083
54.653464 92.659 -146.0326
55.049506 92.677 -146.3706
55.448417 92.696 -146.7206
55.850219 92.716 -147.0804
56.254933 92.737 -147.4477
56.662579 92.759 -147.8201
57.073180 92.783 -148.1954
57.486755 92.809 -148.5713
57.903328 92.836 -148.9454
58.322919 92.866 -149.3153
58.745551 92.897 -149.6782
59.171246 92.930 -150.0316
59.600025 92.964 -150.3732
60.031911 93.001 -150.7017
60.466927 93.040 -151.0170
60.905096 93.080 -151.3204
61.346439 93.124 -151.6148
61.790981 93.169 -151.9034
62.238744 93.217 -152.1898
62.689751 93.266 -152.4773
63.144027 93.317 -152.7688
63.601595 93.369 -153.0663
64.062478 93.422 -153.3715
64.526701 93.476 -153.6850
64.994288 93.530 -154.0072
65.465264 93.585 -154.3379
65.939652 93.640 -154.6770
66.417478 93.694 -155.0239
66.898766 93.749 -155.3781
67.383542 93.803 -155.7385
67.871831 93.855 -156.1037
68.363659 93.907 -156.4720
68.859050 93.956 -156.8417
69.358031 94.004 -157.2114
69.860628 94.049 -157.5799
70.366867 94.092 -157.9464
70.876774 94.132 -158.3106
71.390376 94.169 -158.6726
71.907700 94.203 -159.0325
72.428773 94.234 -159.3909
72.953622 94.263 -159.7481
73.482274 94.288 -160.1047
74.014757 94.310 -160.4610
74.551098 94.329 -160.8173
75.091326 94.347 -161.1739
75.635469 94.361 -161.5310
76.183555 94.374 -161.8886
76.735612 94.385 -162.2467
77.291670 94.395 -162.6054
77.851757 94.403 -162.9646
78.415903 94.410 -163.3242
78.984137 94.416 -163.6841
79.556489 94.421 -164.0442
80.132988 94.425 -164.4043
80.713665 94.428 -164.7639
81.298549 94.430 -165.1228
81.887672 94.432 -165.4807
82.481064 94.432 -165.8374
83.078756 94.432 -166.1927
83.680778 94.432 -166.5466
84.287164 94.431 -166.8990
84.897943 94.429 -167.2499
85.513149 94.428 -167.5991
86.132812 94.426 -167.9465
86.756966 94.423 -168.2919
87.385643 94.421 -168.6351
88.018875 94.418 -168.9761
88.656696 94.416 -169.3152
89.299139 94.413 -169.6526
89.946238 94.410 -169.9889
90.598025 94.406 -170.3244
91.254536 94.403 -170.6595
91.915804 94.399 -170.9945
92.581864 94.396 -171.3295
93.252750 94.391 -171.6647
93.928498 94.387 -172.0002
94.609143 94.383 -172.3363
95.294719 94.378 -172.6729
95.985264 94.374 -173.0102
96.680813 94.369 -173.3481
97.381402 94.364 -173.6864
98.087068 94.360 -174.0252
98.797847 94.355 -174.3643
99.513777 94.351 -174.7034
100.234895 94.347 -175.0423
100.961238 94.343 -175.3805
101.692845 94.339 -175.7175
102.429753 94.336 -176.0527
103.172002 94.334 -176.3859
103.919628 94.333 -176.7168
104.672673 94.332 -177.0456
105.431174 94.332 -177.3722
106.195172 94.334 -177.6969
106.964706 94.336 -178.0201
107.739816 94.339 -178.3419
108.520543 94.343 -178.6628
109.306928 94.348 -178.9832
110.099011 94.354 -179.3036
110.896834 94.360 -179.6245
111.700438 94.366 -179.9462
112.509866 94.373 179.7313
113.325158 94.380 179.4081
114.146359 94.386 179.0844
114.973511 94.393 178.7607
115.806656 94.400 178.4376
116.645839 94.406 178.1158
117.491103 94.412 177.7962
118.342492 94.418 177.4796
119.200050 94.424 177.1670
120.063823 94.429 176.8591
120.933855 94.434 176.5563
121.810191 94.438 176.2586
122.692878 94.442 175.9657
123.581962 94.445 175.6770
124.477487 94.448 175.3918
125.379503 94.450 175.1093
126.288054 94.451 174.8283
127.203189 94.451 174.5483
128.124956 94.450 174.2684
129.053402 94.448 173.9881
129.988577 94.444 173.7069
130.930527 94.440 173.4249
131.879304 94.434 173.1425
132.834956 94.427 172.8605
133.797533 94.419 172.5796
134.767085 94.409 172.3008
135.743663 94.399 172.0248
136.727317 94.387 171.7519
137.718100 94.374 171.4821
138.716062 94.361 171.2154
139.721255 94.346 170.9512
140.733733 94.330 170.6891
141.753548 94.313 170.4288
142.780753 94.295 170.1703
143.815401 94.276 169.9132
144.857546 94.256 169.6576
145.907244 94.235 169.4034
146.964548 94.214 169.1503
148.029514 94.192 168.8981
149.102197 94.170 168.6465
150.182652 94.147 168.3954
151.270938 94.124 168.1445
152.367109 94.101 167.8938
153.471224 94.078 167.6435
154.583340 94.055 167.3937
155.703515 94.031 167.1445
156.831807 94.008 166.8959
157.968274 93.986 166.6479
159.112978 93.963 166.4003
160.265976 93.941 166.1531
161.427329 93.918 165.9062
162.597098 93.896 165.6599
163.775344 93.874 165.4142
164.962128 93.852 165.1697
166.157511 93.830 164.9270
167.361557 93.808 164.6866
168.574328 93.786 164.4489
169.795887 93.764 164.2141
171.026298 93.742 163.9822
172.265625 93.720 163.7531
173.513933 93.699 163.5268
174.771286 93.677 163.3033
176.037751 93.655 163.0826
177.313393 93.632 162.8646
178.598279 93.610 162.6495
179.892476 93.587 162.4369
181.196051 93.564 162.2266
182.509072 93.540 162.0182
183.831608 93.516 161.8112
185.163728 93.492 161.6052
186.505500 93.467 161.3998
187.856996 93.442 161.1948
189.218285 93.417 160.9899
190.589439 93.391 160.7852
191.970529 93.365 160.5807
193.361626 93.338 160.3765
194.762804 93.311 160.1729
196.174136 93.283 159.9705
197.595694 93.255 159.7695
199.027554 93.227 159.5703
200.469790 93.197 159.3726
201.922477 93.168 159.1760
203.385690 93.137 158.9797
204.859507 93.106 158.7829
206.344003 93.075 158.5853
207.839257 93.044 158.3871
209.345346 93.014 158.1892
210.862348 92.983 157.9926
212.390344 92.953 157.7985
213.929412 92.924 157.6077
215.479633 92.895 157.4209
217.041087 92.866 157.2385
218.613856 92.838 157.0609
220.198022 92.811 156.8881
221.793668 92.784 156.7203
223.400876 92.759 156.5574
225.019731 92.735 156.3994
226.650317 92.713 156.2460
228.292718 92.693 156.0970
229.947022 92.674 155.9521
231.613312 92.658 155.8107
233.291678 92.643 155.6720
234.982206 92.630 155.5349
236.684984 92.618 155.3984
238.400101 92.608 155.2613
240.127646 92.599 155.1226
241.867710 92.591 154.9816
243.620383 92.583 154.8378
245.385757 92.576 154.6913
247.163923 92.569 154.5423
248.954975 92.563 154.3913
250.759005 92.557 154.2385
252.576108 92.551 154.0839
254.406379 92.545 153.9277
256.249912 92.539 153.7697
258.106805 92.533 153.6099
259.977153 92.527 153.4487
261.861055 92.520 153.2863
263.758608 92.514 153.1233
265.669911 92.507 152.9603
267.595065 92.499 152.7977
269.534169 92.491 152.6359
271.487325 92.484 152.4753
273.454634 92.475 152.3161
275.436199 92.467 152.1587
277.432123 92.459 152.0034
279.442511 92.451 151.8506
281.467467 92.443 151.7003
283.507096 92.435 151.5528
285.561505 92.427 151.4080
287.630801 92.419 151.2662
289.715093 92.411 151.1274
291.814488 92.404 150.9917
293.929096 92.396 150.8591
296.059027 92.389 150.7297
298.204393 92.382 150.6036
300.365305 92.375 150.4807
302.541876 92.369 150.3610
304.734219 92.363 150.2446
306.942449 92.358 150.1316
309.166680 92.353 150.0217
311.407029 92.349 149.9151
313.663613 92.344 149.8114
315.936549 92.340 149.7104
318.225955 92.336 149.6120
320.531952 92.332 149.5157
322.854659 92.328 149.4212
325.194197 92.324 149.3281
327.550688 92.320 149.2359
329.924255 92.316 149.1442
332.315022 92.311 149.0528
334.723114 92.306 148.9617
337.148655 92.300 148.8709
339.591774 92.294 148.7803
342.052596 92.286 148.6901
344.531250 92.278 148.6001
347.027865 92.269 148.5103
349.542572 92.258 148.4210
352.075502 92.246 148.3320
354.626786 92.234 148.2437
357.196558 92.220 148.1563
359.784951 92.205 148.0699
362.392101 92.189 147.9845
365.018144 92.172 147.8999
367.663216 92.155 147.8159
370.327455 92.137 147.7321
373.011000 92.119 147.6480
375.713992 92.100 147.5636
378.436570 92.081 147.4786
381.178878 92.062 147.3932
383.941057 92.043 147.3076
386.723252 92.024 147.2221
389.525608 92.004 147.1374
392.348271 91.985 147.0538
395.191389 91.964 146.9718
398.055108 91.944 146.8921
400.939580 91.923 146.8148
403.844953 91.902 146.7403
406.771380 91.880 146.6684
409.719013 91.857 146.5986
412.688006 91.834 146.5301
415.678514 91.810 146.4622
418.690692 91.785 146.3943
421.724697 91.758 146.3260
424.780688 91.731 146.2571
427.858824 91.702 146.1878
430.959265 91.671 146.1181
434.082174 91.639 146.0481
437.227712 91.606 145.9778
440.396044 91.571 145.9076
443.587336 91.535 145.8377
446.801752 91.497 145.7684
450.039462 91.458 145.7002
453.300634 91.418 145.6336
456.585437 91.378 145.5692
459.894043 91.336 145.5076
463.226625 91.295 145.4495
466.583356 91.254 145.3951
469.964411 91.213 145.3445
473.369967 91.173 145.2973
476.800201 91.133 145.2531
480.255292 91.095 145.2108
483.735420 91.058 145.1697
487.240766 91.023 145.1287
490.771513 90.989 145.0870
494.327846 90.956 145.0438
497.909949 90.925 144.9987
501.518010 90.896 144.9514
505.152216 90.868 144.9018
508.812758 90.842 144.8502
512.499825 90.817 144.7969
516.213610 90.794 144.7422
519.954306 90.773 144.6863
523.722109 90.754 144.6299
527.517216 90.736 144.5733
531.339823 90.720 144.5169
535.190130 90.706 144.4614
539.068339 90.694 144.4070
542.974650 90.684 144.3540
546.909268 90.676 144.3023
550.872398 90.669 144.2515
554.864247 90.664 144.2013
558.885022 90.661 144.1512
562.934933 90.659 144.1009
567.014192 90.658 144.0507
571.123010 90.658 144.0010
575.261603 90.659 143.9528
579.430186 90.660 143.9072
583.628976 90.661 143.8655
587.858192 90.663 143.8288
592.118055 90.664 143.7979
596.408786 90.666 143.7729
600.730610 90.668 143.7532
605.083752 90.670 143.7374
609.468438 90.672 143.7238
613.884897 90.674 143.7104
618.333360 90.677 143.6953
622.814059 90.679 143.6773
627.327226 90.680 143.6555
631.873098 90.681 143.6298
636.451911 90.681 143.6002
641.063904 90.680 143.5674
645.709317 90.677 143.5319
650.388393 90.674 143.4943
655.101375 90.668 143.4553
659.848510 90.662 143.4149
664.630044 90.654 143.3731
669.446228 90.644 143.3293
674.297311 90.634 143.2828
679.183547 90.622 143.2328
684.105191 90.609 143.1789
689.062499 90.594 143.1214
694.055730 90.577 143.0615
699.085144 90.558 143.0011
704.151003 90.537 142.9426
709.253572 90.513 142.8892
714.393116 90.488 142.8439
719.569903 90.460 142.8094
724.784203 90.431 142.7883
730.036288 90.400 142.7818
735.326432 90.369 142.7906
740.654910 90.337 142.8140
746.022001 90.307 142.8500
751.427984 90.277 142.8957
756.873141 90.248 142.9469
762.357756 90.221 142.9988
767.882114 90.196 143.0463
773.446504 90.173 143.0843
779.051217 90.151 143.1083
784.696543 90.131 143.1148
790.382778 90.111 143.1012
796.110217 90.091 143.0660
801.879160 90.072 143.0084
807.689907 90.051 142.9284
813.542761 90.030 142.8271
819.438027 90.007 142.7064
825.376013 89.982 142.5690
831.357028 89.954 142.4192
837.381383 89.923 142.2616
843.449394 89.889 142.1019
849.561376 89.852 141.9457
855.717648 89.811 141.7990
861.918531 89.768 141.6675
868.164348 89.722 141.5569
874.455424 89.674 141.4725
880.792089 89.626 141.4186
887.174671 89.577 141.3986
893.603505 89.529 141.4141
900.078924 89.483 141.4650
906.601267 89.441 141.5490
913.170874 89.404 141.6620
919.788086 89.373 141.7982
926.453250 89.349 141.9503
933.166712 89.331 142.1107
939.928823 89.321 142.2714
946.739934 89.319 142.4252
953.600402 89.324 142.5651
960.510584 89.335 142.6856
967.470839 89.352 142.7822
974.481532 89.374 142.8516
981.543027 89.401 142.8920
988.655692 89.431 142.9031
995.819899 89.464 142.8856
1003.036020 89.499 142.8415
1010.304433 89.535 142.7737
1017.625515 89.572 142.6859
1024.999649 89.608 142.5815
1032.427219 89.645 142.4643
1039.908612 89.682 142.3374
1047.444219 89.718 142.2033
1055.034432 89.755 142.0639
1062.679646 89.791 141.9202
1070.380261 89.827 141.7730
1078.136677 89.863 141.6227
1085.949300 89.900 141.4693
1093.818536 89.935 141.3126
1101.744796 89.971 141.1519
1109.728493 90.005 140.9866
1117.770043 90.039 140.8161
1125.869866 90.071 140.6404
1134.028383 90.102 140.4604
1142.246020 90.130 140.2773
1150.523206 90.156 140.0936
1158.860371 90.179 139.9117
1167.257951 90.200 139.7346
1175.716383 90.218 139.5647
1184.236109 90.234 139.4050
1192.817572 90.248 139.2575
1201.461220 90.261 139.1242
1210.167503 90.272 139.0062
1218.936876 90.284 138.9039
1227.769795 90.295 138.8171
1236.666721 90.307 138.7451
1245.628118 90.320 138.6862
1254.654453 90.334 138.6385
1263.746196 90.351 138.5992
1272.903822 90.370 138.5652
1282.127808 90.390 138.5334
1291.418634 90.413 138.5005
1300.776786 90.438 138.4633
1310.202751 90.464 138.4191
1319.697020 90.490 138.3658
1329.260089 90.518 138.3018
1338.892455 90.544 138.2267
1348.594622 90.571 138.1413
1358.367094 90.595 138.0472
1368.210382 90.619 137.9465
1378.124999 90.641 137.8417
1388.111461 90.662 137.7354
1398.170288 90.681 137.6304
1408.302007 90.699 137.5299
1418.507144 90.716 137.4368
1428.786231 90.732 137.3539
1439.139805 90.749 137.2838
1449.568405 90.766 137.2281
1460.072576 90.783 137.1880
1470.652863 90.802 137.1639
1481.309820 90.823 137.1553
1492.044002 90.845 137.1612
1502.855968 90.868 137.1794
1513.746282 90.893 137.2077
1524.715511 90.919 137.2436
1535.764228 90.945 137.2849
1546.893009 90.971 137.3298
1558.102433 90.996 137.3771
1569.393086 91.020 137.4260
1580.765555 91.042 137.4761
1592.220434 91.062 137.5266
1603.758320 91.078 137.5770
1615.379813 91.092 137.6264
1627.085521 91.102 137.6739
1638.876054 91.108 137.7187
1650.752025 91.111 137.7605
1662.714055 91.108 137.8000
1674.762766 91.101 137.8383
1686.898788 91.089 137.8776
1699.122752 91.071 137.9203
1711.435296 91.049 137.9706
1723.837061 91.020 138.0334
1736.328695 90.986 138.1148
1748.910849 90.947 138.2214
1761.584178 90.904 138.3594
1774.349343 90.858 138.5337
1787.207010 90.809 138.7468
1800.157848 90.759 138.9987
1813.202534 90.708 139.2870
1826.341747 90.659 139.6072
1839.576172 90.611 139.9537
1852.906500 90.564 140.3212
1866.333424 90.519 140.7048
1879.857645 90.474 141.1006
1893.479869 90.430 141.5057
1907.200804 90.386 141.9185
1921.021168 90.342 142.3380
1934.941679 90.297 142.7642
1948.963064 90.251 143.1973
1963.086054 90.204 143.6381
1977.311384 90.156 144.0877
1991.639798 90.107 144.5479
2006.072041 90.056 145.0208
2020.608866 90.004 145.5092
2035.251031 89.952 146.0156
2049.999299 89.900 146.5419
2064.854438 89.849 147.0884
2079.817225 89.800 147.6539
2094.888438 89.754 148.2350
2110.068863 89.712 148.8273
2125.359292 89.674 149.4251
2140.760521 89.641 150.0229
2156.273355 89.613 150.6157
2171.898600 89.590 151.2002
2187.637073 89.570 151.7753
2203.489593 89.556 152.3409
2219.456987 89.546 152.8976
2235.540087 89.540 153.4452
2251.739732 89.539 153.9823
2268.056766 89.544 154.5062
2284.492041 89.553 155.0135
2301.046412 89.568 155.5015
2317.720742 89.587 155.9681
2334.515902 89.610 156.4128
2351.432767 89.638 156.8362
2368.472218 89.669 157.2396
2385.635144 89.704 157.6240
2402.922440 89.743 157.9902
2420.335006 89.787 158.3382
2437.873752 89.835 158.6677
2455.539590 89.887 158.9777
2473.333442 89.945 159.2675
2491.256235 90.006 159.5357
2509.308905 90.073 159.7809
2527.492392 90.144 160.0009
2545.807644 90.219 160.1939
2564.255615 90.298 160.3583
2582.837268 90.380 160.4933
2601.553572 90.465 160.5998
2620.405502 90.551 160.6795
2639.394040 90.639 160.7360
2658.520177 90.727 160.7736
2677.784910 90.816 160.7969
2697.189244 90.906 160.8104
2716.734189 90.996 160.8171
2736.420765 91.087 160.8189
2756.249998 91.179 160.8163
2776.222921 91.273 160.8087
2796.340577 91.367 160.7951
2816.604013 91.463 160.7743
2837.014287 91.559 160.7453
2857.572462 91.655 160.7077
2878.279610 91.750 160.6617
2899.136811 91.845 160.6078
2920.145151 91.938 160.5468
2941.305727 92.029 160.4795
2962.619641 92.117 160.4066
2984.088004 92.203 160.3288
3005.711935 92.286 160.2465
3027.492563 92.364 160.1604
3049.431022 92.438 160.0709
3071.528457 92.507 159.9787
3093.786018 92.570 159.8849
3116.204867 92.627 159.7906
3138.786172 92.678 159.6974
3161.531110 92.722 159.6067
3184.440868 92.759 159.5191
3207.516639 92.790 159.4349
3230.759627 92.813 159.3538
3254.171043 92.829 159.2748
3277.752108 92.838 159.1973
3301.504051 92.840 159.1208
3325.428110 92.834 159.0456
3349.525533 92.821 158.9728
3373.797576 92.800 158.9044
3398.245504 92.772 158.8430
3422.870591 92.736 158.7920
3447.674123 92.694 158.7543
3472.657391 92.646 158.7326
3497.821698 92.594 158.7284
3523.168356 92.537 158.7425
3548.698686 92.477 158.7750
3574.414019 92.415 158.8253
3600.315697 92.351 158.8926
3626.405068 92.288 158.9757
3652.683494 92.224 159.0737
3679.152345 92.161 159.1863
3705.812999 92.099 159.3142
3732.666848 92.039 159.4592
3759.715291 91.981 159.6240
3786.959737 91.926 159.8115
3814.401609 91.875 160.0246
3842.042335 91.827 160.2652
3869.883358 91.785 160.5346
3897.926128 91.749 160.8333
3926.172107 91.719 161.1614
3954.622769 91.696 161.5189
3983.279596 91.680 161.9057
4012.144082 91.671 162.3220
4041.217732 91.670 162.7679
4070.502061 91.676 163.2433
4099.998597 91.691 163.7480
4129.708877 91.713 164.2807
4159.634450 91.743 164.8397
4189.776876 91.781 165.4218
4220.137726 91.828 166.0223
4250.718584 91.883 166.6354
4281.521043 91.945 167.2536
4312.546709 92.016 167.8683
4343.797200 92.094 168.4702
4375.274146 92.178 169.0495
4406.979186 92.269 169.5966
4438.913974 92.364 170.1022
4471.080174 92.464 170.5574
4503.479464 92.566 170.9543
4536.113533 92.671 171.2855
4568.984081 92.777 171.5450
4602.092823 92.882 171.7275
4635.441485 92.986 171.8291
4669.031805 93.087 171.8472
4702.865534 93.184 171.7809
4736.944436 93.276 171.6309
4771.270288 93.362 171.3997
4805.844880 93.440 171.0913
4840.670013 93.511 170.7108
4875.747503 93.572 170.2640
4911.079179 93.623 169.7574
4946.666884 93.664 169.1982
4982.512471 93.693 168.5940
5018.617810 93.712 167.9529
5054.984784 93.718 167.2840
5091.615287 93.711 166.5973
5128.511230 93.691 165.9041
5165.674537 93.657 165.2174
5203.107144 93.610 164.5518
5240.811003 93.548 163.9233
5278.788080 93.474 163.3496
5317.040355 93.386 162.8492
5355.569821 93.288 162.4409
5394.378487 93.180 162.1432
5433.468378 93.066 161.9729
5472.841529 92.949 161.9442
5512.499995 92.832 162.0663
5552.445842 92.720 162.3429
5592.681154 92.618 162.7701
5633.208027 92.530 163.3360
5674.028574 92.460 164.0198
5715.144924 92.410 164.7933
5756.559221 92.382 165.6221
5798.273622 92.376 166.4688
5840.290302 92.391 167.2960
5882.611454 92.424 168.0701
5925.239281 92.471 168.7637
5968.176007 92.528 169.3574
6011.423871 92.589 169.8400
6054.985126 92.650 170.2090
6098.862045 92.706 170.4694
6143.056913 92.754 170.6323
6187.572036 92.790 170.7130
6232.409733 92.812 170.7300
6277.572344 92.818 170.7036
6323.062220 92.808 170.6540
6368.881736 92.781 170.6010
6415.033278 92.737 170.5623
6461.519254 92.678 170.5538
6508.342086 92.604 170.5888
6555.504216 92.517 170.6780
6603.008102 92.418 170.8304
6650.856220 92.310 171.0526
6699.051066 92.193 171.3493
6747.595151 92.071 171.7230
6796.491007 91.946 172.1732
6845.741183 91.819 172.6965
6895.348246 91.695 173.2852
6945.314781 91.575 173.9264
6995.643395 91.462 174.6018
7046.336711 91.360 175.2878
7097.397372 91.268 175.9564
7148.828039 91.189 176.5771
7200.631394 91.122 177.1186
7252.810137 91.067 177.5503
7305.366989 91.020 177.8442
7358.304690 90.979 177.9758
7411.625999 90.941 177.9253
7465.333696 90.901 177.6780
7519.430581 90.854 177.2250
7573.919475 90.794 176.5638
7628.803218 90.716 175.6985
7684.084670 90.612 174.6403
7739.766716 90.478 173.4085
7795.852256 90.305 172.0306
7852.344215 90.089 170.5435
7909.245538 89.824 168.9941
7966.559191 89.505 167.4400
8024.288163 89.127 165.9509
8082.435463 88.689 164.6102
8141.004122 88.189 163.5183
8199.997194 87.628 162.7976
8259.417754 87.009 162.6021
8319.268900 86.339 163.1316
8379.553752 85.628 164.6548
8440.275452 84.892 167.5398
8501.437168 84.151 172.2847
8563.042086 83.436 179.4973
8625.093419 82.784 -170.3137
8687.594401 82.236 -157.3278
8750.548291 81.829 -143.0546
8813.958371 81.592 -129.7859
8877.827947 81.529 -119.0100
8942.160348 81.627 -110.9017
9006.958928 81.857 -104.9738
9072.227065 82.182 -100.6577
9137.968162 82.571 -97.5043
9204.185647 82.997 -95.2012
9270.882970 83.441 -93.5414
9338.063610 83.888 -92.3903
9405.731068 84.328 -91.6619
9473.888873 84.755 -91.3014
9542.540577 85.164 -91.2743
9611.689759 85.550 -91.5581
9681.340025 85.908 -92.1363
9751.495006 86.236 -92.9953
9822.158359 86.528 -94.1202
9893.333767 86.781 -95.4934
9965.024942 86.990 -97.0929
10037.235620 87.151 -98.8916
10109.969567 87.260 -100.8570
10183.230574 87.315 -102.9520
10257.022461 87.313 -105.1354
10331.349074 87.252 -107.3636
10406.214288 87.132 -109.5918
10481.622007 86.954 -111.7756
10557.576160 86.720 -113.8724
10634.080709 86.431 -115.8420
10711.139642 86.090 -117.6474
10788.756975 85.700 -119.2546
10866.936755 85.265 -120.6323
10945.683059 84.789 -121.7516
11024.999990 84.276 -122.5856
11104.891685 83.730 -123.1096
11185.362308 83.155 -123.3012
11266.416054 82.558 -123.1421
11348.057149 81.943 -122.6198
11430.289849 81.318 -121.7309
11513.118441 80.688 -120.4837
11596.547243 80.063 -118.9007
11680.580605 79.449 -117.0196
11765.222907 78.855 -114.8916
11850.478562 78.288 -112.5766
11936.352015 77.755 -110.1364
12022.847742 77.264 -107.6278
12109.970253 76.820 -105.0981
12197.724089 76.430 -102.5842
12286.113826 76.103 -100.1179
12375.144072 75.848 -97.7353
12464.819467 75.676 -95.4876
12555.144687 75.597 -93.4491
12646.124441 75.617 -91.7184
12737.763472 75.738 -90.4107
12830.066557 75.954 -89.6426
12923.038508 76.251 -89.5148
13016.684172 76.612 -90.0984
13111.008431 77.015 -91.4282
13206.016203 77.440 -93.5026
13301.712440 77.870 -96.2881
13398.102132 78.292 -99.7264
13495.190303 78.697 -103.7423
13592.982015 79.081 -108.2522
13691.482366 79.442 -113.1711
13790.696491 79.781 -118.4194
13890.629563 80.100 -123.9275
13991.286791 80.402 -129.6371
14092.673422 80.686 -135.5010
14194.794743 80.950 -141.4807
14297.656077 81.191 -147.5425
14401.262787 81.402 -153.6537
14505.620274 81.577 -159.7791
14610.733978 81.710 -165.8774
14716.609379 81.796 -171.9014
14823.251997 81.833 -177.7985
14930.667392 81.823 176.4841
15038.861162 81.772 170.9926
15147.838950 81.690 165.7581
15257.606435 81.592 160.7877
15368.169341 81.492 156.0597
15479.533431 81.405 151.5223
15591.704511 81.337 147.1006
15704.688430 81.289 142.7095
15818.491076 81.253 138.2722
15933.118383 81.214 133.7371
16048.576327 81.154 129.0876
16164.870926 81.059 124.3418
16282.008245 80.916 119.5432
16399.994388 80.718 114.7475
16518.835508 80.465 110.0118
16638.537799 80.159 105.3869
16759.107503 79.807 100.9123
16880.550905 79.418 96.6140
17002.874335 79.005 92.5004
17126.084171 78.585 88.5587
17250.186837 78.176 84.7485
17375.188802 77.797 80.9997
17501.096582 77.467 77.2138
17627.916743 77.198 73.2741
17755.655894 76.994 69.0617
17884.320696 76.848 64.4706
18013.917856 76.747 59.4186
18144.454131 76.674 53.8499
18275.936325 76.609 47.7312
18408.371293 76.535 41.0461
18541.765940 76.437 33.7910
18676.127219 76.307 25.9757
18811.462136 76.138 17.6339
18947.777745 75.928 8.8453
19085.081153 75.681 -0.2325
19223.379519 75.407 -9.3284
19362.680051 75.122 -18.0427
19502.990012 74.847 -25.8752
19644.316718 74.607 -32.3004
19786.667534 74.429 -36.8583
19930.049884 74.334 -39.2208
