* Measurement data measured by REW V5.31.3
* Source: EXCL: Headset (USB-C to 3.5mm Headphone Jack Adapter), MICROPHONE (Master Volume), 0, volume: 0.750
* Format: 256k Log Swept Sine, 1 sweep at -12.0 dBFS with no timing reference
* Dated: Apr 7, 2025 12:18:42 PM
* REW Settings:
*  C-weighting compensation: Off
*  Target level: 75.0 dB
* Note: ; 
* Measurement: HD6XX R3
* Smoothing: 1/6 octave
* Frequency Step: 96 ppo
* Start Frequency: 20.0 Hz
*
* Freq(Hz) SPL(dB) Phase(degrees)
20.187378 80.618 -97.9671
20.333664 80.646 -98.0380
20.481010 80.685 -98.1319
20.629424 80.735 -98.2446
20.778913 80.797 -98.3724
20.929486 80.869 -98.5124
21.081150 80.953 -98.6631
21.233912 81.047 -98.8241
21.387782 81.151 -98.9967
21.542767 81.263 -99.1827
21.698874 81.381 -99.3845
21.856113 81.504 -99.6043
22.014492 81.628 -99.8437
22.174018 81.752 -100.1033
22.334700 81.873 -100.3829
22.496546 81.990 -100.6809
22.659566 82.099 -100.9954
22.823766 82.201 -101.3239
22.989157 82.295 -101.6642
23.155745 82.379 -102.0143
23.323542 82.454 -102.3733
23.492554 82.521 -102.7410
23.662790 82.580 -103.1184
23.834261 82.631 -103.5071
24.006973 82.677 -103.9095
24.180938 82.718 -104.3276
24.356163 82.755 -104.7631
24.532658 82.788 -105.2166
24.710431 82.819 -105.6875
24.889493 82.847 -106.1736
25.069853 82.874 -106.6711
25.251519 82.899 -107.1751
25.434502 82.923 -107.6796
25.618811 82.946 -108.1783
25.804456 82.969 -108.6651
25.991445 82.990 -109.1344
26.179790 83.011 -109.5818
26.369500 83.032 -110.0043
26.560584 83.052 -110.4005
26.753053 83.073 -110.7707
26.946917 83.094 -111.1162
27.142185 83.115 -111.4397
27.338869 83.137 -111.7445
27.536977 83.160 -112.0341
27.736522 83.184 -112.3119
27.937512 83.209 -112.5807
28.139959 83.236 -112.8426
28.343872 83.265 -113.0992
28.549264 83.296 -113.3514
28.756143 83.329 -113.5997
28.964522 83.367 -113.8451
29.174411 83.408 -114.0886
29.385821 83.452 -114.3324
29.598763 83.502 -114.5794
29.813248 83.555 -114.8332
30.029287 83.612 -115.0979
30.246891 83.672 -115.3774
30.466073 83.735 -115.6750
30.686842 83.799 -115.9925
30.909212 83.864 -116.3305
31.133193 83.930 -116.6874
31.358797 83.995 -117.0606
31.586035 84.061 -117.4461
31.814921 84.127 -117.8393
32.045465 84.195 -118.2361
32.277680 84.264 -118.6324
32.511577 84.337 -119.0253
32.747169 84.412 -119.4130
32.984469 84.491 -119.7943
33.223488 84.574 -120.1690
33.464239 84.660 -120.5371
33.706735 84.749 -120.8992
33.950987 84.841 -121.2560
34.197010 84.934 -121.6085
34.444816 85.027 -121.9582
34.694417 85.122 -122.3068
34.945827 85.216 -122.6568
35.199059 85.310 -123.0106
35.454126 85.405 -123.3709
35.711041 85.499 -123.7398
35.969818 85.593 -124.1186
36.230470 85.687 -124.5077
36.493011 85.781 -124.9058
36.757455 85.874 -125.3107
37.023814 85.967 -125.7190
37.292104 86.059 -126.1264
37.562338 86.149 -126.5287
37.834530 86.238 -126.9216
38.108695 86.325 -127.3019
38.384846 86.409 -127.6677
38.662999 86.490 -128.0182
38.943167 86.569 -128.3546
39.225365 86.645 -128.6791
39.509608 86.718 -128.9949
39.795911 86.789 -129.3059
40.084289 86.857 -129.6157
40.374756 86.923 -129.9279
40.667328 86.987 -130.2455
40.962020 87.049 -130.5707
41.258848 87.108 -130.9049
41.557827 87.165 -131.2485
41.858972 87.220 -131.6008
42.162299 87.271 -131.9601
42.467824 87.318 -132.3239
42.775564 87.362 -132.6891
43.085533 87.403 -133.0524
43.397749 87.440 -133.4112
43.712227 87.475 -133.7641
44.028983 87.508 -134.1105
44.348036 87.540 -134.4516
44.669400 87.572 -134.7894
44.993093 87.604 -135.1263
45.319131 87.637 -135.4653
45.647532 87.671 -135.8089
45.978313 87.705 -136.1586
46.311491 87.738 -136.5149
46.647083 87.770 -136.8764
46.985107 87.800 -137.2399
47.325581 87.829 -137.6007
47.668521 87.855 -137.9534
48.013947 87.880 -138.2928
48.361876 87.904 -138.6147
48.712326 87.928 -138.9166
49.065315 87.952 -139.1976
49.420863 87.977 -139.4580
49.778987 88.002 -139.6991
50.139706 88.028 -139.9230
50.503039 88.053 -140.1327
50.869005 88.077 -140.3324
51.237623 88.100 -140.5270
51.608912 88.120 -140.7218
51.982891 88.138 -140.9213
52.359580 88.153 -141.1286
52.739000 88.165 -141.3447
53.121168 88.175 -141.5696
53.506106 88.182 -141.8025
53.893833 88.189 -142.0427
54.284370 88.194 -142.2898
54.677737 88.200 -142.5434
55.073955 88.207 -142.8031
55.473043 88.215 -143.0677
55.875024 88.225 -143.3358
56.279917 88.236 -143.6057
56.687745 88.249 -143.8759
57.098527 88.264 -144.1452
57.512287 88.282 -144.4131
57.929045 88.302 -144.6801
58.348822 88.325 -144.9480
58.771642 88.349 -145.2193
59.197525 88.377 -145.4978
59.626495 88.407 -145.7867
60.058573 88.439 -146.0881
60.493782 88.475 -146.4019
60.932145 88.513 -146.7267
61.373685 88.555 -147.0592
61.818424 88.599 -147.3966
62.266386 88.645 -147.7361
62.717593 88.693 -148.0765
63.172071 88.743 -148.4175
63.629842 88.793 -148.7599
64.090930 88.844 -149.1046
64.555359 88.895 -149.4520
65.023154 88.946 -149.8014
65.494339 88.997 -150.1517
65.968938 89.048 -150.5012
66.446976 89.100 -150.8485
66.928478 89.152 -151.1929
67.413469 89.205 -151.5337
67.901975 89.259 -151.8706
68.394021 89.312 -152.2036
68.889632 89.364 -152.5329
69.388835 89.415 -152.8591
69.891655 89.463 -153.1831
70.398118 89.509 -153.5056
70.908252 89.550 -153.8270
71.422083 89.588 -154.1474
71.939636 89.622 -154.4668
72.460941 89.652 -154.7852
72.986023 89.679 -155.1029
73.514909 89.702 -155.4199
74.047629 89.722 -155.7364
74.584208 89.739 -156.0526
75.124676 89.753 -156.3686
75.669061 89.765 -156.6844
76.217390 89.775 -157.0003
76.769692 89.783 -157.3165
77.325997 89.790 -157.6335
77.886333 89.797 -157.9518
78.450730 89.802 -158.2720
79.019216 89.807 -158.5943
79.591822 89.811 -158.9190
80.168577 89.814 -159.2455
80.749512 89.815 -159.5731
81.334656 89.816 -159.9011
81.924040 89.815 -160.2285
82.517696 89.813 -160.5547
83.115653 89.811 -160.8795
83.717943 89.809 -161.2031
84.324598 89.807 -161.5262
84.935649 89.804 -161.8494
85.551128 89.802 -162.1729
86.171066 89.800 -162.4964
86.795497 89.798 -162.8190
87.424453 89.795 -163.1395
88.057967 89.792 -163.4568
88.696071 89.788 -163.7700
89.338800 89.783 -164.0785
89.986185 89.778 -164.3823
90.638262 89.772 -164.6816
91.295065 89.766 -164.9773
91.956626 89.759 -165.2700
92.622982 89.753 -165.5602
93.294166 89.746 -165.8478
93.970214 89.740 -166.1325
94.651161 89.734 -166.4135
95.337042 89.728 -166.6901
96.027894 89.722 -166.9624
96.723752 89.717 -167.2305
97.424652 89.711 -167.4953
98.130631 89.705 -167.7576
98.841726 89.699 -168.0179
99.557974 89.692 -168.2770
100.279412 89.686 -168.5355
101.006078 89.679 -168.7938
101.738010 89.673 -169.0528
102.475245 89.668 -169.3129
103.217823 89.663 -169.5750
103.965782 89.659 -169.8399
104.719161 89.656 -170.1082
105.477999 89.655 -170.3806
106.242336 89.655 -170.6571
107.012212 89.657 -170.9372
107.787666 89.661 -171.2202
108.568740 89.666 -171.5048
109.355474 89.673 -171.7902
110.147909 89.681 -172.0755
110.946086 89.690 -172.3598
111.750047 89.700 -172.6427
112.559834 89.710 -172.9238
113.375489 89.720 -173.2035
114.197055 89.730 -173.4822
115.024574 89.739 -173.7599
115.858089 89.748 -174.0362
116.697645 89.756 -174.3102
117.543284 89.763 -174.5804
118.395051 89.770 -174.8457
119.252990 89.776 -175.1051
120.117147 89.782 -175.3587
120.987565 89.787 -175.6071
121.864291 89.792 -175.8513
122.747370 89.796 -176.0927
123.636848 89.800 -176.3322
124.532771 89.803 -176.5705
125.435187 89.806 -176.8077
126.344142 89.808 -177.0439
127.259684 89.809 -177.2792
128.181860 89.810 -177.5142
129.110718 89.810 -177.7496
130.046308 89.808 -177.9863
130.988677 89.806 -178.2256
131.937875 89.802 -178.4686
132.893951 89.796 -178.7161
133.856956 89.789 -178.9686
134.826938 89.781 -179.2258
135.803950 89.772 -179.4864
136.788041 89.761 -179.7490
137.779264 89.749 179.9880
138.777669 89.736 179.7260
139.783309 89.722 179.4661
140.796237 89.707 179.2096
141.816504 89.691 178.9575
142.844165 89.674 178.7107
143.879273 89.655 178.4703
144.921881 89.636 178.2371
145.972045 89.616 178.0115
147.029819 89.595 177.7934
148.095257 89.574 177.5820
149.168417 89.551 177.3759
150.249353 89.528 177.1733
151.338121 89.505 176.9728
152.434780 89.481 176.7727
153.539385 89.457 176.5721
154.651995 89.432 176.3706
155.772667 89.407 176.1682
156.901460 89.383 175.9655
158.038432 89.358 175.7628
159.183644 89.333 175.5608
160.337154 89.309 175.3594
161.499023 89.286 175.1588
162.669312 89.262 174.9591
163.848081 89.239 174.7607
165.035392 89.216 174.5640
166.231306 89.193 174.3698
167.435887 89.169 174.1788
168.649196 89.146 173.9914
169.871298 89.122 173.8076
171.102255 89.098 173.6272
172.342133 89.073 173.4495
173.590995 89.049 173.2737
174.848907 89.024 173.0992
176.115934 88.999 172.9251
177.392143 88.974 172.7509
178.677599 88.948 172.5760
179.972371 88.923 172.4003
181.276525 88.897 172.2233
182.590129 88.871 172.0451
183.913252 88.844 171.8653
185.245964 88.817 171.6841
186.588332 88.790 171.5017
187.940428 88.762 171.3188
189.302322 88.733 171.1366
190.674085 88.705 170.9561
192.055788 88.675 170.7787
193.447503 88.646 170.6057
194.849303 88.616 170.4378
196.261262 88.585 170.2759
197.683452 88.555 170.1205
199.115948 88.524 169.9720
200.558824 88.493 169.8309
202.012156 88.462 169.6969
203.476019 88.431 169.5698
204.950490 88.400 169.4484
206.435646 88.369 169.3315
207.931564 88.338 169.2182
209.438322 88.306 169.1076
210.955998 88.275 168.9995
212.484672 88.243 168.8940
214.024424 88.212 168.7916
215.575333 88.181 168.6933
217.137481 88.150 168.5998
218.710948 88.120 168.5120
220.295818 88.092 168.4307
221.892172 88.065 168.3562
223.500094 88.039 168.2885
225.119668 88.015 168.2271
226.750978 87.993 168.1708
228.394109 87.973 168.1182
230.049147 87.955 168.0675
231.716178 87.938 168.0172
233.395289 87.924 167.9656
235.086567 87.911 167.9113
236.790102 87.899 167.8524
238.505980 87.888 167.7875
240.234293 87.877 167.7156
241.975130 87.867 167.6364
243.728581 87.857 167.5496
245.494739 87.848 167.4561
247.273695 87.838 167.3564
249.065542 87.828 167.2516
250.870374 87.817 167.1431
252.688284 87.807 167.0320
254.519367 87.796 166.9192
256.363720 87.785 166.8055
258.221437 87.774 166.6920
260.092616 87.764 166.5801
261.977354 87.754 166.4719
263.875750 87.744 166.3696
265.787903 87.736 166.2753
267.713911 87.728 166.1901
269.653877 87.721 166.1141
271.607900 87.715 166.0468
273.576083 87.708 165.9869
275.558528 87.703 165.9329
277.555338 87.697 165.8829
279.566619 87.692 165.8350
281.592474 87.686 165.7874
283.633009 87.681 165.7390
285.688331 87.676 165.6891
287.758546 87.671 165.6377
289.843763 87.666 165.5855
291.944090 87.661 165.5334
294.059638 87.655 165.4822
296.190515 87.650 165.4325
298.336833 87.644 165.3846
300.498705 87.639 165.3384
302.676243 87.633 165.2937
304.869559 87.627 165.2506
307.078770 87.622 165.2095
309.303989 87.616 165.1709
311.545334 87.611 165.1352
313.802919 87.606 165.1030
316.076865 87.602 165.0744
318.367288 87.598 165.0494
320.674309 87.594 165.0281
322.998047 87.591 165.0103
325.338624 87.588 164.9954
327.696162 87.585 164.9831
330.070783 87.581 164.9730
332.462612 87.578 164.9645
334.871773 87.573 164.9572
337.298392 87.568 164.9502
339.742595 87.562 164.9426
342.204510 87.555 164.9337
344.684265 87.547 164.9227
347.181989 87.536 164.9094
349.697813 87.525 164.8936
352.231868 87.511 164.8757
354.784285 87.496 164.8559
357.355198 87.480 164.8347
359.944741 87.462 164.8125
362.553049 87.442 164.7899
365.180258 87.422 164.7675
367.826505 87.400 164.7458
370.491927 87.379 164.7256
373.176665 87.357 164.7075
375.880856 87.335 164.6931
378.604644 87.314 164.6839
381.348169 87.293 164.6817
384.111575 87.272 164.6874
386.895006 87.251 164.7014
389.698607 87.231 164.7230
392.522524 87.210 164.7506
395.366904 87.189 164.7828
398.231895 87.168 164.8176
401.117648 87.146 164.8534
404.024312 87.124 164.8887
406.952038 87.102 164.9226
409.900981 87.079 164.9543
412.871292 87.055 164.9841
415.863128 87.030 165.0120
418.876643 87.005 165.0385
421.911996 86.978 165.0642
424.969344 86.949 165.0895
428.048847 86.919 165.1151
431.150666 86.887 165.1412
434.274961 86.853 165.1686
437.421897 86.817 165.1974
440.591636 86.779 165.2279
443.784345 86.740 165.2603
447.000189 86.699 165.2948
450.239337 86.656 165.3319
453.501956 86.613 165.3721
456.788219 86.570 165.4161
460.098294 86.526 165.4641
463.432356 86.482 165.5162
466.790578 86.439 165.5722
470.173135 86.397 165.6316
473.580203 86.356 165.6936
477.011961 86.316 165.7576
480.468586 86.278 165.8228
483.950259 86.241 165.8886
487.457163 86.206 165.9547
490.989478 86.172 166.0208
494.547390 86.140 166.0869
498.131084 86.110 166.1531
501.740748 86.081 166.2194
505.376568 86.054 166.2856
509.038735 86.028 166.3517
512.727439 86.003 166.4170
516.442874 85.981 166.4810
520.185232 85.959 166.5433
523.954708 85.939 166.6033
527.751500 85.921 166.6609
531.575805 85.904 166.7159
535.427822 85.888 166.7684
539.307753 85.875 166.8189
543.215800 85.863 166.8680
547.152165 85.853 166.9164
551.117055 85.845 166.9650
555.110677 85.839 167.0145
559.133237 85.835 167.0659
563.184947 85.832 167.1196
567.266018 85.832 167.1765
571.376661 85.832 167.2371
575.517092 85.833 167.3026
579.687526 85.835 167.3736
583.888181 85.838 167.4512
588.119275 85.840 167.5363
592.381030 85.843 167.6292
596.673667 85.846 167.7299
600.997410 85.849 167.8379
605.352485 85.851 167.9519
609.739119 85.854 168.0703
614.157540 85.857 168.1910
618.607979 85.860 168.3120
623.090667 85.862 168.4314
627.605839 85.864 168.5475
632.153730 85.866 168.6594
636.734576 85.866 168.7666
641.348617 85.866 168.8690
645.996094 85.864 168.9671
650.677248 85.862 169.0613
655.392323 85.859 169.1526
660.141566 85.854 169.2414
664.925224 85.849 169.3285
669.743546 85.842 169.4144
674.596784 85.835 169.4993
679.485191 85.826 169.5836
684.409020 85.816 169.6673
689.368530 85.806 169.7502
694.363979 85.794 169.8321
699.395626 85.781 169.9128
704.463736 85.767 169.9923
709.568570 85.752 170.0708
714.710396 85.735 170.1487
719.889483 85.717 170.2263
725.106099 85.698 170.3042
730.360516 85.677 170.3829
735.653010 85.654 170.4629
740.983855 85.630 170.5442
746.353329 85.605 170.6266
751.761713 85.578 170.7099
757.209288 85.550 170.7936
762.696339 85.521 170.8773
768.223151 85.491 170.9604
773.790013 85.461 171.0428
779.397214 85.429 171.1241
785.045047 85.397 171.2039
790.733808 85.365 171.2812
796.463791 85.333 171.3552
802.235296 85.301 171.4244
808.048623 85.269 171.4876
813.904077 85.237 171.5433
819.801961 85.205 171.5905
825.742584 85.173 171.6282
831.726255 85.139 171.6564
837.753287 85.105 171.6752
843.823992 85.069 171.6860
849.938689 85.031 171.6909
856.097695 84.991 171.6939
862.301332 84.947 171.7001
868.549922 84.900 171.7161
874.843793 84.849 171.7500
881.183272 84.795 171.8106
887.568689 84.739 171.9072
894.000378 84.680 172.0486
900.478673 84.622 172.2416
907.003913 84.565 172.4905
913.576437 84.512 172.7960
920.196588 84.464 173.1539
926.864712 84.424 173.5563
933.581156 84.394 173.9920
940.346270 84.373 174.4475
947.160407 84.363 174.9092
954.023921 84.362 175.3646
960.937172 84.372 175.8034
967.900519 84.390 176.2181
974.914325 84.416 176.6038
981.978956 84.449 176.9582
989.094780 84.487 177.2807
996.262169 84.529 177.5721
1003.481495 84.575 177.8342
1010.753136 84.624 178.0692
1018.077470 84.676 178.2798
1025.454879 84.730 178.4685
1032.885748 84.786 178.6380
1040.370463 84.843 178.7902
1047.909417 84.901 178.9270
1055.503000 84.960 179.0499
1063.151610 85.020 179.1605
1070.855645 85.081 179.2603
1078.615506 85.142 179.3504
1086.431599 85.204 179.4318
1094.304330 85.265 179.5049
1102.234110 85.327 179.5696
1110.221353 85.389 179.6258
1118.266475 85.450 179.6733
1126.369895 85.511 179.7120
1134.532035 85.572 179.7421
1142.753322 85.631 179.7635
1151.034184 85.689 179.7768
1159.375052 85.746 179.7827
1167.776361 85.801 179.7821
1176.238550 85.855 179.7762
1184.762060 85.908 179.7661
1193.347334 85.959 179.7533
1201.994821 86.008 179.7392
1210.704971 86.055 179.7253
1219.478238 86.102 179.7129
1228.315080 86.147 179.7031
1237.215957 86.191 179.6968
1246.181334 86.235 179.6949
1255.211678 86.278 179.6984
1264.307459 86.320 179.7077
1273.469152 86.363 179.7227
1282.697235 86.405 179.7432
1291.992188 86.448 179.7684
1301.354495 86.491 179.7974
1310.784647 86.535 179.8290
1320.283132 86.579 179.8621
1329.850448 86.623 179.8952
1339.487093 86.668 179.9270
1349.193569 86.713 179.9566
1358.970381 86.758 179.9838
1368.818041 86.802 -179.9909
1378.737061 86.847 -179.9665
1388.727958 86.892 -179.9421
1398.791253 86.937 -179.9162
1408.927471 86.982 -179.8879
1419.137140 87.029 -179.8559
1429.420793 87.075 -179.8194
1439.778965 87.123 -179.7779
1450.212197 87.173 -179.7310
1460.721033 87.223 -179.6782
1471.306019 87.275 -179.6194
1481.967709 87.328 -179.5550
1492.706658 87.383 -179.4853
1503.523426 87.438 -179.4112
1514.418576 87.494 -179.3335
1525.392678 87.549 -179.2528
1536.446302 87.605 -179.1696
1547.580025 87.659 -179.0839
1558.794428 87.713 -178.9953
1570.090095 87.764 -178.9034
1581.467615 87.813 -178.8081
1592.927581 87.859 -178.7097
1604.470591 87.903 -178.6085
1616.097246 87.943 -178.5044
1627.808153 87.980 -178.3969
1639.603922 88.013 -178.2848
1651.485168 88.043 -178.1664
1663.452510 88.068 -178.0394
1675.506573 88.091 -177.9018
1687.647984 88.111 -177.7521
1699.877377 88.129 -177.5899
1712.195390 88.145 -177.4159
1724.602663 88.161 -177.2319
1737.099845 88.176 -177.0404
1749.687587 88.191 -176.8442
1762.366544 88.207 -176.6461
1775.137379 88.222 -176.4482
1788.000756 88.237 -176.2521
1800.957346 88.252 -176.0589
1814.007826 88.266 -175.8692
1827.152874 88.280 -175.6833
1840.393177 88.292 -175.5011
1853.729425 88.302 -175.3220
1867.162312 88.312 -175.1452
1880.692540 88.319 -174.9697
1894.320813 88.324 -174.7944
1908.047843 88.327 -174.6186
1921.874344 88.329 -174.4420
1935.801038 88.328 -174.2650
1949.828650 88.326 -174.0885
1963.957912 88.323 -173.9141
1978.189561 88.318 -173.7436
1992.524338 88.311 -173.5787
2006.962991 88.303 -173.4206
2021.506272 88.293 -173.2699
2036.154940 88.281 -173.1268
2050.909758 88.268 -172.9911
2065.771495 88.253 -172.8622
2080.740927 88.237 -172.7396
2095.818833 88.220 -172.6225
2111.006001 88.201 -172.5104
2126.303220 88.182 -172.4026
2141.711290 88.163 -172.2987
2157.231013 88.144 -172.1985
2172.863198 88.124 -172.1020
2188.608660 88.105 -172.0091
2204.468221 88.086 -171.9200
2220.442706 88.068 -171.8345
2236.532950 88.051 -171.7524
2252.739789 88.034 -171.6724
2269.064070 88.018 -171.5930
2285.506644 88.003 -171.5123
2302.068367 87.989 -171.4283
2318.750104 87.976 -171.3395
2335.552723 87.965 -171.2453
2352.477101 87.958 -171.1462
2369.524119 87.953 -171.0440
2386.694668 87.953 -170.9414
2403.989641 87.956 -170.8423
2421.409941 87.964 -170.7501
2438.956476 87.976 -170.6679
2456.630160 87.992 -170.5971
2474.431915 88.011 -170.5379
2492.362668 88.034 -170.4891
2510.423356 88.060 -170.4490
2528.614918 88.089 -170.4158
2546.938304 88.122 -170.3880
2565.394469 88.159 -170.3644
2583.984375 88.199 -170.3444
2602.708991 88.243 -170.3277
2621.569293 88.291 -170.3144
2640.566265 88.343 -170.3048
2659.700897 88.399 -170.2997
2678.974186 88.459 -170.2997
2698.387137 88.523 -170.3060
2717.940763 88.591 -170.3197
2737.636082 88.663 -170.3422
2757.474121 88.739 -170.3751
2777.455915 88.817 -170.4204
2797.582506 88.899 -170.4796
2817.854942 88.982 -170.5543
2838.274281 89.067 -170.6453
2858.841586 89.154 -170.7528
2879.557931 89.240 -170.8769
2900.424394 89.326 -171.0172
2921.442065 89.411 -171.1732
2942.612039 89.494 -171.3440
2963.935418 89.575 -171.5282
2985.413316 89.653 -171.7242
3007.046852 89.727 -171.9302
3028.837153 89.797 -172.1444
3050.785356 89.861 -172.3656
3072.892604 89.921 -172.5926
3095.160050 89.975 -172.8248
3117.588856 90.024 -173.0617
3140.180190 90.065 -173.3024
3162.935230 90.100 -173.5463
3185.855163 90.128 -173.7925
3208.941182 90.148 -174.0403
3232.194493 90.161 -174.2890
3255.616307 90.166 -174.5379
3279.207844 90.164 -174.7865
3302.970336 90.154 -175.0345
3326.905021 90.136 -175.2816
3351.013146 90.111 -175.5277
3375.295969 90.079 -175.7725
3399.754755 90.040 -176.0154
3424.390779 89.994 -176.2554
3449.205326 89.941 -176.4906
3474.199690 89.882 -176.7190
3499.375173 89.817 -176.9382
3524.733088 89.747 -177.1460
3550.274757 89.673 -177.3406
3576.001511 89.595 -177.5206
3601.914692 89.515 -177.6849
3628.015651 89.432 -177.8323
3654.305748 89.349 -177.9615
3680.786354 89.265 -178.0714
3707.458849 89.182 -178.1607
3734.324624 89.100 -178.2287
3761.385080 89.021 -178.2747
3788.641627 88.945 -178.2982
3816.095686 88.872 -178.2991
3843.748688 88.803 -178.2769
3871.602076 88.740 -178.2308
3899.657300 88.681 -178.1595
3927.915825 88.627 -178.0613
3956.379122 88.580 -177.9340
3985.048676 88.538 -177.7757
4013.925981 88.502 -177.5844
4043.012544 88.473 -177.3587
4072.309879 88.451 -177.0981
4101.819515 88.437 -176.8024
4131.542990 88.430 -176.4724
4161.481854 88.431 -176.1101
4191.637667 88.441 -175.7185
4222.012001 88.460 -175.3026
4252.606441 88.487 -174.8690
4283.422580 88.524 -174.4262
4314.462026 88.570 -173.9843
4345.726396 88.625 -173.5547
4377.217321 88.688 -173.1497
4408.936442 88.759 -172.7818
4440.885413 88.835 -172.4629
4473.065899 88.917 -172.2039
4505.479579 89.002 -172.0139
4538.128141 89.089 -171.9003
4571.013288 89.176 -171.8682
4604.136735 89.262 -171.9207
4637.500207 89.344 -172.0585
4671.105446 89.423 -172.2808
4704.954201 89.496 -172.5847
4739.048239 89.562 -172.9660
4773.389336 89.621 -173.4197
4807.979283 89.673 -173.9398
4842.819883 89.715 -174.5204
4877.912952 89.749 -175.1555
4913.260320 89.775 -175.8392
4948.863830 89.791 -176.5657
4984.725337 89.798 -177.3295
5020.846712 89.796 -178.1249
5057.229836 89.784 -178.9461
5093.876609 89.762 -179.7869
5130.788938 89.729 179.3596
5167.968750 89.687 178.5010
5205.417982 89.633 177.6462
5243.138586 89.567 176.8053
5281.132530 89.491 175.9896
5319.401793 89.402 175.2118
5357.948371 89.302 174.4854
5396.774274 89.191 173.8245
5435.881525 89.071 173.2428
5475.272163 88.942 172.7539
5514.948243 88.806 172.3695
5554.911831 88.665 172.0999
5595.165012 88.522 171.9527
5635.709884 88.379 171.9326
5676.548561 88.239 172.0409
5717.683172 88.105 172.2750
5759.115861 87.978 172.6279
5800.848789 87.862 173.0885
5842.884130 87.758 173.6416
5885.224077 87.666 174.2689
5927.870837 87.588 174.9506
5970.826633 87.523 175.6671
6014.093704 87.468 176.4007
6057.674306 87.423 177.1375
6101.570711 87.385 177.8688
6145.785208 87.351 178.5912
6190.320101 87.319 179.3069
6235.177712 87.287 -179.9763
6280.360380 87.254 -179.2469
6325.870460 87.219 -178.4899
6371.710325 87.181 -177.6883
6417.882365 87.143 -176.8248
6464.388986 87.106 -175.8826
6511.232613 87.073 -174.8472
6558.415689 87.047 -173.7076
6605.940673 87.033 -172.4583
6653.810042 87.037 -171.1008
6702.026292 87.064 -169.6458
6750.591937 87.120 -168.1151
6799.509509 87.211 -166.5427
6848.781558 87.340 -164.9755
6898.410653 87.511 -163.4717
6948.399380 87.724 -162.0971
6998.750346 87.978 -160.9205
7049.466176 88.266 -160.0074
7100.549514 88.584 -159.4145
7152.003023 88.922 -159.1856
7203.829385 89.271 -159.3497
7256.031302 89.620 -159.9210
7308.611496 89.962 -160.9001
7361.572708 90.285 -162.2765
7414.917698 90.583 -164.0303
7468.649249 90.848 -166.1349
7522.770160 91.072 -168.5579
7577.283253 91.251 -171.2629
7632.191371 91.379 -174.2103
7687.497376 91.452 -177.3581
7743.204151 91.467 179.3376
7799.314600 91.421 175.9225
7855.831649 91.312 172.4439
7912.758244 91.138 168.9512
7970.097352 90.899 165.4964
8027.851962 90.592 162.1348
8086.025087 90.219 158.9265
8144.619758 89.780 155.9380
8203.639030 89.275 153.2442
8263.085980 88.707 150.9322
8322.963708 88.079 149.1054
8383.275334 87.396 147.8896
8444.024002 86.663 147.4407
8505.212881 85.890 147.9532
8566.845160 85.091 149.6644
8628.924051 84.285 152.8435
8691.452792 83.496 157.7392
8754.434642 82.758 164.4517
8817.872884 82.107 172.7309
8881.770826 81.583 -178.1548
8946.131799 81.216 -169.2370
9010.959157 81.021 -161.3962
9076.256282 80.995 -155.0573
9142.026576 81.113 -150.2356
9208.273470 81.344 -146.7402
9275.000415 81.653 -144.3314
9342.210891 82.011 -142.7949
9409.908403 82.394 -141.9620
9478.096478 82.784 -141.7071
9546.778672 83.167 -141.9384
9615.958566 83.534 -142.5881
9685.639765 83.878 -143.6045
9755.825904 84.193 -144.9458
9826.520640 84.472 -146.5752
9897.727659 84.714 -148.4579
9969.450674 84.913 -150.5593
10041.693423 85.067 -152.8441
10114.459673 85.174 -155.2755
10187.753217 85.233 -157.8162
10261.577877 85.243 -160.4294
10335.937500 85.205 -163.0789
10410.835964 85.120 -165.7310
10486.277173 84.989 -168.3548
10562.265060 84.815 -170.9225
10638.803587 84.600 -173.4100
10715.896743 84.347 -175.7959
10793.548548 84.058 -178.0617
10871.763050 83.737 179.8091
10950.544327 83.386 177.8311
11029.896485 83.009 176.0177
11109.823662 82.608 174.3798
11190.330024 82.187 172.9253
11271.419768 81.752 171.6572
11353.097122 81.306 170.5716
11435.366344 80.855 169.6557
11518.231722 80.406 168.8870
11601.697577 79.963 168.2328
11685.768261 79.533 167.6523
11770.448155 79.118 167.1000
11855.741674 78.721 166.5301
11941.653265 78.342 165.9010
12028.187408 77.979 165.1801
12115.348612 77.630 164.3461
12203.141422 77.289 163.3900
12291.570415 76.952 162.3144
12380.640201 76.614 161.1315
12470.355424 76.271 159.8610
12560.720760 75.920 158.5278
12651.740920 75.560 157.1605
12743.420650 75.189 155.7900
12835.764729 74.812 154.4479
12928.777972 74.432 153.1618
13022.465227 74.057 151.9501
13116.831378 73.700 150.8140
13211.881345 73.375 149.7298
13307.620084 73.101 148.6432
13404.052584 72.892 147.4699
13501.183875 72.760 146.1026
13599.019019 72.711 144.4258
13697.563116 72.738 142.3330
13796.821305 72.830 139.7432
13896.798760 72.968 136.6100
13997.500692 73.134 132.9239
14098.932352 73.313 128.7074
14201.099028 73.492 124.0068
14304.006046 73.666 118.8810
14407.658770 73.836 113.3927
14512.062604 74.006 107.5999
14617.222992 74.185 101.5511
14723.145416 74.381 95.2824
14829.835397 74.605 88.8175
14937.298497 74.862 82.1675
15045.540320 75.157 75.3333
15154.566507 75.487 68.3070
15264.382743 75.846 61.0742
15374.994752 76.223 53.6166
15486.408302 76.605 45.9151
15598.629201 76.974 37.9535
15711.663298 77.314 29.7242
15825.516487 77.605 21.2328
15940.194703 77.831 12.5044
16055.703925 77.977 3.5854
16172.050174 78.033 -5.4561
16289.239516 77.991 -14.5356
16407.278061 77.849 -23.5613
16526.171961 77.610 -32.4434
16645.927415 77.278 -41.1024
16766.550667 76.866 -49.4779
16888.048005 76.387 -57.5317
17010.425762 75.861 -65.2509
17133.690320 75.313 -72.6495
17257.848103 74.773 -79.7703
17382.905584 74.278 -86.6819
17508.869284 73.868 -93.4790
17635.745768 73.581 -100.2764
17763.541652 73.444 -107.2029
17892.263597 73.464 -114.3958
18021.918315 73.628 -121.9945
18152.512564 73.904 -130.1392
18284.053153 74.254 -138.9711
18416.546939 74.639 -148.6387
18550.000830 75.024 -159.3105
18684.421783 75.384 -171.1827
18819.816805 75.701 175.5295
18956.192956 75.963 160.6627
19093.557344 76.165 144.3029
19231.917131 76.308 127.0908
19371.279531 76.395 110.3516
19511.651807 76.438 95.6711
19653.041280 76.451 84.2198
19795.455318 76.448 76.5198
19938.901348 76.443 72.6797
