* Measurement data measured by REW V5.31.3
* Source: EXCL: Headset (USB-C to 3.5mm Headphone Jack Adapter), MICROPHONE (Master Volume), 0, volume: 0.750
* Format: 256k Log Swept Sine, 1 sweep at -12.0 dBFS with no timing reference
* Dated: Apr 1, 2025 10:10:57 PM
* REW Settings:
*  C-weighting compensation: Off
*  Target level: 75.0 dB
* Note: ; 
* Measurement: HD6XX L3
* Smoothing: 1/6 octave
* Frequency Step: 96 ppo
* Start Frequency: 20.0 Hz
*
* Freq(Hz) SPL(dB) Phase(degrees)
20.033247 84.068 -95.2649
20.178416 84.151 -95.4900
20.324637 84.234 -95.7142
20.471918 84.319 -95.9316
20.620266 84.404 -96.1364
20.769689 84.491 -96.3238
20.920195 84.582 -96.4907
21.071791 84.676 -96.6359
21.224486 84.775 -96.7605
21.378287 84.879 -96.8674
21.533203 84.988 -96.9616
21.689242 85.103 -97.0491
21.846411 85.222 -97.1366
22.004719 85.346 -97.2310
22.164174 85.471 -97.3386
22.324785 85.598 -97.4647
22.486559 85.724 -97.6138
22.649506 85.848 -97.7890
22.813634 85.968 -97.9923
22.978951 86.083 -98.2245
23.145466 86.192 -98.4854
23.313188 86.293 -98.7737
23.482124 86.385 -99.0868
23.652286 86.467 -99.4213
23.823680 86.539 -99.7721
23.996316 86.601 -100.1334
24.170203 86.653 -100.4981
24.345351 86.694 -100.8586
24.521767 86.727 -101.2075
24.699462 86.752 -101.5378
24.878444 86.771 -101.8442
25.058724 86.785 -102.1236
25.240310 86.798 -102.3758
25.423211 86.812 -102.6040
25.607438 86.827 -102.8143
25.793000 86.846 -103.0155
25.979907 86.870 -103.2176
26.168168 86.898 -103.4311
26.357794 86.930 -103.6651
26.548793 86.967 -103.9267
26.741176 87.005 -104.2198
26.934954 87.045 -104.5451
27.130136 87.084 -104.9005
27.326732 87.123 -105.2814
27.524753 87.160 -105.6819
27.724208 87.196 -106.0959
27.925110 87.230 -106.5175
28.127466 87.263 -106.9422
28.331290 87.295 -107.3665
28.536590 87.326 -107.7880
28.743378 87.357 -108.2053
28.951664 87.389 -108.6169
29.161460 87.420 -109.0215
29.372776 87.452 -109.4170
29.585623 87.486 -109.8011
29.800013 87.520 -110.1714
30.015956 87.557 -110.5259
30.233464 87.596 -110.8636
30.452548 87.639 -111.1848
30.673220 87.688 -111.4914
30.895490 87.742 -111.7867
31.119372 87.801 -112.0747
31.344876 87.867 -112.3600
31.572014 87.939 -112.6463
31.800797 88.017 -112.9365
32.031239 88.100 -113.2320
32.263351 88.187 -113.5328
32.497144 88.278 -113.8379
32.732632 88.373 -114.1458
32.969826 88.470 -114.4549
33.208739 88.571 -114.7642
33.449383 88.674 -115.0736
33.691771 88.779 -115.3837
33.935916 88.887 -115.6961
34.181829 88.995 -116.0124
34.429525 89.104 -116.3345
34.679015 89.213 -116.6639
34.930314 89.321 -117.0011
35.183433 89.428 -117.3461
35.438387 89.532 -117.6978
35.695188 89.634 -118.0546
35.953850 89.733 -118.4141
36.214387 89.828 -118.7741
36.476811 89.921 -119.1326
36.741137 90.011 -119.4883
37.007378 90.099 -119.8407
37.275549 90.185 -120.1908
37.545663 90.270 -120.5404
37.817734 90.353 -120.8922
38.091777 90.435 -121.2491
38.367806 90.515 -121.6136
38.645835 90.593 -121.9872
38.925879 90.668 -122.3694
39.207952 90.740 -122.7584
39.492069 90.809 -123.1503
39.778244 90.875 -123.5405
40.066494 90.938 -123.9242
40.356832 90.999 -124.2975
40.649275 91.059 -124.6580
40.943836 91.118 -125.0055
41.240532 91.177 -125.3416
41.539378 91.236 -125.6693
41.840389 91.296 -125.9921
42.143582 91.356 -126.3130
42.448972 91.416 -126.6340
42.756574 91.475 -126.9555
43.066406 91.532 -127.2768
43.378483 91.588 -127.5966
43.692822 91.642 -127.9134
44.009438 91.695 -128.2263
44.328348 91.746 -128.5354
44.649570 91.795 -128.8417
44.973119 91.843 -129.1469
45.299013 91.890 -129.4535
45.627268 91.935 -129.7638
45.957902 91.978 -130.0798
46.290932 92.019 -130.4027
46.626375 92.058 -130.7327
46.964249 92.094 -131.0694
47.304571 92.127 -131.4117
47.647360 92.158 -131.7579
47.992632 92.186 -132.1069
48.340407 92.211 -132.4572
48.690701 92.235 -132.8077
49.043534 92.257 -133.1572
49.398924 92.277 -133.5046
49.756889 92.297 -133.8495
50.117447 92.315 -134.1917
50.480619 92.333 -134.5316
50.846423 92.350 -134.8696
51.214877 92.367 -135.2054
51.586001 92.382 -135.5373
51.959814 92.397 -135.8622
52.336336 92.411 -136.1763
52.715587 92.424 -136.4759
53.097586 92.437 -136.7594
53.482353 92.451 -137.0270
53.869908 92.467 -137.2814
54.260272 92.485 -137.5264
54.653464 92.505 -137.7661
55.049506 92.526 -138.0038
55.448417 92.549 -138.2416
55.850219 92.574 -138.4805
56.254933 92.599 -138.7210
56.662579 92.626 -138.9632
57.073180 92.653 -139.2072
57.486755 92.682 -139.4537
57.903328 92.712 -139.7037
58.322919 92.743 -139.9584
58.745551 92.775 -140.2189
59.171246 92.809 -140.4857
59.600025 92.844 -140.7582
60.031911 92.879 -141.0347
60.466927 92.916 -141.3130
60.905096 92.953 -141.5910
61.346439 92.993 -141.8674
61.790981 93.035 -142.1422
62.238744 93.079 -142.4166
62.689751 93.126 -142.6920
63.144027 93.175 -142.9701
63.601595 93.227 -143.2525
64.062478 93.280 -143.5402
64.526701 93.335 -143.8338
64.994288 93.391 -144.1329
65.465264 93.448 -144.4367
65.939652 93.505 -144.7437
66.417478 93.561 -145.0524
66.898766 93.617 -145.3615
67.383542 93.672 -145.6702
67.871831 93.727 -145.9782
68.363659 93.780 -146.2858
68.859050 93.832 -146.5936
69.358031 93.883 -146.9025
69.860628 93.932 -147.2133
70.366867 93.979 -147.5271
70.876774 94.024 -147.8445
71.390376 94.066 -148.1666
71.907700 94.107 -148.4935
72.428773 94.145 -148.8256
72.953622 94.180 -149.1623
73.482274 94.213 -149.5030
74.014757 94.242 -149.8469
74.551098 94.270 -150.1928
75.091326 94.294 -150.5396
75.635469 94.316 -150.8862
76.183555 94.335 -151.2320
76.735612 94.352 -151.5764
77.291670 94.367 -151.9193
77.851757 94.380 -152.2611
78.415903 94.391 -152.6019
78.984137 94.400 -152.9419
79.556489 94.408 -153.2811
80.132988 94.414 -153.6192
80.713665 94.419 -153.9551
81.298549 94.423 -154.2877
81.887672 94.427 -154.6158
82.481064 94.429 -154.9385
83.078756 94.432 -155.2551
83.680778 94.434 -155.5652
84.287164 94.436 -155.8692
84.897943 94.438 -156.1677
85.513149 94.441 -156.4620
86.132812 94.443 -156.7538
86.756966 94.445 -157.0447
87.385643 94.447 -157.3367
88.018875 94.449 -157.6313
88.656696 94.449 -157.9301
89.299139 94.449 -158.2342
89.946238 94.449 -158.5445
90.598025 94.447 -158.8613
91.254536 94.445 -159.1837
91.915804 94.442 -159.5103
92.581864 94.438 -159.8389
93.252750 94.434 -160.1672
93.928498 94.430 -160.4933
94.609143 94.426 -160.8159
95.294719 94.422 -161.1338
95.985264 94.419 -161.4467
96.680813 94.416 -161.7547
97.381402 94.413 -162.0582
98.087068 94.410 -162.3581
98.797847 94.408 -162.6556
99.513777 94.406 -162.9514
100.234895 94.404 -163.2465
100.961238 94.403 -163.5413
101.692845 94.402 -163.8364
102.429753 94.402 -164.1322
103.172002 94.403 -164.4287
103.919628 94.404 -164.7258
104.672673 94.407 -165.0231
105.431174 94.410 -165.3197
106.195172 94.413 -165.6148
106.964706 94.418 -165.9074
107.739816 94.423 -166.1967
108.520543 94.428 -166.4821
109.306928 94.434 -166.7634
110.099011 94.441 -167.0406
110.896834 94.449 -167.3140
111.700438 94.457 -167.5842
112.509866 94.466 -167.8513
113.325158 94.476 -168.1158
114.146359 94.486 -168.3781
114.973511 94.496 -168.6388
115.806656 94.507 -168.8987
116.645839 94.517 -169.1586
117.491103 94.528 -169.4195
118.342492 94.538 -169.6819
119.200050 94.547 -169.9463
120.063823 94.556 -170.2127
120.933855 94.564 -170.4806
121.810191 94.572 -170.7492
122.692878 94.578 -171.0175
123.581962 94.584 -171.2843
124.477487 94.589 -171.5484
125.379503 94.593 -171.8091
126.288054 94.597 -172.0658
127.203189 94.599 -172.3184
128.124956 94.601 -172.5671
129.053402 94.602 -172.8121
129.988577 94.603 -173.0541
130.930527 94.602 -173.2933
131.879304 94.599 -173.5300
132.834956 94.596 -173.7646
133.797533 94.591 -173.9970
134.767085 94.586 -174.2275
135.743663 94.579 -174.4563
136.727317 94.570 -174.6834
137.718100 94.561 -174.9091
138.716062 94.550 -175.1334
139.721255 94.539 -175.3564
140.733733 94.526 -175.5785
141.753548 94.512 -175.7996
142.780753 94.497 -176.0201
143.815401 94.481 -176.2399
144.857546 94.464 -176.4593
145.907244 94.447 -176.6783
146.964548 94.428 -176.8967
148.029514 94.410 -177.1145
149.102197 94.390 -177.3312
150.182652 94.370 -177.5464
151.270938 94.350 -177.7595
152.367109 94.329 -177.9702
153.471224 94.308 -178.1783
154.583340 94.286 -178.3837
155.703515 94.265 -178.5863
156.831807 94.243 -178.7865
157.968274 94.221 -178.9846
159.112978 94.200 -179.1807
160.265976 94.178 -179.3752
161.427329 94.157 -179.5683
162.597098 94.137 -179.7599
163.775344 94.117 -179.9499
164.962128 94.097 179.8621
166.157511 94.078 179.6761
167.361557 94.059 179.4922
168.574328 94.040 179.3104
169.795887 94.021 179.1302
171.026298 94.003 178.9516
172.265625 93.984 178.7741
173.513933 93.966 178.5974
174.771286 93.947 178.4211
176.037751 93.929 178.2449
177.313393 93.911 178.0689
178.598279 93.892 177.8931
179.892476 93.873 177.7180
181.196051 93.853 177.5439
182.509072 93.833 177.3718
183.831608 93.812 177.2021
185.163728 93.790 177.0354
186.505500 93.767 176.8716
187.856996 93.744 176.7104
189.218285 93.720 176.5513
190.589439 93.696 176.3934
191.970529 93.671 176.2365
193.361626 93.646 176.0802
194.762804 93.620 175.9250
196.174136 93.594 175.7712
197.595694 93.568 175.6197
199.027554 93.541 175.4713
200.469790 93.514 175.3269
201.922477 93.486 175.1873
203.385690 93.457 175.0530
204.859507 93.427 174.9240
206.344003 93.397 174.8001
207.839257 93.367 174.6810
209.345346 93.336 174.5662
210.862348 93.306 174.4553
212.390344 93.277 174.3480
213.929412 93.248 174.2434
215.479633 93.220 174.1405
217.041087 93.193 174.0379
218.613856 93.167 173.9341
220.198022 93.142 173.8282
221.793668 93.119 173.7200
223.400876 93.098 173.6097
225.019731 93.078 173.4982
226.650317 93.059 173.3866
228.292718 93.043 173.2761
229.947022 93.028 173.1677
231.613312 93.014 173.0621
233.291678 93.002 172.9598
234.982206 92.991 172.8607
236.684984 92.981 172.7649
238.400101 92.971 172.6718
240.127646 92.962 172.5812
241.867710 92.953 172.4923
243.620383 92.945 172.4046
245.385757 92.936 172.3177
247.163923 92.928 172.2312
248.954975 92.920 172.1452
250.759005 92.913 172.0596
252.576108 92.906 171.9745
254.406379 92.899 171.8903
256.249912 92.893 171.8076
258.106805 92.886 171.7270
259.977153 92.880 171.6494
261.861055 92.874 171.5753
263.758608 92.867 171.5047
265.669911 92.861 171.4377
267.595065 92.854 171.3738
269.534169 92.847 171.3127
271.487325 92.840 171.2538
273.454634 92.832 171.1970
275.436199 92.825 171.1418
277.432123 92.817 171.0879
279.442511 92.809 171.0349
281.467467 92.801 170.9825
283.507096 92.794 170.9308
285.561505 92.787 170.8798
287.630801 92.780 170.8295
289.715093 92.773 170.7802
291.814488 92.766 170.7319
293.929096 92.760 170.6848
296.059027 92.755 170.6391
298.204393 92.749 170.5950
300.365305 92.744 170.5530
302.541876 92.739 170.5137
304.734219 92.734 170.4775
306.942449 92.729 170.4448
309.166680 92.725 170.4154
311.407029 92.722 170.3892
313.663613 92.719 170.3653
315.936549 92.716 170.3430
318.225955 92.714 170.3216
320.531952 92.712 170.3004
322.854659 92.710 170.2792
325.194197 92.708 170.2582
327.550688 92.706 170.2380
329.924255 92.705 170.2191
332.315022 92.703 170.2025
334.723114 92.700 170.1886
337.148655 92.697 170.1780
339.591774 92.693 170.1714
342.052596 92.688 170.1690
344.531250 92.682 170.1711
347.027865 92.674 170.1772
349.542572 92.666 170.1865
352.075502 92.656 170.1980
354.626786 92.644 170.2105
357.196558 92.632 170.2232
359.784951 92.619 170.2354
362.392101 92.605 170.2473
365.018144 92.590 170.2588
367.663216 92.574 170.2704
370.327455 92.558 170.2822
373.011000 92.542 170.2945
375.713992 92.524 170.3075
378.436570 92.507 170.3212
381.178878 92.490 170.3355
383.941057 92.472 170.3503
386.723252 92.454 170.3652
389.525608 92.436 170.3797
392.348271 92.419 170.3932
395.191389 92.401 170.4055
398.055108 92.383 170.4164
400.939580 92.365 170.4262
403.844953 92.346 170.4356
406.771380 92.328 170.4456
409.719013 92.308 170.4576
412.688006 92.288 170.4725
415.678514 92.266 170.4911
418.690692 92.243 170.5135
421.724697 92.219 170.5394
424.780688 92.193 170.5682
427.858824 92.166 170.5995
430.959265 92.137 170.6328
434.082174 92.107 170.6679
437.227712 92.075 170.7047
440.396044 92.042 170.7434
443.587336 92.008 170.7841
446.801752 91.972 170.8268
450.039462 91.935 170.8718
453.300634 91.898 170.9191
456.585437 91.860 170.9685
459.894043 91.822 171.0198
463.226625 91.784 171.0724
466.583356 91.746 171.1260
469.964411 91.709 171.1797
473.369967 91.672 171.2330
476.800201 91.636 171.2858
480.255292 91.600 171.3379
483.735420 91.566 171.3895
487.240766 91.532 171.4409
490.771513 91.500 171.4924
494.327846 91.469 171.5439
497.909949 91.440 171.5959
501.518010 91.413 171.6486
505.152216 91.386 171.7021
508.812758 91.362 171.7570
512.499825 91.339 171.8135
516.213610 91.318 171.8718
519.954306 91.298 171.9318
523.722109 91.281 171.9935
527.517216 91.265 172.0570
531.339823 91.251 172.1223
535.190130 91.240 172.1892
539.068339 91.230 172.2579
542.974650 91.222 172.3282
546.909268 91.216 172.4001
550.872398 91.212 172.4735
554.864247 91.210 172.5486
558.885022 91.210 172.6254
562.934933 91.211 172.7040
567.014192 91.214 172.7843
571.123010 91.218 172.8662
575.261603 91.223 172.9495
579.430186 91.230 173.0339
583.628976 91.238 173.1191
587.858192 91.246 173.2050
592.118055 91.255 173.2914
596.408786 91.264 173.3786
600.730610 91.273 173.4665
605.083752 91.282 173.5551
609.468438 91.291 173.6444
613.884897 91.299 173.7337
618.333360 91.307 173.8223
622.814059 91.315 173.9091
627.327226 91.321 173.9934
631.873098 91.327 174.0742
636.451911 91.331 174.1510
641.063904 91.335 174.2232
645.709317 91.336 174.2905
650.388393 91.337 174.3526
655.101375 91.336 174.4097
659.848510 91.333 174.4618
664.630044 91.329 174.5096
669.446228 91.323 174.5539
674.297311 91.316 174.5957
679.183547 91.307 174.6364
684.105191 91.296 174.6772
689.062499 91.283 174.7196
694.055730 91.268 174.7648
699.085144 91.251 174.8137
704.151003 91.233 174.8671
709.253572 91.213 174.9255
714.393116 91.192 174.9890
719.569903 91.169 175.0576
724.784203 91.145 175.1307
730.036288 91.119 175.2078
735.326432 91.092 175.2882
740.654910 91.064 175.3708
746.022001 91.035 175.4550
751.427984 91.005 175.5399
756.873141 90.973 175.6250
762.357756 90.939 175.7104
767.882114 90.904 175.7961
773.446504 90.868 175.8827
779.051217 90.830 175.9705
784.696543 90.790 176.0598
790.382778 90.750 176.1509
796.110217 90.708 176.2441
801.879160 90.665 176.3400
807.689907 90.621 176.4402
813.542761 90.576 176.5471
819.438027 90.530 176.6644
825.376013 90.484 176.7962
831.357028 90.438 176.9467
837.381383 90.392 177.1197
843.449394 90.347 177.3170
849.561376 90.305 177.5389
855.717648 90.266 177.7833
861.918531 90.231 178.0461
868.164348 90.200 178.3218
874.455424 90.174 178.6043
880.792089 90.153 178.8876
887.174671 90.137 179.1661
893.603505 90.125 179.4358
900.078924 90.116 179.6937
906.601267 90.111 179.9383
913.170874 90.109 -179.8305
919.788086 90.109 -179.6122
926.453250 90.111 -179.4053
933.166712 90.115 -179.2079
939.928823 90.120 -179.0179
946.739934 90.127 -178.8326
953.600402 90.136 -178.6498
960.510584 90.146 -178.4672
967.470839 90.160 -178.2830
974.481532 90.176 -178.0960
981.543027 90.195 -177.9062
988.655692 90.219 -177.7144
995.819899 90.246 -177.5226
1003.036020 90.279 -177.3338
1010.304433 90.315 -177.1510
1017.625515 90.356 -176.9771
1024.999649 90.400 -176.8144
1032.427219 90.448 -176.6642
1039.908612 90.498 -176.5272
1047.444219 90.551 -176.4034
1055.034432 90.606 -176.2930
1062.679646 90.663 -176.1960
1070.380261 90.721 -176.1128
1078.136677 90.780 -176.0438
1085.949300 90.839 -175.9890
1093.818536 90.898 -175.9482
1101.744796 90.957 -175.9206
1109.728493 91.015 -175.9047
1117.770043 91.072 -175.8982
1125.869866 91.127 -175.8987
1134.028383 91.181 -175.9034
1142.246020 91.233 -175.9104
1150.523206 91.283 -175.9180
1158.860371 91.332 -175.9258
1167.257951 91.381 -175.9339
1175.716383 91.428 -175.9427
1184.236109 91.473 -175.9529
1192.817572 91.518 -175.9643
1201.461220 91.561 -175.9761
1210.167503 91.603 -175.9865
1218.936876 91.644 -175.9931
1227.769795 91.684 -175.9939
1236.666721 91.723 -175.9872
1245.628118 91.762 -175.9729
1254.654453 91.801 -175.9521
1263.746196 91.841 -175.9265
1272.903822 91.881 -175.8981
1282.127808 91.921 -175.8684
1291.418634 91.962 -175.8384
1300.776786 92.003 -175.8087
1310.202751 92.044 -175.7796
1319.697020 92.085 -175.7513
1329.260089 92.126 -175.7240
1338.892455 92.167 -175.6978
1348.594622 92.208 -175.6723
1358.367094 92.249 -175.6469
1368.210382 92.289 -175.6205
1378.124999 92.330 -175.5918
1388.111461 92.370 -175.5598
1398.170288 92.412 -175.5241
1408.302007 92.454 -175.4848
1418.507144 92.497 -175.4427
1428.786231 92.542 -175.3984
1439.139805 92.587 -175.3517
1449.568405 92.633 -175.3018
1460.072576 92.681 -175.2474
1470.652863 92.729 -175.1870
1481.309820 92.779 -175.1196
1492.044002 92.829 -175.0447
1502.855968 92.880 -174.9626
1513.746282 92.932 -174.8741
1524.715511 92.985 -174.7811
1535.764228 93.038 -174.6856
1546.893009 93.090 -174.5895
1558.102433 93.140 -174.4937
1569.393086 93.189 -174.3984
1580.765555 93.235 -174.3028
1592.220434 93.277 -174.2055
1603.758320 93.316 -174.1053
1615.379813 93.352 -174.0008
1627.085521 93.384 -173.8910
1638.876054 93.412 -173.7753
1650.752025 93.436 -173.6533
1662.714055 93.457 -173.5244
1674.762766 93.474 -173.3878
1686.898788 93.488 -173.2426
1699.122752 93.500 -173.0873
1711.435296 93.508 -172.9207
1723.837061 93.515 -172.7421
1736.328695 93.520 -172.5512
1748.910849 93.524 -172.3488
1761.584178 93.528 -172.1365
1774.349343 93.531 -171.9165
1787.207010 93.535 -171.6909
1800.157848 93.538 -171.4614
1813.202534 93.540 -171.2289
1826.341747 93.542 -170.9938
1839.576172 93.543 -170.7561
1852.906500 93.543 -170.5154
1866.333424 93.542 -170.2708
1879.857645 93.540 -170.0213
1893.479869 93.536 -169.7660
1907.200804 93.531 -169.5046
1921.021168 93.525 -169.2375
1934.941679 93.517 -168.9657
1948.963064 93.509 -168.6908
1963.086054 93.500 -168.4143
1977.311384 93.490 -168.1378
1991.639798 93.479 -167.8624
2006.072041 93.468 -167.5894
2020.608866 93.456 -167.3203
2035.251031 93.443 -167.0569
2049.999299 93.431 -166.8007
2064.854438 93.418 -166.5528
2079.817225 93.405 -166.3140
2094.888438 93.392 -166.0853
2110.068863 93.379 -165.8673
2125.359292 93.367 -165.6613
2140.760521 93.355 -165.4680
2156.273355 93.344 -165.2879
2171.898600 93.333 -165.1210
2187.637073 93.322 -164.9665
2203.489593 93.312 -164.8235
2219.456987 93.301 -164.6909
2235.540087 93.291 -164.5670
2251.739732 93.281 -164.4500
2268.056766 93.271 -164.3377
2284.492041 93.262 -164.2278
2301.046412 93.252 -164.1181
2317.720742 93.243 -164.0064
2334.515902 93.236 -163.8909
2351.432767 93.230 -163.7701
2368.472218 93.225 -163.6431
2385.635144 93.223 -163.5096
2402.922440 93.225 -163.3699
2420.335006 93.230 -163.2248
2437.873752 93.239 -163.0758
2455.539590 93.252 -162.9254
2473.333442 93.271 -162.7764
2491.256235 93.294 -162.6319
2509.308905 93.322 -162.4947
2527.492392 93.355 -162.3664
2545.807644 93.392 -162.2472
2564.255615 93.434 -162.1361
2582.837268 93.479 -162.0314
2601.553572 93.529 -161.9314
2620.405502 93.582 -161.8345
2639.394040 93.640 -161.7396
2658.520177 93.702 -161.6463
2677.784910 93.768 -161.5548
2697.189244 93.839 -161.4657
2716.734189 93.915 -161.3802
2736.420765 93.996 -161.2999
2756.249998 94.080 -161.2267
2776.222921 94.170 -161.1635
2796.340577 94.263 -161.1134
2816.604013 94.360 -161.0796
2837.014287 94.459 -161.0645
2857.572462 94.561 -161.0696
2878.279610 94.663 -161.0950
2899.136811 94.766 -161.1398
2920.145151 94.868 -161.2029
2941.305727 94.970 -161.2830
2962.619641 95.070 -161.3795
2984.088004 95.168 -161.4921
3005.711935 95.263 -161.6203
3027.492563 95.355 -161.7636
3049.431022 95.443 -161.9211
3071.528457 95.526 -162.0918
3093.786018 95.604 -162.2744
3116.204867 95.677 -162.4680
3138.786172 95.743 -162.6717
3161.531110 95.803 -162.8844
3184.440868 95.856 -163.1052
3207.516639 95.902 -163.3332
3230.759627 95.941 -163.5679
3254.171043 95.974 -163.8094
3277.752108 95.999 -164.0582
3301.504051 96.017 -164.3155
3325.428110 96.028 -164.5822
3349.525533 96.031 -164.8584
3373.797576 96.028 -165.1438
3398.245504 96.017 -165.4367
3422.870591 95.998 -165.7351
3447.674123 95.972 -166.0366
3472.657391 95.940 -166.3387
3497.821698 95.902 -166.6394
3523.168356 95.857 -166.9363
3548.698686 95.808 -167.2271
3574.414019 95.754 -167.5095
3600.315697 95.697 -167.7808
3626.405068 95.636 -168.0384
3652.683494 95.573 -168.2794
3679.152345 95.509 -168.5014
3705.812999 95.445 -168.7018
3732.666848 95.382 -168.8787
3759.715291 95.320 -169.0307
3786.959737 95.261 -169.1570
3814.401609 95.207 -169.2575
3842.042335 95.156 -169.3328
3869.883358 95.111 -169.3838
3897.926128 95.073 -169.4112
3926.172107 95.040 -169.4158
3954.622769 95.014 -169.3980
3983.279596 94.994 -169.3573
4012.144082 94.982 -169.2932
4041.217732 94.976 -169.2049
4070.502061 94.978 -169.0924
4099.998597 94.987 -168.9562
4129.708877 95.004 -168.7980
4159.634450 95.028 -168.6207
4189.776876 95.060 -168.4276
4220.137726 95.100 -168.2234
4250.718584 95.147 -168.0135
4281.521043 95.202 -167.8040
4312.546709 95.264 -167.6025
4343.797200 95.333 -167.4176
4375.274146 95.409 -167.2594
4406.979186 95.491 -167.1386
4438.913974 95.578 -167.0667
4471.080174 95.670 -167.0549
4503.479464 95.763 -167.1131
4536.113533 95.858 -167.2493
4568.984081 95.953 -167.4692
4602.092823 96.045 -167.7760
4635.441485 96.133 -168.1706
4669.031805 96.216 -168.6516
4702.865534 96.293 -169.2164
4736.944436 96.362 -169.8608
4771.270288 96.423 -170.5800
4805.844880 96.475 -171.3687
4840.670013 96.519 -172.2215
4875.747503 96.552 -173.1329
4911.079179 96.576 -174.0978
4946.666884 96.591 -175.1113
4982.512471 96.595 -176.1687
5018.617810 96.589 -177.2654
5054.984784 96.571 -178.3964
5091.615287 96.542 -179.5560
5128.511230 96.501 179.2628
5165.674537 96.447 178.0681
5203.107144 96.378 176.8704
5240.811003 96.295 175.6818
5278.788080 96.196 174.5167
5317.040355 96.081 173.3914
5355.569821 95.951 172.3235
5394.378487 95.804 171.3320
5433.468378 95.644 170.4355
5472.841529 95.471 169.6523
5512.499995 95.287 168.9992
5552.445842 95.095 168.4905
5592.681154 94.898 168.1370
5633.208027 94.701 167.9451
5674.028574 94.506 167.9154
5715.144924 94.318 168.0431
5756.559221 94.140 168.3172
5798.273622 93.976 168.7209
5840.290302 93.828 169.2323
5882.611454 93.697 169.8260
5925.239281 93.584 170.4751
5968.176007 93.487 171.1530
6011.423871 93.406 171.8362
6054.985126 93.337 172.5055
6098.862045 93.279 173.1475
6143.056913 93.226 173.7546
6187.572036 93.178 174.3246
6232.409733 93.130 174.8606
6277.572344 93.080 175.3693
6323.062220 93.026 175.8609
6368.881736 92.968 176.3474
6415.033278 92.903 176.8419
6461.519254 92.832 177.3584
6508.342086 92.756 177.9107
6555.504216 92.674 178.5125
6603.008102 92.589 179.1771
6650.856220 92.501 179.9167
6699.051066 92.415 -179.2576
6747.595151 92.332 -178.3372
6796.491007 92.256 -177.3167
6845.741183 92.192 -176.1964
6895.348246 92.146 -174.9841
6945.314781 92.123 -173.6975
6995.643395 92.127 -172.3663
7046.336711 92.164 -171.0322
7097.397372 92.236 -169.7478
7148.828039 92.345 -168.5731
7200.631394 92.490 -167.5700
7252.810137 92.667 -166.7973
7305.366989 92.870 -166.3050
7358.304690 93.092 -166.1313
7411.625999 93.324 -166.3011
7465.333696 93.558 -166.8258
7519.430581 93.785 -167.7050
7573.919475 93.997 -168.9286
7628.803218 94.186 -170.4785
7684.084670 94.345 -172.3310
7739.766716 94.468 -174.4574
7795.852256 94.549 -176.8256
7852.344215 94.584 -179.4002
7909.245538 94.568 177.8573
7966.559191 94.498 174.9886
8024.288163 94.370 172.0394
8082.435463 94.181 169.0606
8141.004122 93.929 166.1098
8199.997194 93.611 163.2538
8259.417754 93.228 160.5720
8319.268900 92.778 158.1616
8379.553752 92.263 156.1441
8440.275452 91.687 154.6761
8501.437168 91.055 153.9648
8563.042086 90.380 154.2888
8625.093419 89.677 156.0225
8687.594401 88.970 159.6447
8750.548291 88.291 165.6701
8813.958371 87.683 174.3714
8877.827947 87.189 -174.7634
8942.160348 86.850 -163.3228
9006.958928 86.688 -153.1877
9072.227065 86.704 -145.3794
9137.968162 86.874 -139.9220
9204.185647 87.163 -136.3853
9270.882970 87.530 -134.2939
9338.063610 87.941 -133.2677
9405.731068 88.371 -133.0348
9473.888873 88.800 -133.4077
9542.540577 89.214 -134.2578
9611.689759 89.604 -135.4960
9681.340025 89.964 -137.0580
9751.495006 90.288 -138.8948
9822.158359 90.574 -140.9664
9893.333767 90.818 -143.2368
9965.024942 91.017 -145.6720
10037.235620 91.170 -148.2374
10109.969567 91.276 -150.8982
10183.230574 91.334 -153.6185
10257.022461 91.345 -156.3631
10331.349074 91.311 -159.0974
10406.214288 91.233 -161.7897
10481.622007 91.114 -164.4124
10557.576160 90.960 -166.9427
10634.080709 90.773 -169.3642
10711.139642 90.560 -171.6662
10788.756975 90.324 -173.8449
10866.936755 90.071 -175.9014
10945.683059 89.804 -177.8420
11024.999990 89.528 -179.6768
11104.891685 89.246 178.5813
11185.362308 88.961 176.9175
11266.416054 88.676 175.3162
11348.057149 88.392 173.7616
11430.289849 88.111 172.2382
11513.118441 87.834 170.7311
11596.547243 87.563 169.2257
11680.580605 87.298 167.7082
11765.222907 87.040 166.1647
11850.478562 86.791 164.5809
11936.352015 86.553 162.9417
12022.847742 86.327 161.2297
12109.970253 86.116 159.4249
12197.724089 85.923 157.5041
12286.113826 85.748 155.4410
12375.144072 85.594 153.2074
12464.819467 85.461 150.7737
12555.144687 85.349 148.1107
12646.124441 85.256 145.1906
12737.763472 85.178 141.9888
12830.066557 85.112 138.4852
12923.038508 85.051 134.6660
13016.684172 84.990 130.5241
13111.008431 84.922 126.0602
13206.016203 84.843 121.2813
13301.712440 84.748 116.1997
13398.102132 84.635 110.8306
13495.190303 84.502 105.1897
13592.982015 84.351 99.2915
13691.482366 84.182 93.1477
13790.696491 83.997 86.7674
13890.629563 83.798 80.1581
13991.286791 83.586 73.3276
14092.673422 83.360 66.2864
14194.794743 83.119 59.0495
14297.656077 82.861 51.6389
14401.262787 82.582 44.0838
14505.620274 82.277 36.4222
14610.733978 81.943 28.6999
14716.609379 81.575 20.9703
14823.251997 81.169 13.2939
14930.667392 80.723 5.7363
15038.861162 80.234 -1.6323
15147.838950 79.702 -8.7388
15257.606435 79.128 -15.5093
15368.169341 78.515 -21.8718
15479.533431 77.870 -27.7612
15591.704511 77.203 -33.1262
15704.688430 76.532 -37.9397
15818.491076 75.879 -42.2114
15933.118383 75.275 -46.0012
16048.576327 74.753 -49.4270
16164.870926 74.345 -52.6617
16282.008245 74.073 -55.9147
16399.994388 73.939 -59.3980
16518.835508 73.926 -63.2897
16638.537799 74.000 -67.7067
16759.107503 74.122 -72.6973
16880.550905 74.254 -78.2490
17002.874335 74.366 -84.3060
17126.084171 74.438 -90.7855
17250.186837 74.456 -97.5918
17375.188802 74.418 -104.6263
17501.096582 74.328 -111.7975
17627.916743 74.199 -119.0311
17755.655894 74.052 -126.2819
17884.320696 73.914 -133.5457
18013.917856 73.815 -140.8696
18144.454131 73.779 -148.3555
18275.936325 73.820 -156.1562
18408.371293 73.935 -164.4621
18541.765940 74.107 -173.4760
18676.127219 74.308 176.6180
18811.462136 74.509 165.7022
18947.777745 74.682 153.7908
19085.081153 74.808 141.1160
19223.379519 74.878 128.2001
19362.680051 74.895 115.8314
19502.990012 74.870 104.8967
19644.316718 74.821 96.1572
19786.667534 74.772 90.1194
19930.049884 74.741 87.0491
