* Measurement data measured by REW V5.31.3
* Source: EXCL: Headset (USB-C to 3.5mm Headphone Jack Adapter), MICROPHONE (Master Volume), 0, volume: 0.750
* Format: 256k Log Swept Sine, 1 sweep at -12.0 dBFS with no timing reference
* Dated: Apr 7, 2025 12:04:49 PM
* REW Settings:
*  C-weighting compensation: Off
*  Target level: 75.0 dB
* Note: ; 
* Measurement: HD6XX L3
* Smoothing: 1/6 octave
* Frequency Step: 96 ppo
* Start Frequency: 20.0 Hz
*
* Freq(Hz) SPL(dB) Phase(degrees)
20.187378 79.238 -98.4510
20.333664 79.270 -98.5331
20.481010 79.313 -98.6433
20.629424 79.366 -98.7791
20.778913 79.428 -98.9377
20.929486 79.498 -99.1168
21.081150 79.575 -99.3143
21.233912 79.657 -99.5285
21.387782 79.743 -99.7578
21.542767 79.832 -100.0008
21.698874 79.924 -100.2561
21.856113 80.018 -100.5222
22.014492 80.112 -100.7977
22.174018 80.207 -101.0815
22.334700 80.302 -101.3731
22.496546 80.396 -101.6723
22.659566 80.490 -101.9801
22.823766 80.583 -102.2982
22.989157 80.675 -102.6292
23.155745 80.764 -102.9761
23.323542 80.851 -103.3424
23.492554 80.935 -103.7310
23.662790 81.014 -104.1441
23.834261 81.087 -104.5823
24.006973 81.154 -105.0447
24.180938 81.214 -105.5284
24.356163 81.267 -106.0283
24.532658 81.311 -106.5380
24.710431 81.347 -107.0499
24.889493 81.376 -107.5558
25.069853 81.399 -108.0480
25.251519 81.417 -108.5199
25.434502 81.431 -108.9669
25.618811 81.444 -109.3865
25.804456 81.457 -109.7789
25.991445 81.471 -110.1465
26.179790 81.488 -110.4937
26.369500 81.508 -110.8263
26.560584 81.532 -111.1502
26.753053 81.560 -111.4711
26.946917 81.591 -111.7935
27.142185 81.624 -112.1208
27.338869 81.659 -112.4549
27.536977 81.696 -112.7967
27.736522 81.733 -113.1464
27.937512 81.770 -113.5037
28.139959 81.807 -113.8682
28.343872 81.844 -114.2398
28.549264 81.880 -114.6177
28.756143 81.915 -115.0011
28.964522 81.948 -115.3880
29.174411 81.980 -115.7753
29.385821 82.010 -116.1590
29.598763 82.038 -116.5339
29.813248 82.066 -116.8948
30.029287 82.093 -117.2370
30.246891 82.120 -117.5575
30.466073 82.151 -117.8553
30.686842 82.186 -118.1326
30.909212 82.226 -118.3939
31.133193 82.274 -118.6460
31.358797 82.330 -118.8966
31.586035 82.393 -119.1533
31.814921 82.465 -119.4224
32.045465 82.544 -119.7077
32.277680 82.630 -120.0105
32.511577 82.721 -120.3296
32.747169 82.817 -120.6617
32.984469 82.917 -121.0023
33.223488 83.019 -121.3468
33.464239 83.123 -121.6908
33.706735 83.229 -122.0310
33.950987 83.335 -122.3655
34.197010 83.441 -122.6937
34.444816 83.547 -123.0167
34.694417 83.652 -123.3366
34.945827 83.756 -123.6567
35.199059 83.859 -123.9810
35.454126 83.961 -124.3132
35.711041 84.062 -124.6567
35.969818 84.162 -125.0136
36.230470 84.259 -125.3845
36.493011 84.355 -125.7677
36.757455 84.449 -126.1602
37.023814 84.540 -126.5573
37.292104 84.628 -126.9541
37.562338 84.714 -127.3459
37.834530 84.797 -127.7290
38.108695 84.877 -128.1011
38.384846 84.956 -128.4617
38.662999 85.031 -128.8112
38.943167 85.105 -129.1514
39.225365 85.176 -129.4845
39.509608 85.245 -129.8127
39.795911 85.313 -130.1389
40.084289 85.378 -130.4659
40.374756 85.442 -130.7969
40.667328 85.504 -131.1353
40.962020 85.565 -131.4848
41.258848 85.624 -131.8489
41.557827 85.681 -132.2306
41.858972 85.736 -132.6320
42.162299 85.790 -133.0539
42.467824 85.841 -133.4950
42.775564 85.889 -133.9522
43.085533 85.934 -134.4202
43.397749 85.976 -134.8923
43.712227 86.014 -135.3603
44.028983 86.050 -135.8162
44.348036 86.083 -136.2528
44.669400 86.113 -136.6645
44.993093 86.143 -137.0486
45.319131 86.172 -137.4048
45.647532 86.202 -137.7359
45.978313 86.234 -138.0466
46.311491 86.268 -138.3430
46.647083 86.305 -138.6314
46.985107 86.345 -138.9174
47.325581 86.386 -139.2049
47.668521 86.430 -139.4955
48.013947 86.473 -139.7885
48.361876 86.515 -140.0814
48.712326 86.555 -140.3701
49.065315 86.592 -140.6503
49.420863 86.626 -140.9185
49.778987 86.657 -141.1725
50.139706 86.685 -141.4119
50.503039 86.711 -141.6386
50.869005 86.735 -141.8559
51.237623 86.758 -142.0690
51.608912 86.781 -142.2833
51.982891 86.802 -142.5044
52.359580 86.822 -142.7364
52.739000 86.841 -142.9813
53.121168 86.857 -143.2388
53.506106 86.872 -143.5059
53.893833 86.885 -143.7787
54.284370 86.897 -144.0528
54.677737 86.908 -144.3246
55.073955 86.920 -144.5917
55.473043 86.933 -144.8523
55.875024 86.948 -145.1053
56.279917 86.965 -145.3493
56.687745 86.983 -145.5835
57.098527 87.002 -145.8073
57.512287 87.023 -146.0222
57.929045 87.044 -146.2319
58.348822 87.066 -146.4428
58.771642 87.090 -146.6642
59.197525 87.116 -146.9069
59.626495 87.146 -147.1810
60.058573 87.179 -147.4936
60.493782 87.216 -147.8468
60.932145 87.258 -148.2367
61.373685 87.305 -148.6548
61.818424 87.356 -149.0901
62.266386 87.410 -149.5314
62.717593 87.467 -149.9694
63.172071 87.525 -150.3976
63.629842 87.584 -150.8123
64.090930 87.643 -151.2124
64.555359 87.702 -151.5984
65.023154 87.760 -151.9716
65.494339 87.818 -152.3336
65.968938 87.876 -152.6861
66.446976 87.933 -153.0307
66.928478 87.989 -153.3689
67.413469 88.045 -153.7026
67.901975 88.101 -154.0336
68.394021 88.155 -154.3634
68.889632 88.209 -154.6927
69.388835 88.261 -155.0221
69.891655 88.311 -155.3520
70.398118 88.360 -155.6829
70.908252 88.405 -156.0152
71.422083 88.448 -156.3495
71.939636 88.488 -156.6857
72.460941 88.524 -157.0238
72.986023 88.558 -157.3637
73.514909 88.589 -157.7054
74.047629 88.618 -158.0491
74.584208 88.644 -158.3955
75.124676 88.668 -158.7448
75.669061 88.690 -159.0974
76.217390 88.709 -159.4533
76.769692 88.725 -159.8121
77.325997 88.740 -160.1731
77.886333 88.753 -160.5353
78.450730 88.764 -160.8977
79.019216 88.774 -161.2596
79.591822 88.783 -161.6206
80.168577 88.791 -161.9802
80.749512 88.798 -162.3382
81.334656 88.805 -162.6945
81.924040 88.811 -163.0486
82.517696 88.817 -163.4003
83.115653 88.822 -163.7495
83.717943 88.826 -164.0966
84.324598 88.830 -164.4425
84.935649 88.833 -164.7882
85.551128 88.836 -165.1346
86.171066 88.839 -165.4823
86.795497 88.842 -165.8318
87.424453 88.844 -166.1831
88.057967 88.847 -166.5361
88.696071 88.850 -166.8903
89.338800 88.852 -167.2450
89.986185 88.855 -167.5990
90.638262 88.857 -167.9514
91.295065 88.859 -168.3014
91.956626 88.860 -168.6483
92.622982 88.861 -168.9922
93.294166 88.861 -169.3330
93.970214 88.861 -169.6711
94.651161 88.861 -170.0070
95.337042 88.860 -170.3412
96.027894 88.859 -170.6744
96.723752 88.858 -171.0072
97.424652 88.857 -171.3395
98.130631 88.856 -171.6710
98.841726 88.854 -172.0007
99.557974 88.854 -172.3277
100.279412 88.853 -172.6513
101.006078 88.853 -172.9712
101.738010 88.854 -173.2877
102.475245 88.855 -173.6015
103.217823 88.857 -173.9136
103.965782 88.861 -174.2256
104.719161 88.865 -174.5396
105.477999 88.870 -174.8579
106.242336 88.877 -175.1827
107.012212 88.885 -175.5156
107.787666 88.894 -175.8565
108.568740 88.904 -176.2041
109.355474 88.915 -176.5563
110.147909 88.928 -176.9106
110.946086 88.940 -177.2646
111.750047 88.954 -177.6165
112.559834 88.967 -177.9647
113.375489 88.981 -178.3084
114.197055 88.994 -178.6473
115.024574 89.007 -178.9819
115.858089 89.019 -179.3129
116.697645 89.031 -179.6411
117.543284 89.042 -179.9675
118.395051 89.054 179.7072
119.252990 89.064 179.3828
120.117147 89.075 179.0593
120.987565 89.085 178.7371
121.864291 89.094 178.4167
122.747370 89.102 178.0988
123.636848 89.109 177.7838
124.532771 89.116 177.4720
125.435187 89.122 177.1639
126.344142 89.127 176.8595
127.259684 89.130 176.5587
128.181860 89.133 176.2615
129.110718 89.135 175.9675
130.046308 89.136 175.6760
130.988677 89.136 175.3864
131.937875 89.134 175.0978
132.893951 89.131 174.8096
133.856956 89.127 174.5214
134.826938 89.121 174.2327
135.803950 89.114 173.9436
136.788041 89.105 173.6544
137.779264 89.095 173.3652
138.777669 89.084 173.0764
139.783309 89.072 172.7884
140.796237 89.058 172.5012
141.816504 89.044 172.2148
142.844165 89.029 171.9288
143.879273 89.013 171.6427
144.921881 88.996 171.3563
145.972045 88.978 171.0695
147.029819 88.960 170.7828
148.095257 88.941 170.4968
149.168417 88.921 170.2122
150.249353 88.902 169.9295
151.338121 88.881 169.6489
152.434780 88.861 169.3704
153.539385 88.841 169.0941
154.651995 88.820 168.8199
155.772667 88.799 168.5482
156.901460 88.779 168.2792
158.038432 88.758 168.0134
159.183644 88.738 167.7509
160.337154 88.718 167.4920
161.499023 88.698 167.2362
162.669312 88.679 166.9830
163.848081 88.660 166.7314
165.035392 88.641 166.4808
166.231306 88.622 166.2302
167.435887 88.604 165.9796
168.649196 88.586 165.7286
169.871298 88.567 165.4778
171.102255 88.550 165.2272
172.342133 88.532 164.9772
173.590995 88.514 164.7280
174.848907 88.497 164.4801
176.115934 88.480 164.2339
177.392143 88.463 163.9902
178.677599 88.446 163.7497
179.972371 88.429 163.5129
181.276525 88.412 163.2799
182.590129 88.394 163.0501
183.913252 88.375 162.8226
185.245964 88.355 162.5966
186.588332 88.334 162.3714
187.940428 88.311 162.1465
189.302322 88.287 161.9219
190.674085 88.262 161.6975
192.055788 88.235 161.4733
193.447503 88.208 161.2495
194.849303 88.181 161.0259
196.261262 88.153 160.8022
197.683452 88.125 160.5781
199.115948 88.098 160.3528
200.558824 88.071 160.1262
202.012156 88.044 159.8981
203.476019 88.018 159.6697
204.950490 87.992 159.4429
206.435646 87.967 159.2196
207.931564 87.942 159.0020
209.438322 87.917 158.7913
210.955998 87.893 158.5883
212.484672 87.870 158.3927
214.024424 87.847 158.2035
215.575333 87.825 158.0190
217.137481 87.805 157.8376
218.710948 87.785 157.6576
220.295818 87.766 157.4777
221.892172 87.749 157.2971
223.500094 87.731 157.1157
225.119668 87.715 156.9335
226.750978 87.699 156.7512
228.394109 87.683 156.5694
230.049147 87.668 156.3886
231.716178 87.653 156.2091
233.395289 87.638 156.0308
235.086567 87.625 155.8535
236.790102 87.612 155.6776
238.505980 87.601 155.5033
240.234293 87.591 155.3315
241.975130 87.582 155.1625
243.728581 87.574 154.9965
245.494739 87.568 154.8331
247.273695 87.562 154.6716
249.065542 87.557 154.5110
250.870374 87.553 154.3506
252.688284 87.550 154.1899
254.519367 87.547 154.0292
256.363720 87.545 153.8688
258.221437 87.543 153.7097
260.092616 87.542 153.5525
261.977354 87.540 153.3978
263.875750 87.539 153.2453
265.787903 87.536 153.0942
267.713911 87.534 152.9429
269.653877 87.530 152.7902
271.607900 87.525 152.6352
273.576083 87.519 152.4777
275.558528 87.512 152.3181
277.555338 87.505 152.1573
279.566619 87.497 151.9958
281.592474 87.489 151.8343
283.633009 87.482 151.6731
285.688331 87.475 151.5125
287.758546 87.468 151.3530
289.843763 87.462 151.1950
291.944090 87.457 151.0389
294.059638 87.452 150.8854
296.190515 87.449 150.7349
298.336833 87.446 150.5881
300.498705 87.443 150.4452
302.676243 87.441 150.3061
304.869559 87.440 150.1707
307.078770 87.439 150.0385
309.303989 87.439 149.9089
311.545334 87.440 149.7814
313.802919 87.441 149.6555
316.076865 87.442 149.5306
318.367288 87.443 149.4061
320.674309 87.445 149.2813
322.998047 87.446 149.1555
325.338624 87.448 149.0281
327.696162 87.449 148.8992
330.070783 87.450 148.7691
332.462612 87.451 148.6383
334.871773 87.451 148.5074
337.298392 87.451 148.3764
339.742595 87.450 148.2457
342.204510 87.449 148.1154
344.684265 87.446 147.9861
347.181989 87.442 147.8584
349.697813 87.437 147.7331
352.231868 87.430 147.6108
354.784285 87.422 147.4921
357.355198 87.412 147.3770
359.944741 87.401 147.2655
362.553049 87.389 147.1570
365.180258 87.377 147.0507
367.826505 87.363 146.9459
370.491927 87.349 146.8419
373.176665 87.335 146.7385
375.880856 87.320 146.6357
378.604644 87.305 146.5342
381.348169 87.290 146.4340
384.111575 87.274 146.3351
386.895006 87.258 146.2372
389.698607 87.242 146.1397
392.522524 87.225 146.0421
395.366904 87.208 145.9443
398.231895 87.191 145.8464
401.117648 87.174 145.7489
404.024312 87.155 145.6523
406.952038 87.137 145.5573
409.900981 87.118 145.4642
412.871292 87.098 145.3733
415.863128 87.077 145.2845
418.876643 87.055 145.1973
421.911996 87.033 145.1113
424.969344 87.009 145.0257
428.048847 86.984 144.9400
431.150666 86.958 144.8536
434.274961 86.930 144.7661
437.421897 86.901 144.6770
440.591636 86.872 144.5861
443.784345 86.841 144.4936
447.000189 86.809 144.3998
450.239337 86.776 144.3055
453.501956 86.743 144.2112
456.788219 86.709 144.1180
460.098294 86.675 144.0263
463.432356 86.640 143.9366
466.790578 86.606 143.8492
470.173135 86.571 143.7643
473.580203 86.537 143.6815
477.011961 86.504 143.6008
480.468586 86.472 143.5214
483.950259 86.441 143.4429
487.457163 86.411 143.3643
490.989478 86.383 143.2852
494.547390 86.356 143.2050
498.131084 86.330 143.1236
501.740748 86.306 143.0411
505.376568 86.284 142.9579
509.038735 86.263 142.8742
512.727439 86.243 142.7903
516.442874 86.225 142.7063
520.185232 86.209 142.6219
523.954708 86.194 142.5368
527.751500 86.182 142.4506
531.575805 86.171 142.3628
535.427822 86.161 142.2733
539.307753 86.154 142.1820
543.215800 86.149 142.0887
547.152165 86.145 141.9935
551.117055 86.144 141.8964
555.110677 86.144 141.7978
559.133237 86.146 141.6981
563.184947 86.149 141.5979
567.266018 86.153 141.4980
571.376661 86.158 141.3996
575.517092 86.164 141.3036
579.687526 86.170 141.2114
583.888181 86.176 141.1241
588.119275 86.182 141.0427
592.381030 86.187 140.9680
596.673667 86.193 140.9003
600.997410 86.198 140.8394
605.352485 86.204 140.7845
609.739119 86.209 140.7345
614.157540 86.215 140.6876
618.607979 86.220 140.6422
623.090667 86.226 140.5966
627.605839 86.231 140.5492
632.153730 86.235 140.4990
636.734576 86.239 140.4452
641.348617 86.242 140.3874
645.996094 86.244 140.3260
650.677248 86.244 140.2615
655.392323 86.244 140.1950
660.141566 86.241 140.1273
664.925224 86.238 140.0593
669.743546 86.233 139.9916
674.596784 86.228 139.9244
679.485191 86.221 139.8575
684.409020 86.214 139.7906
689.368530 86.206 139.7228
694.363979 86.197 139.6534
699.395626 86.188 139.5817
704.463736 86.178 139.5073
709.568570 86.167 139.4301
714.710396 86.155 139.3503
719.889483 86.142 139.2679
725.106099 86.128 139.1833
730.360516 86.113 139.0961
735.653010 86.096 139.0064
740.983855 86.078 138.9140
746.353329 86.058 138.8188
751.761713 86.037 138.7209
757.209288 86.014 138.6208
762.696339 85.990 138.5189
768.223151 85.964 138.4155
773.790013 85.936 138.3109
779.397214 85.907 138.2053
785.045047 85.878 138.0987
790.733808 85.847 137.9907
796.463791 85.816 137.8809
802.235296 85.784 137.7683
808.048623 85.752 137.6520
813.904077 85.720 137.5310
819.801961 85.688 137.4044
825.742584 85.656 137.2717
831.726255 85.624 137.1328
837.753287 85.591 136.9879
843.823992 85.557 136.8380
849.938689 85.522 136.6848
856.097695 85.486 136.5312
862.301332 85.448 136.3812
868.549922 85.408 136.2395
874.843793 85.366 136.1121
881.183272 85.322 136.0048
887.568689 85.277 135.9237
894.000378 85.232 135.8738
900.478673 85.186 135.8588
907.003913 85.143 135.8807
913.576437 85.102 135.9391
920.196588 85.066 136.0313
926.864712 85.035 136.1525
933.581156 85.011 136.2957
940.346270 84.994 136.4530
947.160407 84.984 136.6156
954.023921 84.982 136.7754
960.937172 84.988 136.9253
967.900519 85.000 137.0598
974.914325 85.018 137.1758
981.978956 85.042 137.2714
989.094780 85.070 137.3466
996.262169 85.102 137.4018
1003.481495 85.137 137.4382
1010.753136 85.175 137.4570
1018.077470 85.216 137.4595
1025.454879 85.259 137.4468
1032.885748 85.303 137.4201
1040.370463 85.348 137.3806
1047.909417 85.395 137.3296
1055.503000 85.442 137.2689
1063.151610 85.491 137.1999
1070.855645 85.539 137.1245
1078.615506 85.589 137.0442
1086.431599 85.640 136.9598
1094.304330 85.691 136.8718
1102.234110 85.743 136.7796
1110.221353 85.796 136.6824
1118.266475 85.849 136.5791
1126.369895 85.903 136.4686
1134.532035 85.956 136.3507
1142.753322 86.008 136.2252
1151.034184 86.060 136.0928
1159.375052 86.110 135.9547
1167.776361 86.160 135.8119
1176.238550 86.207 135.6657
1184.762060 86.254 135.5169
1193.347334 86.300 135.3663
1201.994821 86.344 135.2141
1210.704971 86.388 135.0610
1219.478238 86.430 134.9075
1228.315080 86.472 134.7544
1237.215957 86.513 134.6029
1246.181334 86.554 134.4541
1255.211678 86.594 134.3088
1264.307459 86.635 134.1677
1273.469152 86.675 134.0305
1282.697235 86.716 133.8967
1291.992188 86.758 133.7651
1301.354495 86.800 133.6339
1310.784647 86.844 133.5012
1320.283132 86.887 133.3650
1329.850448 86.931 133.2236
1339.487093 86.975 133.0757
1349.193569 87.018 132.9210
1358.970381 87.061 132.7597
1368.818041 87.103 132.5931
1378.737061 87.143 132.4231
1388.727958 87.183 132.2522
1398.791253 87.222 132.0830
1408.927471 87.260 131.9178
1419.137140 87.298 131.7587
1429.420793 87.336 131.6073
1439.778965 87.374 131.4653
1450.212197 87.413 131.3345
1460.721033 87.453 131.2165
1471.306019 87.494 131.1124
1481.967709 87.537 131.0227
1492.706658 87.582 130.9466
1503.523426 87.629 130.8823
1514.418576 87.677 130.8273
1525.392678 87.727 130.7780
1536.446302 87.779 130.7303
1547.580025 87.830 130.6806
1558.794428 87.882 130.6257
1570.090095 87.931 130.5639
1581.467615 87.978 130.4950
1592.927581 88.021 130.4200
1604.470591 88.060 130.3410
1616.097246 88.095 130.2609
1627.808153 88.124 130.1828
1639.603922 88.149 130.1104
1651.485168 88.169 130.0472
1663.452510 88.185 129.9964
1675.506573 88.196 129.9601
1687.647984 88.205 129.9396
1699.877377 88.212 129.9346
1712.195390 88.216 129.9443
1724.602663 88.219 129.9669
1737.099845 88.222 130.0007
1749.687587 88.224 130.0433
1762.366544 88.226 130.0919
1775.137379 88.228 130.1438
1788.000756 88.230 130.1959
1800.957346 88.232 130.2458
1814.007826 88.232 130.2918
1827.152874 88.232 130.3337
1840.393177 88.230 130.3727
1853.729425 88.226 130.4105
1867.162312 88.220 130.4495
1880.692540 88.211 130.4916
1894.320813 88.200 130.5386
1908.047843 88.186 130.5918
1921.874344 88.171 130.6518
1935.801038 88.153 130.7189
1949.828650 88.133 130.7924
1963.957912 88.112 130.8705
1978.189561 88.090 130.9504
1992.524338 88.066 131.0297
2006.962991 88.041 131.1065
2021.506272 88.014 131.1803
2036.154940 87.986 131.2512
2050.909758 87.956 131.3197
2065.771495 87.924 131.3864
2080.740927 87.892 131.4517
2095.818833 87.858 131.5167
2111.006001 87.823 131.5825
2126.303220 87.788 131.6506
2141.711290 87.753 131.7223
2157.231013 87.719 131.7977
2172.863198 87.685 131.8756
2188.608660 87.654 131.9534
2204.468221 87.624 132.0281
2220.442706 87.596 132.0964
2236.532950 87.571 132.1564
2252.739789 87.547 132.2070
2269.064070 87.524 132.2484
2285.506644 87.502 132.2820
2302.068367 87.481 132.3108
2318.750104 87.460 132.3382
2335.552723 87.440 132.3676
2352.477101 87.422 132.4016
2369.524119 87.405 132.4417
2386.694668 87.390 132.4879
2403.989641 87.379 132.5392
2421.409941 87.371 132.5940
2438.956476 87.367 132.6496
2456.630160 87.368 132.7031
2474.431915 87.373 132.7515
2492.362668 87.382 132.7924
2510.423356 87.396 132.8240
2528.614918 87.414 132.8456
2546.938304 87.435 132.8566
2565.394469 87.459 132.8569
2583.984375 87.487 132.8467
2602.708991 87.518 132.8267
2621.569293 87.550 132.7983
2640.566265 87.585 132.7640
2659.700897 87.621 132.7270
2678.974186 87.658 132.6914
2698.387137 87.697 132.6612
2717.940763 87.737 132.6400
2737.636082 87.780 132.6299
2757.474121 87.825 132.6319
2777.455915 87.873 132.6449
2797.582506 87.925 132.6667
2817.854942 87.979 132.6942
2838.274281 88.037 132.7238
2858.841586 88.098 132.7526
2879.557931 88.160 132.7782
2900.424394 88.224 132.7990
2921.442065 88.288 132.8142
2942.612039 88.353 132.8237
2963.935418 88.416 132.8283
2985.413316 88.478 132.8292
3007.046852 88.538 132.8278
3028.837153 88.595 132.8252
3050.785356 88.649 132.8221
3072.892604 88.700 132.8182
3095.160050 88.747 132.8129
3117.588856 88.789 132.8051
3140.180190 88.827 132.7937
3162.935230 88.859 132.7783
3185.855163 88.886 132.7592
3208.941182 88.905 132.7377
3232.194493 88.918 132.7155
3255.616307 88.924 132.6938
3279.207844 88.924 132.6738
3302.970336 88.917 132.6556
3326.905021 88.903 132.6390
3351.013146 88.882 132.6234
3375.295969 88.855 132.6087
3399.754755 88.822 132.5955
3424.390779 88.782 132.5853
3449.205326 88.736 132.5802
3474.199690 88.684 132.5832
3499.375173 88.627 132.5970
3524.733088 88.565 132.6243
3550.274757 88.499 132.6669
3576.001511 88.431 132.7259
3601.914692 88.360 132.8021
3628.015651 88.288 132.8959
3654.305748 88.215 133.0088
3680.786354 88.143 133.1423
3707.458849 88.071 133.2987
3734.324624 88.001 133.4805
3761.385080 87.933 133.6896
3788.641627 87.869 133.9270
3816.095686 87.809 134.1933
3843.748688 87.754 134.4885
3871.602076 87.705 134.8127
3899.657300 87.661 135.1663
3927.915825 87.624 135.5503
3956.379122 87.593 135.9663
3985.048676 87.569 136.4166
4013.925981 87.552 136.9035
4043.012544 87.543 137.4293
4072.309879 87.541 137.9958
4101.819515 87.548 138.6041
4131.542990 87.564 139.2545
4161.481854 87.589 139.9461
4191.637667 87.624 140.6765
4222.012001 87.670 141.4419
4252.606441 87.727 142.2358
4283.422580 87.796 143.0496
4314.462026 87.878 143.8716
4345.726396 87.971 144.6877
4377.217321 88.077 145.4815
4408.936442 88.195 146.2353
4440.885413 88.323 146.9305
4473.065899 88.460 147.5493
4505.479579 88.605 148.0754
4538.128141 88.756 148.4955
4571.013288 88.909 148.7993
4604.136735 89.063 148.9799
4637.500207 89.215 149.0344
4671.105446 89.363 148.9630
4704.954201 89.506 148.7689
4739.048239 89.641 148.4579
4773.389336 89.767 148.0371
4807.979283 89.883 147.5146
4842.819883 89.988 146.8980
4877.912952 90.083 146.1944
4913.260320 90.166 145.4099
4948.863830 90.237 144.5499
4984.725337 90.295 143.6193
5020.846712 90.340 142.6230
5057.229836 90.369 141.5669
5093.876609 90.382 140.4583
5130.788938 90.378 139.3063
5167.968750 90.354 138.1227
5205.417982 90.308 136.9221
5243.138586 90.240 135.7225
5281.132530 90.147 134.5459
5319.401793 90.029 133.4178
5357.948371 89.885 132.3674
5396.774274 89.716 131.4261
5435.881525 89.522 130.6265
5475.272163 89.307 130.0009
5514.948243 89.074 129.5789
5554.911831 88.827 129.3863
5595.165012 88.571 129.4420
5635.709884 88.313 129.7564
5676.548561 88.060 130.3297
5717.683172 87.817 131.1498
5759.115861 87.591 132.1935
5800.848789 87.385 133.4273
5842.884130 87.204 134.8105
5885.224077 87.048 136.2994
5927.870837 86.916 137.8507
5970.826633 86.808 139.4267
6014.093704 86.719 140.9977
6057.674306 86.646 142.5441
6101.570711 86.584 144.0569
6145.785208 86.530 145.5375
6190.320101 86.479 146.9955
6235.177712 86.428 148.4479
6280.360380 86.377 149.9172
6325.870460 86.323 151.4294
6371.710325 86.268 153.0123
6417.882365 86.213 154.6934
6464.388986 86.160 156.4973
6511.232613 86.115 158.4432
6558.415689 86.082 160.5415
6605.940673 86.066 162.7917
6653.810042 86.073 165.1793
6702.026292 86.110 167.6747
6750.591937 86.180 170.2335
6799.509509 86.287 172.7986
6848.781558 86.433 175.3043
6898.410653 86.617 177.6812
6948.399380 86.837 179.8625
6998.750346 87.089 -178.2114
7049.466176 87.366 -176.5886
7100.549514 87.662 -175.3042
7152.003023 87.970 -174.3801
7203.829385 88.282 -173.8257
7256.031302 88.590 -173.6399
7308.611496 88.888 -173.8135
7361.572708 89.169 -174.3305
7414.917698 89.427 -175.1704
7468.649249 89.657 -176.3098
7522.770160 89.855 -177.7232
7577.283253 90.016 -179.3844
7632.191371 90.138 178.7338
7687.497376 90.216 176.6587
7743.204151 90.247 174.4187
7799.314600 90.229 172.0439
7855.831649 90.158 169.5676
7912.758244 90.031 167.0278
7970.097352 89.844 164.4700
8027.851962 89.595 161.9501
8086.025087 89.281 159.5381
8144.619758 88.899 157.3231
8203.639030 88.448 155.4199
8263.085980 87.930 153.9780
8322.963708 87.348 153.1951
8383.275334 86.710 153.3369
8444.024002 86.028 154.7642
8505.212881 85.321 157.9610
8566.845160 84.616 163.5246
8628.924051 83.946 172.0040
8691.452792 83.350 -176.6051
8754.434642 82.870 -163.5280
8817.872884 82.538 -150.9501
8881.770826 82.370 -140.5421
8946.131799 82.363 -132.6869
9010.959157 82.497 -126.9874
9076.256282 82.740 -122.8876
9142.026576 83.062 -119.9287
9208.273470 83.436 -117.7888
9275.000415 83.839 -116.2571
9342.210891 84.256 -115.2008
9409.908403 84.675 -114.5390
9478.096478 85.088 -114.2232
9546.778672 85.487 -114.2248
9615.958566 85.867 -114.5251
9685.639765 86.222 -115.1097
9755.825904 86.546 -115.9638
9826.520640 86.835 -117.0690
9897.727659 87.084 -118.4024
9969.450674 87.288 -119.9350
10041.693423 87.443 -121.6321
10114.459673 87.547 -123.4538
10187.753217 87.598 -125.3560
10261.577877 87.594 -127.2928
10335.937500 87.538 -129.2182
10410.835964 87.429 -131.0882
10486.277173 87.272 -132.8638
10562.265060 87.071 -134.5120
10638.803587 86.829 -136.0076
10715.896743 86.553 -137.3333
10793.548548 86.247 -138.4805
10871.763050 85.917 -139.4482
10950.544327 85.567 -140.2423
11029.896485 85.202 -140.8739
11109.823662 84.824 -141.3575
11190.330024 84.438 -141.7082
11271.419768 84.043 -141.9392
11353.097122 83.641 -142.0581
11435.366344 83.232 -142.0652
11518.231722 82.816 -141.9515
11601.697577 82.393 -141.6996
11685.768261 81.965 -141.2861
11770.448155 81.535 -140.6873
11855.741674 81.111 -139.8876
11941.653265 80.700 -138.8891
12028.187408 80.315 -137.7212
12115.348612 79.970 -136.4465
12203.141422 79.678 -135.1604
12291.570415 79.452 -133.9844
12380.640201 79.299 -133.0515
12470.355424 79.223 -132.4909
12560.720760 79.219 -132.4135
12651.740920 79.278 -132.9041
12743.420650 79.388 -134.0188
12835.764729 79.531 -135.7873
12928.777972 79.692 -138.2170
13022.465227 79.857 -141.2979
13116.831378 80.013 -145.0067
13211.881345 80.149 -149.3102
13307.620084 80.261 -154.1698
13404.052584 80.344 -159.5441
13501.183875 80.399 -165.3927
13599.019019 80.427 -171.6777
13697.563116 80.430 -178.3638
13796.821305 80.410 174.5835
13896.798760 80.369 167.2013
13997.500692 80.305 159.5327
14098.932352 80.216 151.6293
14201.099028 80.101 143.5521
14304.006046 79.954 135.3695
14407.658770 79.774 127.1542
14512.062604 79.558 118.9786
14617.222992 79.306 110.9094
14723.145416 79.017 103.0043
14829.835397 78.692 95.3112
14937.298497 78.332 87.8672
15045.540320 77.937 80.7023
15154.566507 77.507 73.8418
15264.382743 77.040 67.3098
15374.994752 76.537 61.1317
15486.408302 75.995 55.3332
15598.629201 75.416 49.9375
15711.663298 74.803 44.9586
15825.516487 74.159 40.3931
15940.194703 73.494 36.2135
16055.703925 72.814 32.3670
16172.050174 72.130 28.7835
16289.239516 71.447 25.3923
16407.278061 70.767 22.1419
16526.171961 70.088 19.0152
16645.927415 69.407 16.0356
16766.550667 68.719 13.2648
16888.048005 68.021 10.7979
17010.425762 67.318 8.7595
17133.690320 66.618 7.3000
17257.848103 65.941 6.5886
17382.905584 65.317 6.7930
17508.869284 64.786 8.0311
17635.745768 64.392 10.2806
17763.541652 64.172 13.2668
17892.263597 64.142 16.4153
18021.918315 64.287 18.9756
18152.512564 64.566 20.2803
18284.053153 64.928 19.9425
18416.546939 65.321 17.8715
18550.000830 65.700 14.1761
18684.421783 66.036 9.0671
18819.816805 66.307 2.8033
18956.192956 66.501 -4.3196
19093.557344 66.616 -11.9601
19231.917131 66.656 -19.7206
19371.279531 66.633 -27.1526
19511.651807 66.569 -33.7886
19653.041280 66.486 -39.1912
19795.455318 66.412 -43.0012
19938.901348 66.369 -44.9694
