* Measurement data measured by REW V5.31.3
* Source: EXCL: Headset (USB-C to 3.5mm Headphone Jack Adapter), MICROPHONE (Master Volume), 0, volume: 0.750
* Format: 256k Log Swept Sine, 1 sweep at -12.0 dBFS with no timing reference
* Dated: Apr 7, 2025 12:10:08 PM
* REW Settings:
*  C-weighting compensation: Off
*  Target level: 75.0 dB
* Note: ; 
* Measurement: HD6XX (Forward) L7
* Smoothing: 1/6 octave
* Frequency Step: 96 ppo
* Start Frequency: 20.0 Hz
*
* Freq(Hz) SPL(dB) Phase(degrees)
20.187378 78.353 -95.0379
20.333664 78.386 -95.0645
20.481010 78.430 -95.1019
20.629424 78.482 -95.1511
20.778913 78.542 -95.2136
20.929486 78.606 -95.2908
21.081150 78.675 -95.3841
21.233912 78.745 -95.4952
21.387782 78.817 -95.6254
21.542767 78.890 -95.7767
21.698874 78.965 -95.9513
21.856113 79.040 -96.1519
22.014492 79.118 -96.3819
22.174018 79.198 -96.6454
22.334700 79.280 -96.9464
22.496546 79.364 -97.2890
22.659566 79.449 -97.6762
22.823766 79.535 -98.1092
22.989157 79.620 -98.5870
23.155745 79.702 -99.1054
23.323542 79.780 -99.6568
23.492554 79.852 -100.2306
23.662790 79.916 -100.8130
23.834261 79.971 -101.3885
24.006973 80.017 -101.9404
24.180938 80.054 -102.4527
24.356163 80.083 -102.9115
24.532658 80.105 -103.3062
24.710431 80.123 -103.6312
24.889493 80.138 -103.8863
25.069853 80.154 -104.0778
25.251519 80.173 -104.2171
25.434502 80.195 -104.3204
25.618811 80.224 -104.4065
25.804456 80.258 -104.4949
25.991445 80.297 -104.6033
26.179790 80.340 -104.7456
26.369500 80.385 -104.9313
26.560584 80.432 -105.1642
26.753053 80.478 -105.4433
26.946917 80.522 -105.7635
27.142185 80.563 -106.1170
27.338869 80.602 -106.4948
27.536977 80.638 -106.8883
27.736522 80.673 -107.2902
27.937512 80.707 -107.6952
28.139959 80.740 -108.1000
28.343872 80.773 -108.5031
28.549264 80.806 -108.9037
28.756143 80.840 -109.3010
28.964522 80.873 -109.6932
29.174411 80.905 -110.0771
29.385821 80.937 -110.4479
29.598763 80.968 -110.8000
29.813248 81.000 -111.1277
30.029287 81.033 -111.4266
30.246891 81.068 -111.6947
30.466073 81.109 -111.9333
30.686842 81.156 -112.1474
30.909212 81.210 -112.3453
31.133193 81.272 -112.5378
31.358797 81.343 -112.7358
31.586035 81.420 -112.9493
31.814921 81.504 -113.1852
32.045465 81.592 -113.4468
32.277680 81.683 -113.7332
32.511577 81.776 -114.0402
32.747169 81.870 -114.3613
32.984469 81.965 -114.6895
33.223488 82.062 -115.0186
33.464239 82.160 -115.3447
33.706735 82.261 -115.6661
33.950987 82.364 -115.9838
34.197010 82.470 -116.3000
34.444816 82.577 -116.6174
34.694417 82.685 -116.9381
34.945827 82.794 -117.2625
35.199059 82.901 -117.5895
35.454126 83.006 -117.9164
35.711041 83.108 -118.2400
35.969818 83.207 -118.5575
36.230470 83.303 -118.8670
36.493011 83.395 -119.1681
36.757455 83.485 -119.4620
37.023814 83.572 -119.7512
37.292104 83.655 -120.0389
37.562338 83.736 -120.3284
37.834530 83.814 -120.6227
38.108695 83.890 -120.9239
38.384846 83.962 -121.2335
38.662999 84.031 -121.5517
38.943167 84.098 -121.8782
39.225365 84.163 -122.2117
39.509608 84.226 -122.5505
39.795911 84.287 -122.8923
40.084289 84.347 -123.2349
40.374756 84.407 -123.5758
40.667328 84.465 -123.9127
40.962020 84.523 -124.2433
41.258848 84.579 -124.5654
41.557827 84.634 -124.8774
41.858972 84.687 -125.1779
42.162299 84.737 -125.4672
42.467824 84.784 -125.7468
42.775564 84.827 -126.0203
43.085533 84.866 -126.2922
43.397749 84.902 -126.5676
43.712227 84.935 -126.8504
44.028983 84.965 -127.1423
44.348036 84.993 -127.4415
44.669400 85.021 -127.7438
44.993093 85.051 -128.0427
45.319131 85.084 -128.3314
45.647532 85.121 -128.6041
45.978313 85.165 -128.8575
46.311491 85.214 -129.0906
46.647083 85.268 -129.3050
46.985107 85.326 -129.5043
47.325581 85.385 -129.6935
47.668521 85.444 -129.8788
48.013947 85.500 -130.0670
48.361876 85.554 -130.2651
48.712326 85.603 -130.4792
49.065315 85.647 -130.7138
49.420863 85.686 -130.9712
49.778987 85.720 -131.2515
50.139706 85.751 -131.5531
50.503039 85.778 -131.8729
50.869005 85.803 -132.2069
51.237623 85.828 -132.5507
51.608912 85.852 -132.8986
51.982891 85.877 -133.2446
52.359580 85.903 -133.5819
52.739000 85.931 -133.9048
53.121168 85.960 -134.2089
53.506106 85.991 -134.4924
53.893833 86.024 -134.7560
54.284370 86.057 -135.0031
54.677737 86.090 -135.2378
55.073955 86.123 -135.4648
55.473043 86.156 -135.6877
55.875024 86.188 -135.9085
56.279917 86.221 -136.1273
56.687745 86.255 -136.3427
57.098527 86.290 -136.5523
57.512287 86.327 -136.7546
57.929045 86.365 -136.9501
58.348822 86.406 -137.1429
58.771642 86.447 -137.3408
59.197525 86.489 -137.5540
59.626495 86.530 -137.7928
60.058573 86.569 -138.0649
60.493782 86.607 -138.3727
60.932145 86.644 -138.7134
61.373685 86.680 -139.0798
61.818424 86.717 -139.4625
62.266386 86.756 -139.8517
62.717593 86.796 -140.2392
63.172071 86.840 -140.6188
63.629842 86.886 -140.9868
64.090930 86.935 -141.3422
64.555359 86.987 -141.6859
65.023154 87.041 -142.0202
65.494339 87.097 -142.3483
65.968938 87.155 -142.6737
66.446976 87.215 -142.9995
66.928478 87.276 -143.3280
67.413469 87.337 -143.6604
67.901975 87.397 -143.9969
68.394021 87.456 -144.3366
68.889632 87.512 -144.6779
69.388835 87.566 -145.0194
69.891655 87.617 -145.3601
70.398118 87.665 -145.6996
70.908252 87.709 -146.0384
71.422083 87.750 -146.3772
71.939636 87.788 -146.7164
72.460941 87.823 -147.0558
72.986023 87.856 -147.3942
73.514909 87.886 -147.7301
74.047629 87.914 -148.0618
74.584208 87.940 -148.3881
75.124676 87.964 -148.7083
75.669061 87.985 -149.0225
76.217390 88.005 -149.3315
76.769692 88.023 -149.6368
77.325997 88.039 -149.9399
77.886333 88.053 -150.2422
78.450730 88.066 -150.5450
79.019216 88.078 -150.8493
79.591822 88.089 -151.1556
80.168577 88.100 -151.4643
80.749512 88.109 -151.7757
81.334656 88.119 -152.0902
81.924040 88.128 -152.4079
82.517696 88.136 -152.7291
83.115653 88.145 -153.0538
83.717943 88.153 -153.3813
84.324598 88.162 -153.7107
84.935649 88.171 -154.0406
85.551128 88.179 -154.3696
86.171066 88.187 -154.6965
86.795497 88.195 -155.0202
87.424453 88.202 -155.3401
88.057967 88.209 -155.6561
88.696071 88.215 -155.9684
89.338800 88.221 -156.2776
89.986185 88.227 -156.5844
90.638262 88.232 -156.8892
91.295065 88.237 -157.1925
91.956626 88.241 -157.4941
92.622982 88.244 -157.7940
93.294166 88.248 -158.0918
93.970214 88.251 -158.3873
94.651161 88.253 -158.6800
95.337042 88.255 -158.9697
96.027894 88.257 -159.2565
96.723752 88.259 -159.5406
97.424652 88.261 -159.8227
98.130631 88.263 -160.1036
98.841726 88.265 -160.3843
99.557974 88.268 -160.6656
100.279412 88.272 -160.9480
101.006078 88.276 -161.2323
101.738010 88.281 -161.5192
102.475245 88.287 -161.8097
103.217823 88.294 -162.1046
103.965782 88.301 -162.4047
104.719161 88.309 -162.7104
105.477999 88.318 -163.0217
106.242336 88.327 -163.3380
107.012212 88.337 -163.6577
107.787666 88.347 -163.9785
108.568740 88.359 -164.2982
109.355474 88.372 -164.6149
110.147909 88.386 -164.9274
110.946086 88.400 -165.2354
111.750047 88.416 -165.5391
112.559834 88.432 -165.8394
113.375489 88.448 -166.1373
114.197055 88.465 -166.4338
115.024574 88.481 -166.7302
115.858089 88.497 -167.0273
116.697645 88.513 -167.3254
117.543284 88.527 -167.6244
118.395051 88.541 -167.9235
119.252990 88.554 -168.2215
120.117147 88.566 -168.5171
120.987565 88.576 -168.8095
121.864291 88.586 -169.0981
122.747370 88.595 -169.3830
123.636848 88.603 -169.6645
124.532771 88.610 -169.9431
125.435187 88.616 -170.2193
126.344142 88.621 -170.4936
127.259684 88.626 -170.7666
128.181860 88.629 -171.0384
129.110718 88.631 -171.3090
130.046308 88.632 -171.5780
130.988677 88.632 -171.8447
131.937875 88.632 -172.1082
132.893951 88.631 -172.3680
133.856956 88.629 -172.6237
134.826938 88.626 -172.8755
135.803950 88.623 -173.1240
136.788041 88.619 -173.3700
137.779264 88.614 -173.6143
138.777669 88.607 -173.8576
139.783309 88.600 -174.1000
140.796237 88.591 -174.3417
141.816504 88.580 -174.5829
142.844165 88.568 -174.8235
143.879273 88.555 -175.0636
144.921881 88.541 -175.3032
145.972045 88.525 -175.5419
147.029819 88.508 -175.7798
148.095257 88.490 -176.0163
149.168417 88.472 -176.2512
150.249353 88.453 -176.4838
151.338121 88.434 -176.7139
152.434780 88.414 -176.9412
153.539385 88.395 -177.1655
154.651995 88.375 -177.3868
155.772667 88.355 -177.6051
156.901460 88.336 -177.8204
158.038432 88.317 -178.0327
159.183644 88.298 -178.2421
160.337154 88.280 -178.4488
161.499023 88.262 -178.6531
162.669312 88.244 -178.8554
163.848081 88.227 -179.0563
165.035392 88.210 -179.2563
166.231306 88.193 -179.4561
167.435887 88.177 -179.6559
168.649196 88.161 -179.8557
169.871298 88.145 179.9443
171.102255 88.129 179.7444
172.342133 88.113 179.5450
173.590995 88.097 179.3462
174.848907 88.081 179.1484
176.115934 88.065 178.9522
177.392143 88.049 178.7579
178.677599 88.033 178.5656
179.972371 88.017 178.3756
181.276525 88.001 178.1877
182.590129 87.985 178.0020
183.913252 87.967 177.8184
185.245964 87.949 177.6371
186.588332 87.931 177.4589
187.940428 87.911 177.2841
189.302322 87.890 177.1132
190.674085 87.869 176.9462
192.055788 87.847 176.7826
193.447503 87.824 176.6217
194.849303 87.801 176.4625
196.261262 87.778 176.3043
197.683452 87.754 176.1461
199.115948 87.731 175.9870
200.558824 87.707 175.8259
202.012156 87.683 175.6619
203.476019 87.660 175.4948
204.950490 87.636 175.3254
206.435646 87.612 175.1547
207.931564 87.589 174.9843
209.438322 87.565 174.8155
210.955998 87.541 174.6490
212.484672 87.518 174.4854
214.024424 87.495 174.3249
215.575333 87.473 174.1671
217.137481 87.451 174.0119
218.710948 87.430 173.8589
220.295818 87.410 173.7079
221.892172 87.390 173.5589
223.500094 87.372 173.4112
225.119668 87.355 173.2644
226.750978 87.339 173.1177
228.394109 87.326 172.9709
230.049147 87.314 172.8241
231.716178 87.304 172.6782
233.395289 87.295 172.5345
235.086567 87.288 172.3944
236.790102 87.282 172.2588
238.505980 87.277 172.1277
240.234293 87.273 172.0005
241.975130 87.270 171.8765
243.728581 87.268 171.7545
245.494739 87.266 171.6337
247.273695 87.264 171.5134
249.065542 87.263 171.3933
250.870374 87.261 171.2729
252.688284 87.260 171.1520
254.519367 87.258 171.0302
256.363720 87.256 170.9072
258.221437 87.253 170.7823
260.092616 87.249 170.6552
261.977354 87.245 170.5256
263.875750 87.239 170.3936
265.787903 87.232 170.2606
267.713911 87.224 170.1289
269.653877 87.215 170.0017
271.607900 87.205 169.8818
273.576083 87.196 169.7703
275.558528 87.187 169.6672
277.555338 87.178 169.5707
279.566619 87.169 169.4791
281.592474 87.161 169.3902
283.633009 87.153 169.3024
285.688331 87.147 169.2148
287.758546 87.140 169.1270
289.843763 87.135 169.0387
291.944090 87.130 168.9503
294.059638 87.126 168.8621
296.190515 87.122 168.7748
298.336833 87.118 168.6887
300.498705 87.114 168.6046
302.676243 87.111 168.5229
304.869559 87.108 168.4446
307.078770 87.106 168.3702
309.303989 87.104 168.3002
311.545334 87.103 168.2346
313.802919 87.102 168.1733
316.076865 87.101 168.1161
318.367288 87.100 168.0625
320.674309 87.099 168.0121
322.998047 87.098 167.9645
325.338624 87.096 167.9193
327.696162 87.095 167.8760
330.070783 87.092 167.8344
332.462612 87.090 167.7943
334.871773 87.087 167.7558
337.298392 87.083 167.7189
339.742595 87.079 167.6835
342.204510 87.074 167.6490
344.684265 87.068 167.6149
347.181989 87.062 167.5805
349.697813 87.054 167.5451
352.231868 87.046 167.5084
354.784285 87.037 167.4702
357.355198 87.026 167.4303
359.944741 87.015 167.3887
362.553049 87.002 167.3451
365.180258 86.987 167.2999
367.826505 86.972 167.2538
370.491927 86.956 167.2079
373.176665 86.939 167.1634
375.880856 86.922 167.1213
378.604644 86.904 167.0821
381.348169 86.887 167.0462
384.111575 86.870 167.0135
386.895006 86.852 166.9839
389.698607 86.835 166.9570
392.522524 86.819 166.9325
395.366904 86.802 166.9101
398.231895 86.785 166.8896
401.117648 86.767 166.8710
404.024312 86.749 166.8541
406.952038 86.731 166.8389
409.900981 86.711 166.8253
412.871292 86.691 166.8129
415.863128 86.669 166.8018
418.876643 86.646 166.7917
421.911996 86.622 166.7826
424.969344 86.596 166.7742
428.048847 86.569 166.7667
431.150666 86.539 166.7599
434.274961 86.508 166.7543
437.421897 86.475 166.7497
440.591636 86.440 166.7463
443.784345 86.404 166.7440
447.000189 86.367 166.7426
450.239337 86.329 166.7422
453.501956 86.290 166.7425
456.788219 86.252 166.7437
460.098294 86.213 166.7457
463.432356 86.175 166.7488
466.790578 86.138 166.7531
470.173135 86.101 166.7587
473.580203 86.066 166.7657
477.011961 86.031 166.7738
480.468586 85.997 166.7829
483.950259 85.964 166.7928
487.457163 85.933 166.8035
490.989478 85.902 166.8149
494.547390 85.873 166.8272
498.131084 85.845 166.8403
501.740748 85.818 166.8544
505.376568 85.792 166.8693
509.038735 85.768 166.8849
512.727439 85.745 166.9006
516.442874 85.724 166.9157
520.185232 85.705 166.9294
523.954708 85.687 166.9408
527.751500 85.671 166.9492
531.575805 85.658 166.9545
535.427822 85.647 166.9565
539.307753 85.638 166.9557
543.215800 85.631 166.9526
547.152165 85.625 166.9481
551.117055 85.622 166.9431
555.110677 85.620 166.9390
559.133237 85.619 166.9368
563.184947 85.619 166.9379
567.266018 85.621 166.9434
571.376661 85.622 166.9541
575.517092 85.625 166.9708
579.687526 85.628 166.9940
583.888181 85.631 167.0240
588.119275 85.634 167.0610
592.381030 85.638 167.1050
596.673667 85.642 167.1555
600.997410 85.646 167.2119
605.352485 85.650 167.2732
609.739119 85.655 167.3379
614.157540 85.659 167.4043
618.607979 85.663 167.4708
623.090667 85.667 167.5358
627.605839 85.670 167.5981
632.153730 85.673 167.6573
636.734576 85.675 167.7131
641.348617 85.676 167.7657
645.996094 85.676 167.8155
650.677248 85.675 167.8633
655.392323 85.672 167.9096
660.141566 85.669 167.9551
664.925224 85.664 168.0002
669.743546 85.659 168.0446
674.596784 85.652 168.0882
679.485191 85.645 168.1303
684.409020 85.637 168.1703
689.368530 85.628 168.2078
694.363979 85.617 168.2425
699.395626 85.606 168.2747
704.463736 85.593 168.3053
709.568570 85.579 168.3356
714.710396 85.563 168.3672
719.889483 85.546 168.4017
725.106099 85.528 168.4399
730.360516 85.509 168.4824
735.653010 85.489 168.5289
740.983855 85.469 168.5787
746.353329 85.447 168.6307
751.761713 85.425 168.6832
757.209288 85.403 168.7345
762.696339 85.380 168.7826
768.223151 85.357 168.8254
773.790013 85.332 168.8616
779.397214 85.308 168.8898
785.045047 85.282 168.9096
790.733808 85.257 168.9207
796.463791 85.230 168.9230
802.235296 85.203 168.9167
808.048623 85.175 168.9019
813.904077 85.147 168.8791
819.801961 85.118 168.8485
825.742584 85.089 168.8107
831.726255 85.058 168.7666
837.753287 85.026 168.7175
843.823992 84.993 168.6654
849.938689 84.957 168.6132
856.097695 84.920 168.5650
862.301332 84.880 168.5258
868.549922 84.838 168.5016
874.843793 84.795 168.4990
881.183272 84.749 168.5242
887.568689 84.703 168.5827
894.000378 84.658 168.6779
900.478673 84.614 168.8111
907.003913 84.574 168.9807
913.576437 84.539 169.1829
920.196588 84.509 169.4116
926.864712 84.487 169.6589
933.581156 84.471 169.9164
940.346270 84.463 170.1751
947.160407 84.463 170.4268
954.023921 84.469 170.6646
960.937172 84.482 170.8834
967.900519 84.500 171.0800
974.914325 84.523 171.2532
981.978956 84.550 171.4034
989.094780 84.580 171.5319
996.262169 84.614 171.6407
1003.481495 84.650 171.7321
1010.753136 84.688 171.8079
1018.077470 84.729 171.8694
1025.454879 84.771 171.9176
1032.885748 84.816 171.9525
1040.370463 84.863 171.9739
1047.909417 84.912 171.9811
1055.503000 84.962 171.9739
1063.151610 85.012 171.9527
1070.855645 85.063 171.9185
1078.615506 85.114 171.8735
1086.431599 85.164 171.8200
1094.304330 85.213 171.7607
1102.234110 85.261 171.6978
1110.221353 85.309 171.6324
1118.266475 85.355 171.5654
1126.369895 85.401 171.4964
1134.532035 85.445 171.4248
1142.753322 85.489 171.3499
1151.034184 85.532 171.2713
1159.375052 85.574 171.1891
1167.776361 85.614 171.1041
1176.238550 85.653 171.0172
1184.762060 85.690 170.9301
1193.347334 85.726 170.8444
1201.994821 85.761 170.7612
1210.704971 85.795 170.6816
1219.478238 85.828 170.6055
1228.315080 85.862 170.5324
1237.215957 85.895 170.4614
1246.181334 85.928 170.3915
1255.211678 85.962 170.3219
1264.307459 85.995 170.2524
1273.469152 86.027 170.1832
1282.697235 86.060 170.1147
1291.992188 86.092 170.0475
1301.354495 86.124 169.9823
1310.784647 86.155 169.9194
1320.283132 86.186 169.8587
1329.850448 86.217 169.7997
1339.487093 86.248 169.7417
1349.193569 86.279 169.6839
1358.970381 86.310 169.6259
1368.818041 86.341 169.5676
1378.737061 86.372 169.5087
1388.727958 86.402 169.4496
1398.791253 86.434 169.3904
1408.927471 86.465 169.3306
1419.137140 86.497 169.2700
1429.420793 86.529 169.2080
1439.778965 86.562 169.1449
1450.212197 86.594 169.0820
1460.721033 86.627 169.0218
1471.306019 86.658 168.9678
1481.967709 86.689 168.9237
1492.706658 86.719 168.8928
1503.523426 86.749 168.8777
1514.418576 86.777 168.8805
1525.392678 86.806 168.9027
1536.446302 86.834 168.9451
1547.580025 86.861 169.0080
1558.794428 86.889 169.0904
1570.090095 86.916 169.1901
1581.467615 86.943 169.3029
1592.927581 86.971 169.4240
1604.470591 86.998 169.5472
1616.097246 87.024 169.6668
1627.808153 87.050 169.7773
1639.603922 87.072 169.8748
1651.485168 87.092 169.9574
1663.452510 87.108 170.0261
1675.506573 87.118 170.0847
1687.647984 87.123 170.1389
1699.877377 87.122 170.1960
1712.195390 87.116 170.2633
1724.602663 87.105 170.3474
1737.099845 87.090 170.4535
1749.687587 87.073 170.5851
1762.366544 87.053 170.7444
1775.137379 87.033 170.9313
1788.000756 87.012 171.1440
1800.957346 86.993 171.3783
1814.007826 86.976 171.6289
1827.152874 86.960 171.8896
1840.393177 86.945 172.1547
1853.729425 86.932 172.4190
1867.162312 86.920 172.6788
1880.692540 86.908 172.9315
1894.320813 86.895 173.1756
1908.047843 86.882 173.4107
1921.874344 86.866 173.6374
1935.801038 86.848 173.8570
1949.828650 86.827 174.0718
1963.957912 86.804 174.2850
1978.189561 86.778 174.4996
1992.524338 86.748 174.7182
2006.962991 86.717 174.9421
2021.506272 86.684 175.1714
2036.154940 86.650 175.4056
2050.909758 86.615 175.6436
2065.771495 86.580 175.8847
2080.740927 86.544 176.1280
2095.818833 86.510 176.3719
2111.006001 86.476 176.6139
2126.303220 86.444 176.8509
2141.711290 86.413 177.0800
2157.231013 86.383 177.2993
2172.863198 86.355 177.5076
2188.608660 86.328 177.7048
2204.468221 86.302 177.8916
2220.442706 86.276 178.0693
2236.532950 86.251 178.2399
2252.739789 86.227 178.4057
2269.064070 86.203 178.5689
2285.506644 86.181 178.7313
2302.068367 86.159 178.8940
2318.750104 86.139 179.0577
2335.552723 86.122 179.2223
2352.477101 86.106 179.3877
2369.524119 86.093 179.5533
2386.694668 86.083 179.7183
2403.989641 86.076 179.8813
2421.409941 86.072 -179.9589
2438.956476 86.071 -179.8031
2456.630160 86.074 -179.6514
2474.431915 86.081 -179.5034
2492.362668 86.091 -179.3587
2510.423356 86.105 -179.2170
2528.614918 86.122 -179.0779
2546.938304 86.144 -178.9411
2565.394469 86.169 -178.8063
2583.984375 86.199 -178.6730
2602.708991 86.232 -178.5408
2621.569293 86.270 -178.4091
2640.566265 86.312 -178.2775
2659.700897 86.358 -178.1462
2678.974186 86.409 -178.0160
2698.387137 86.464 -177.8879
2717.940763 86.523 -177.7631
2737.636082 86.587 -177.6420
2757.474121 86.654 -177.5249
2777.455915 86.725 -177.4123
2797.582506 86.799 -177.3054
2817.854942 86.877 -177.2060
2838.274281 86.958 -177.1163
2858.841586 87.041 -177.0384
2879.557931 87.126 -176.9735
2900.424394 87.212 -176.9224
2921.442065 87.298 -176.8849
2942.612039 87.383 -176.8603
2963.935418 87.467 -176.8476
2985.413316 87.550 -176.8459
3007.046852 87.630 -176.8541
3028.837153 87.707 -176.8715
3050.785356 87.780 -176.8973
3072.892604 87.849 -176.9302
3095.160050 87.914 -176.9685
3117.588856 87.973 -177.0106
3140.180190 88.027 -177.0545
3162.935230 88.075 -177.0986
3185.855163 88.118 -177.1425
3208.941182 88.155 -177.1866
3232.194493 88.187 -177.2329
3255.616307 88.213 -177.2836
3279.207844 88.234 -177.3411
3302.970336 88.249 -177.4072
3326.905021 88.258 -177.4824
3351.013146 88.260 -177.5661
3375.295969 88.256 -177.6567
3399.754755 88.245 -177.7517
3424.390779 88.228 -177.8482
3449.205326 88.206 -177.9438
3474.199690 88.179 -178.0362
3499.375173 88.147 -178.1243
3524.733088 88.112 -178.2075
3550.274757 88.075 -178.2857
3576.001511 88.035 -178.3585
3601.914692 87.994 -178.4253
3628.015651 87.952 -178.4846
3654.305748 87.911 -178.5344
3680.786354 87.870 -178.5726
3707.458849 87.831 -178.5974
3734.324624 87.794 -178.6077
3761.385080 87.761 -178.6034
3788.641627 87.733 -178.5855
3816.095686 87.711 -178.5556
3843.748688 87.694 -178.5150
3871.602076 87.683 -178.4640
3899.657300 87.678 -178.4015
3927.915825 87.679 -178.3249
3956.379122 87.687 -178.2304
3985.048676 87.702 -178.1148
4013.925981 87.724 -177.9754
4043.012544 87.754 -177.8116
4072.309879 87.793 -177.6245
4101.819515 87.842 -177.4165
4131.542990 87.901 -177.1913
4161.481854 87.970 -176.9536
4191.637667 88.049 -176.7089
4222.012001 88.140 -176.4641
4252.606441 88.241 -176.2278
4283.422580 88.353 -176.0106
4314.462026 88.477 -175.8254
4345.726396 88.611 -175.6873
4377.217321 88.755 -175.6132
4408.936442 88.908 -175.6207
4440.885413 89.068 -175.7268
4473.065899 89.232 -175.9464
4505.479579 89.399 -176.2919
4538.128141 89.566 -176.7725
4571.013288 89.729 -177.3941
4604.136735 89.887 -178.1599
4637.500207 90.036 -179.0699
4671.105446 90.173 179.8789
4704.954201 90.297 178.6926
4739.048239 90.405 177.3799
4773.389336 90.495 175.9519
4807.979283 90.565 174.4213
4842.819883 90.614 172.8015
4877.912952 90.642 171.1063
4913.260320 90.646 169.3500
4948.863830 90.627 167.5471
4984.725337 90.583 165.7134
5020.846712 90.514 163.8656
5057.229836 90.419 162.0223
5093.876609 90.297 160.2036
5130.788938 90.150 158.4305
5167.968750 89.976 156.7262
5205.417982 89.776 155.1149
5243.138586 89.551 153.6227
5281.132530 89.302 152.2772
5319.401793 89.033 151.1065
5357.948371 88.745 150.1381
5396.774274 88.443 149.3971
5435.881525 88.132 148.9040
5475.272163 87.819 148.6720
5514.948243 87.510 148.7052
5554.911831 87.213 148.9967
5595.165012 86.936 149.5272
5635.709884 86.685 150.2654
5676.548561 86.465 151.1692
5717.683172 86.282 152.1879
5759.115861 86.137 153.2665
5800.848789 86.029 154.3495
5842.884130 85.956 155.3852
5885.224077 85.915 156.3290
5927.870837 85.898 157.1455
5970.826633 85.901 157.8094
6014.093704 85.916 158.3050
6057.674306 85.936 158.6264
6101.570711 85.955 158.7759
6145.785208 85.966 158.7633
6190.320101 85.965 158.6049
6235.177712 85.946 158.3223
6280.360380 85.904 157.9420
6325.870460 85.836 157.4946
6371.710325 85.740 157.0146
6417.882365 85.614 156.5397
6464.388986 85.457 156.1099
6511.232613 85.268 155.7675
6558.415689 85.049 155.5556
6605.940673 84.803 155.5172
6653.810042 84.532 155.6942
6702.026292 84.242 156.1254
6750.591937 83.939 156.8443
6799.509509 83.630 157.8760
6848.781558 83.323 159.2328
6898.410653 83.029 160.9095
6948.399380 82.758 162.8790
6998.750346 82.519 165.0891
7049.466176 82.321 167.4627
7100.549514 82.170 169.9023
7152.003023 82.071 172.2992
7203.829385 82.021 174.5463
7256.031302 82.016 176.5495
7308.611496 82.047 178.2373
7361.572708 82.105 179.5650
7414.917698 82.177 -179.4853
7468.649249 82.252 -178.9080
7522.770160 82.317 -178.6788
7577.283253 82.363 -178.7591
7632.191371 82.381 -179.0995
7687.497376 82.363 -179.6420
7743.204151 82.304 179.6807
7799.314600 82.199 178.9454
7855.831649 82.045 178.2431
7912.758244 81.842 177.6836
7970.097352 81.591 177.4040
8027.851962 81.298 177.5792
8086.025087 80.975 178.4350
8144.619758 80.637 -179.7406
8203.639030 80.311 -176.6007
8263.085980 80.028 -171.7912
8322.963708 79.826 -165.1090
8383.275334 79.739 -156.7852
8444.024002 79.789 -147.6970
8505.212881 79.979 -139.1095
8566.845160 80.293 -132.0206
8628.924051 80.701 -126.7882
8691.452792 81.169 -123.2775
8754.434642 81.665 -121.1562
8817.872884 82.168 -120.0823
8881.770826 82.661 -119.7724
8946.131799 83.136 -120.0124
9010.959157 83.589 -120.6473
9076.256282 84.019 -121.5695
9142.026576 84.428 -122.7064
9208.273470 84.817 -124.0127
9275.000415 85.188 -125.4626
9342.210891 85.544 -127.0451
9409.908403 85.887 -128.7595
9478.096478 86.215 -130.6121
9546.778672 86.529 -132.6125
9615.958566 86.827 -134.7723
9685.639765 87.107 -137.1013
9755.825904 87.365 -139.6072
9826.520640 87.597 -142.2927
9897.727659 87.798 -145.1554
9969.450674 87.964 -148.1859
10041.693423 88.090 -151.3683
10114.459673 88.171 -154.6788
10187.753217 88.203 -158.0871
10261.577877 88.184 -161.5567
10335.937500 88.110 -165.0461
10410.835964 87.983 -168.5115
10486.277173 87.801 -171.9085
10562.265060 87.569 -175.1952
10638.803587 87.290 -178.3342
10715.896743 86.970 178.7050
10793.548548 86.614 175.9440
10871.763050 86.232 173.3936
10950.544327 85.832 171.0522
11029.896485 85.424 168.9040
11109.823662 85.021 166.9184
11190.330024 84.632 165.0490
11271.419768 84.269 163.2350
11353.097122 83.941 161.4044
11435.366344 83.653 159.4780
11518.231722 83.407 157.3766
11601.697577 83.199 155.0282
11685.768261 83.020 152.3754
11770.448155 82.856 149.3815
11855.741674 82.689 146.0347
11941.653265 82.503 142.3499
12028.187408 82.280 138.3668
12115.348612 82.006 134.1454
12203.141422 81.671 129.7579
12291.570415 81.269 125.2778
12380.640201 80.800 120.7708
12470.355424 80.267 116.2858
12560.720760 79.677 111.8500
12651.740920 79.040 107.4653
12743.420650 78.369 103.1067
12835.764729 77.678 98.7235
12928.777972 76.986 94.2407
13022.465227 76.312 89.5655
13116.831378 75.676 84.5959
13211.881345 75.096 79.2334
13307.620084 74.587 73.3980
13404.052584 74.154 67.0426
13501.183875 73.798 60.1639
13599.019019 73.509 52.8083
13697.563116 73.278 45.0691
13796.821305 73.093 37.0760
13896.798760 72.948 28.9776
13997.500692 72.839 20.9208
14098.932352 72.771 13.0323
14201.099028 72.749 5.4047
14304.006046 72.783 -1.9101
14407.658770 72.881 -8.9005
14512.062604 73.048 -15.5898
14617.222992 73.284 -22.0286
14723.145416 73.584 -28.2843
14829.835397 73.936 -34.4326
14937.298497 74.327 -40.5488
15045.540320 74.742 -46.7013
15154.566507 75.167 -52.9469
15264.382743 75.589 -59.3287
15374.994752 75.998 -65.8754
15486.408302 76.388 -72.6031
15598.629201 76.755 -79.5183
15711.663298 77.097 -86.6218
15825.516487 77.415 -93.9139
15940.194703 77.712 -101.3981
16055.703925 77.986 -109.0848
16172.050174 78.237 -116.9912
16289.239516 78.459 -125.1381
16407.278061 78.645 -133.5437
16526.171961 78.784 -142.2172
16645.927415 78.864 -151.1523
16766.550667 78.876 -160.3253
16888.048005 78.810 -169.6946
17010.425762 78.658 -179.2037
17133.690320 78.417 171.2144
17257.848103 78.084 161.6331
17382.905584 77.660 152.1289
17508.869284 77.147 142.7783
17635.745768 76.548 133.6570
17763.541652 75.867 124.8407
17892.263597 75.109 116.4044
18021.918315 74.279 108.4222
18152.512564 73.383 100.9615
18284.053153 72.428 94.0728
18416.546939 71.420 87.7762
18550.000830 70.369 82.0412
18684.421783 69.287 76.7739
18819.816805 68.188 71.8148
18956.192956 67.094 66.9701
19093.557344 66.029 62.0784
19231.917131 65.025 57.0949
19371.279531 64.118 52.1463
19511.651807 63.345 47.5189
19653.041280 62.737 43.5870
19795.455318 62.321 40.7206
19938.901348 62.109 39.2087
