* Measurement data measured by REW V5.31.3
* Source: EXCL: Headset (USB-C to 3.5mm Headphone Jack Adapter), MICROPHONE (Master Volume), 0, volume: 0.750
* Format: 256k Log Swept Sine, 1 sweep at -12.0 dBFS with no timing reference
* Dated: Apr 7, 2025 5:19:19 PM
* REW Settings:
*  C-weighting compensation: Off
*  Target level: 75.0 dB
* Note: ; 
* Measurement: HD 6XX (Soulwit) R4
* Smoothing: 1/6 octave
* Frequency Step: 96 ppo
* Start Frequency: 20.0 Hz
*
* Freq(Hz) SPL(dB) Phase(degrees)
20.187378 76.952 -101.9454
20.333664 76.986 -102.1189
20.481010 77.031 -102.3461
20.629424 77.087 -102.6143
20.778913 77.150 -102.9102
20.929486 77.220 -103.2213
21.081150 77.295 -103.5372
21.233912 77.374 -103.8501
21.387782 77.456 -104.1551
21.542767 77.539 -104.4500
21.698874 77.622 -104.7350
21.856113 77.705 -105.0117
22.014492 77.786 -105.2831
22.174018 77.865 -105.5518
22.334700 77.939 -105.8205
22.496546 78.010 -106.0907
22.659566 78.075 -106.3626
22.823766 78.134 -106.6356
22.989157 78.188 -106.9079
23.155745 78.237 -107.1776
23.323542 78.281 -107.4429
23.492554 78.322 -107.7031
23.662790 78.361 -107.9585
23.834261 78.399 -108.2117
24.006973 78.437 -108.4666
24.180938 78.476 -108.7287
24.356163 78.517 -109.0040
24.532658 78.559 -109.2985
24.710431 78.603 -109.6171
24.889493 78.648 -109.9626
25.069853 78.692 -110.3355
25.251519 78.736 -110.7337
25.434502 78.778 -111.1528
25.618811 78.818 -111.5866
25.804456 78.856 -112.0278
25.991445 78.892 -112.4691
26.179790 78.927 -112.9044
26.369500 78.962 -113.3287
26.560584 78.996 -113.7391
26.753053 79.032 -114.1349
26.946917 79.070 -114.5170
27.142185 79.109 -114.8875
27.338869 79.150 -115.2493
27.536977 79.192 -115.6050
27.736522 79.234 -115.9569
27.937512 79.276 -116.3062
28.139959 79.316 -116.6535
28.343872 79.354 -116.9986
28.549264 79.390 -117.3410
28.756143 79.422 -117.6801
28.964522 79.452 -118.0159
29.174411 79.480 -118.3486
29.385821 79.506 -118.6789
29.598763 79.532 -119.0080
29.813248 79.559 -119.3373
30.029287 79.587 -119.6680
30.246891 79.619 -120.0014
30.466073 79.655 -120.3383
30.686842 79.697 -120.6796
30.909212 79.744 -121.0256
31.133193 79.798 -121.3766
31.358797 79.858 -121.7329
31.586035 79.923 -122.0944
31.814921 79.994 -122.4605
32.045465 80.068 -122.8305
32.277680 80.146 -123.2035
32.511577 80.226 -123.5781
32.747169 80.307 -123.9533
32.984469 80.389 -124.3287
33.223488 80.472 -124.7044
33.464239 80.556 -125.0814
33.706735 80.642 -125.4616
33.950987 80.730 -125.8472
34.197010 80.820 -126.2397
34.444816 80.912 -126.6399
34.694417 81.005 -127.0469
34.945827 81.100 -127.4577
35.199059 81.195 -127.8677
35.454126 81.289 -128.2714
35.711041 81.383 -128.6631
35.969818 81.476 -129.0382
36.230470 81.567 -129.3941
36.493011 81.656 -129.7306
36.757455 81.743 -130.0499
37.023814 81.827 -130.3558
37.292104 81.910 -130.6529
37.562338 81.990 -130.9454
37.834530 82.067 -131.2363
38.108695 82.143 -131.5273
38.384846 82.217 -131.8185
38.662999 82.289 -132.1094
38.943167 82.360 -132.3991
39.225365 82.429 -132.6873
39.509608 82.498 -132.9742
39.795911 82.565 -133.2606
40.084289 82.629 -133.5479
40.374756 82.691 -133.8377
40.667328 82.749 -134.1319
40.962020 82.804 -134.4324
41.258848 82.854 -134.7419
41.557827 82.902 -135.0629
41.858972 82.946 -135.3979
42.162299 82.988 -135.7486
42.467824 83.027 -136.1154
42.775564 83.066 -136.4967
43.085533 83.104 -136.8891
43.397749 83.141 -137.2879
43.712227 83.179 -137.6880
44.028983 83.219 -138.0849
44.348036 83.260 -138.4756
44.669400 83.302 -138.8584
44.993093 83.345 -139.2323
45.319131 83.389 -139.5971
45.647532 83.431 -139.9518
45.978313 83.473 -140.2952
46.311491 83.511 -140.6262
46.647083 83.547 -140.9444
46.985107 83.579 -141.2504
47.325581 83.608 -141.5467
47.668521 83.634 -141.8368
48.013947 83.658 -142.1247
48.361876 83.681 -142.4140
48.712326 83.703 -142.7071
49.065315 83.726 -143.0053
49.420863 83.749 -143.3090
49.778987 83.774 -143.6177
50.139706 83.801 -143.9308
50.503039 83.830 -144.2477
50.869005 83.860 -144.5678
51.237623 83.889 -144.8902
51.608912 83.917 -145.2136
51.982891 83.943 -145.5367
52.359580 83.966 -145.8580
52.739000 83.986 -146.1761
53.121168 84.002 -146.4900
53.506106 84.015 -146.7995
53.893833 84.025 -147.1047
54.284370 84.033 -147.4069
54.677737 84.040 -147.7078
55.073955 84.046 -148.0100
55.473043 84.052 -148.3159
55.875024 84.059 -148.6278
56.279917 84.066 -148.9472
56.687745 84.073 -149.2745
57.098527 84.080 -149.6095
57.512287 84.088 -149.9510
57.929045 84.098 -150.2973
58.348822 84.110 -150.6469
58.771642 84.126 -150.9982
59.197525 84.147 -151.3504
59.626495 84.174 -151.7029
60.058573 84.208 -152.0557
60.493782 84.249 -152.4086
60.932145 84.296 -152.7605
61.373685 84.349 -153.1098
61.818424 84.406 -153.4547
62.266386 84.465 -153.7944
62.717593 84.526 -154.1289
63.172071 84.588 -154.4594
63.629842 84.650 -154.7875
64.090930 84.711 -155.1144
64.555359 84.771 -155.4409
65.023154 84.830 -155.7672
65.494339 84.887 -156.0934
65.968938 84.942 -156.4197
66.446976 84.995 -156.7460
66.928478 85.045 -157.0729
67.413469 85.094 -157.4008
67.901975 85.140 -157.7306
68.394021 85.185 -158.0635
68.889632 85.229 -158.4005
69.388835 85.272 -158.7421
69.891655 85.313 -159.0885
70.398118 85.353 -159.4389
70.908252 85.392 -159.7918
71.422083 85.428 -160.1453
71.939636 85.461 -160.4976
72.460941 85.491 -160.8476
72.986023 85.518 -161.1950
73.514909 85.540 -161.5407
74.047629 85.560 -161.8856
74.584208 85.575 -162.2310
75.124676 85.588 -162.5781
75.669061 85.598 -162.9275
76.217390 85.607 -163.2792
76.769692 85.613 -163.6330
77.325997 85.619 -163.9881
77.886333 85.623 -164.3438
78.450730 85.626 -164.6994
79.019216 85.629 -165.0540
79.591822 85.631 -165.4073
80.168577 85.631 -165.7587
80.749512 85.631 -166.1082
81.334656 85.630 -166.4558
81.924040 85.629 -166.8018
82.517696 85.627 -167.1467
83.115653 85.625 -167.4909
83.717943 85.623 -167.8348
84.324598 85.620 -168.1787
84.935649 85.617 -168.5225
85.551128 85.613 -168.8660
86.171066 85.608 -169.2090
86.795497 85.603 -169.5512
87.424453 85.597 -169.8922
88.057967 85.591 -170.2313
88.696071 85.584 -170.5679
89.338800 85.578 -170.9016
89.986185 85.571 -171.2319
90.638262 85.565 -171.5590
91.295065 85.558 -171.8833
91.956626 85.552 -172.2050
92.622982 85.546 -172.5247
93.294166 85.540 -172.8426
93.970214 85.534 -173.1588
94.651161 85.528 -173.4736
95.337042 85.522 -173.7868
96.027894 85.516 -174.0986
96.723752 85.510 -174.4092
97.424652 85.504 -174.7188
98.130631 85.498 -175.0278
98.841726 85.492 -175.3367
99.557974 85.486 -175.6459
100.279412 85.480 -175.9557
101.006078 85.474 -176.2664
101.738010 85.469 -176.5782
102.475245 85.464 -176.8915
103.217823 85.460 -177.2067
103.965782 85.457 -177.5239
104.719161 85.455 -177.8432
105.477999 85.453 -178.1641
106.242336 85.453 -178.4857
107.012212 85.454 -178.8064
107.787666 85.456 -179.1249
108.568740 85.459 -179.4396
109.355474 85.462 -179.7500
110.147909 85.466 179.9440
110.946086 85.470 179.6417
111.750047 85.474 179.3420
112.559834 85.479 179.0443
113.375489 85.484 178.7477
114.197055 85.488 178.4522
115.024574 85.493 178.1577
115.858089 85.498 177.8641
116.697645 85.503 177.5715
117.543284 85.508 177.2798
118.395051 85.512 176.9888
119.252990 85.516 176.6985
120.117147 85.521 176.4089
120.987565 85.525 176.1201
121.864291 85.529 175.8318
122.747370 85.533 175.5441
123.636848 85.536 175.2565
124.532771 85.539 174.9687
125.435187 85.541 174.6805
126.344142 85.542 174.3919
127.259684 85.542 174.1032
128.181860 85.541 173.8150
129.110718 85.538 173.5280
130.046308 85.535 173.2429
130.988677 85.529 172.9606
131.937875 85.522 172.6821
132.893951 85.514 172.4081
133.856956 85.505 172.1394
134.826938 85.494 171.8763
135.803950 85.482 171.6188
136.788041 85.469 171.3661
137.779264 85.456 171.1174
138.777669 85.441 170.8716
139.783309 85.425 170.6278
140.796237 85.408 170.3851
141.816504 85.390 170.1430
142.844165 85.371 169.9010
143.879273 85.351 169.6591
144.921881 85.330 169.4172
145.972045 85.308 169.1754
147.029819 85.285 168.9337
148.095257 85.262 168.6923
149.168417 85.239 168.4510
150.249353 85.215 168.2101
151.338121 85.191 167.9694
152.434780 85.167 167.7292
153.539385 85.143 167.4898
154.651995 85.119 167.2514
155.772667 85.096 167.0143
156.901460 85.071 166.7786
158.038432 85.047 166.5446
159.183644 85.023 166.3123
160.337154 84.998 166.0819
161.499023 84.973 165.8535
162.669312 84.949 165.6271
163.848081 84.924 165.4030
165.035392 84.900 165.1813
166.231306 84.877 164.9620
167.435887 84.853 164.7450
168.649196 84.831 164.5303
169.871298 84.809 164.3175
171.102255 84.787 164.1065
172.342133 84.765 163.8972
173.590995 84.743 163.6894
174.848907 84.722 163.4829
176.115934 84.700 163.2775
177.392143 84.677 163.0724
178.677599 84.655 162.8671
179.972371 84.632 162.6607
181.276525 84.608 162.4532
182.590129 84.585 162.2448
183.913252 84.561 162.0364
185.245964 84.536 161.8294
186.588332 84.512 161.6248
187.940428 84.486 161.4238
189.302322 84.461 161.2267
190.674085 84.434 161.0336
192.055788 84.408 160.8442
193.447503 84.380 160.6575
194.849303 84.353 160.4727
196.261262 84.324 160.2888
197.683452 84.296 160.1048
199.115948 84.267 159.9197
200.558824 84.238 159.7327
202.012156 84.208 159.5433
203.476019 84.178 159.3515
204.950490 84.148 159.1578
206.435646 84.117 158.9632
207.931564 84.085 158.7692
209.438322 84.053 158.5771
210.955998 84.021 158.3884
212.484672 83.989 158.2041
214.024424 83.956 158.0251
215.575333 83.924 157.8521
217.137481 83.892 157.6857
218.710948 83.861 157.5264
220.295818 83.832 157.3745
221.892172 83.804 157.2297
223.500094 83.778 157.0917
225.119668 83.753 156.9593
226.750978 83.731 156.8310
228.394109 83.710 156.7051
230.049147 83.691 156.5800
231.716178 83.674 156.4544
233.395289 83.658 156.3275
235.086567 83.644 156.1987
236.790102 83.632 156.0677
238.505980 83.621 155.9342
240.234293 83.612 155.7979
241.975130 83.604 155.6584
243.728581 83.597 155.5154
245.494739 83.592 155.3687
247.273695 83.587 155.2183
249.065542 83.582 155.0650
250.870374 83.578 154.9101
252.688284 83.573 154.7550
254.519367 83.569 154.6009
256.363720 83.563 154.4487
258.221437 83.558 154.2991
260.092616 83.552 154.1528
261.977354 83.545 154.0103
263.875750 83.539 153.8720
265.787903 83.531 153.7374
267.713911 83.524 153.6059
269.653877 83.516 153.4764
271.607900 83.507 153.3479
273.576083 83.498 153.2196
275.558528 83.488 153.0912
277.555338 83.478 152.9628
279.566619 83.467 152.8350
281.592474 83.456 152.7086
283.633009 83.445 152.5845
285.688331 83.434 152.4633
287.758546 83.424 152.3453
289.843763 83.414 152.2308
291.944090 83.405 152.1200
294.059638 83.396 152.0128
296.190515 83.388 151.9090
298.336833 83.380 151.8083
300.498705 83.373 151.7101
302.676243 83.367 151.6135
304.869559 83.361 151.5176
307.078770 83.355 151.4214
309.303989 83.351 151.3244
311.545334 83.347 151.2261
313.802919 83.343 151.1263
316.076865 83.340 151.0250
318.367288 83.336 150.9227
320.674309 83.333 150.8199
322.998047 83.329 150.7176
325.338624 83.324 150.6168
327.696162 83.319 150.5181
330.070783 83.313 150.4220
332.462612 83.306 150.3283
334.871773 83.298 150.2369
337.298392 83.289 150.1474
339.742595 83.279 150.0594
342.204510 83.267 149.9724
344.684265 83.255 149.8861
347.181989 83.241 149.8002
349.697813 83.227 149.7144
352.231868 83.211 149.6289
354.784285 83.195 149.5441
357.355198 83.178 149.4605
359.944741 83.160 149.3788
362.553049 83.142 149.2997
365.180258 83.123 149.2233
367.826505 83.103 149.1500
370.491927 83.084 149.0797
373.176665 83.064 149.0121
375.880856 83.044 148.9471
378.604644 83.023 148.8845
381.348169 83.003 148.8241
384.111575 82.982 148.7661
386.895006 82.961 148.7103
389.698607 82.940 148.6563
392.522524 82.919 148.6032
395.366904 82.897 148.5499
398.231895 82.876 148.4952
401.117648 82.854 148.4384
404.024312 82.831 148.3790
406.952038 82.808 148.3173
409.900981 82.784 148.2540
412.871292 82.759 148.1899
415.863128 82.732 148.1261
418.876643 82.705 148.0632
421.911996 82.676 148.0015
424.969344 82.645 147.9415
428.048847 82.612 147.8834
431.150666 82.578 147.8276
434.274961 82.542 147.7744
437.421897 82.504 147.7239
440.591636 82.465 147.6761
443.784345 82.425 147.6312
447.000189 82.384 147.5891
450.239337 82.342 147.5496
453.501956 82.299 147.5129
456.788219 82.257 147.4792
460.098294 82.214 147.4489
463.432356 82.172 147.4218
466.790578 82.131 147.3979
470.173135 82.091 147.3766
473.580203 82.051 147.3573
477.011961 82.013 147.3393
480.468586 81.976 147.3219
483.950259 81.940 147.3044
487.457163 81.905 147.2863
490.989478 81.871 147.2672
494.547390 81.838 147.2466
498.131084 81.807 147.2244
501.740748 81.776 147.2003
505.376568 81.747 147.1741
509.038735 81.718 147.1460
512.727439 81.691 147.1160
516.442874 81.665 147.0845
520.185232 81.640 147.0519
523.954708 81.617 147.0186
527.751500 81.596 146.9850
531.575805 81.576 146.9515
535.427822 81.559 146.9188
539.307753 81.543 146.8871
543.215800 81.529 146.8571
547.152165 81.517 146.8289
551.117055 81.507 146.8029
555.110677 81.498 146.7795
559.133237 81.492 146.7595
563.184947 81.487 146.7438
567.266018 81.484 146.7336
571.376661 81.483 146.7300
575.517092 81.483 146.7334
579.687526 81.485 146.7439
583.888181 81.488 146.7605
588.119275 81.493 146.7815
592.381030 81.498 146.8047
596.673667 81.505 146.8278
600.997410 81.512 146.8484
605.352485 81.519 146.8651
609.739119 81.526 146.8765
614.157540 81.532 146.8825
618.607979 81.537 146.8836
623.090667 81.540 146.8812
627.605839 81.542 146.8766
632.153730 81.541 146.8718
636.734576 81.539 146.8682
641.348617 81.536 146.8668
645.996094 81.531 146.8683
650.677248 81.525 146.8725
655.392323 81.518 146.8788
660.141566 81.511 146.8861
664.925224 81.504 146.8931
669.743546 81.496 146.8984
674.596784 81.488 146.9012
679.485191 81.480 146.9010
684.409020 81.471 146.8979
689.368530 81.461 146.8924
694.363979 81.450 146.8854
699.395626 81.438 146.8779
704.463736 81.425 146.8705
709.568570 81.411 146.8634
714.710396 81.397 146.8564
719.889483 81.381 146.8487
725.106099 81.366 146.8394
730.360516 81.349 146.8275
735.653010 81.332 146.8122
740.983855 81.314 146.7927
746.353329 81.295 146.7684
751.761713 81.276 146.7390
757.209288 81.256 146.7040
762.696339 81.235 146.6630
768.223151 81.214 146.6152
773.790013 81.191 146.5601
779.397214 81.168 146.4971
785.045047 81.144 146.4257
790.733808 81.120 146.3452
796.463791 81.094 146.2550
802.235296 81.068 146.1540
808.048623 81.041 146.0407
813.904077 81.013 145.9139
819.801961 80.984 145.7726
825.742584 80.954 145.6165
831.726255 80.921 145.4464
837.753287 80.885 145.2648
843.823992 80.845 145.0757
849.938689 80.802 144.8851
856.097695 80.755 144.7001
862.301332 80.703 144.5297
868.549922 80.646 144.3835
874.843793 80.586 144.2714
881.183272 80.523 144.2030
887.568689 80.458 144.1863
894.000378 80.394 144.2268
900.478673 80.332 144.3261
907.003913 80.275 144.4816
913.576437 80.225 144.6861
920.196588 80.184 144.9285
926.864712 80.152 145.1952
933.581156 80.132 145.4717
940.346270 80.121 145.7442
947.160407 80.121 146.0006
954.023921 80.130 146.2318
960.937172 80.146 146.4311
967.900519 80.169 146.5947
974.914325 80.197 146.7211
981.978956 80.230 146.8103
989.094780 80.266 146.8636
996.262169 80.304 146.8831
1003.481495 80.344 146.8715
1010.753136 80.385 146.8321
1018.077470 80.426 146.7683
1025.454879 80.468 146.6840
1032.885748 80.509 146.5826
1040.370463 80.549 146.4676
1047.909417 80.589 146.3418
1055.503000 80.629 146.2078
1063.151610 80.668 146.0680
1070.855645 80.706 145.9248
1078.615506 80.743 145.7802
1086.431599 80.780 145.6360
1094.304330 80.815 145.4933
1102.234110 80.850 145.3525
1110.221353 80.885 145.2137
1118.266475 80.918 145.0767
1126.369895 80.951 144.9412
1134.532035 80.983 144.8063
1142.753322 81.015 144.6713
1151.034184 81.045 144.5350
1159.375052 81.075 144.3964
1167.776361 81.104 144.2544
1176.238550 81.133 144.1085
1184.762060 81.159 143.9589
1193.347334 81.185 143.8060
1201.994821 81.209 143.6510
1210.704971 81.232 143.4952
1219.478238 81.253 143.3402
1228.315080 81.273 143.1874
1237.215957 81.292 143.0379
1246.181334 81.309 142.8928
1255.211678 81.326 142.7527
1264.307459 81.341 142.6181
1273.469152 81.356 142.4895
1282.697235 81.369 142.3671
1291.992188 81.382 142.2512
1301.354495 81.395 142.1420
1310.784647 81.407 142.0397
1320.283132 81.418 141.9442
1329.850448 81.429 141.8556
1339.487093 81.439 141.7735
1349.193569 81.449 141.6975
1358.970381 81.459 141.6275
1368.818041 81.468 141.5634
1378.737061 81.477 141.5056
1388.727958 81.485 141.4543
1398.791253 81.494 141.4105
1408.927471 81.502 141.3750
1419.137140 81.512 141.3487
1429.420793 81.522 141.3320
1439.778965 81.534 141.3255
1450.212197 81.546 141.3292
1460.721033 81.560 141.3431
1471.306019 81.575 141.3676
1481.967709 81.591 141.4033
1492.706658 81.608 141.4514
1503.523426 81.624 141.5129
1514.418576 81.641 141.5891
1525.392678 81.658 141.6808
1536.446302 81.674 141.7884
1547.580025 81.689 141.9124
1558.794428 81.703 142.0529
1570.090095 81.716 142.2102
1581.467615 81.727 142.3847
1592.927581 81.737 142.5766
1604.470591 81.745 142.7863
1616.097246 81.751 143.0131
1627.808153 81.756 143.2554
1639.603922 81.761 143.5106
1651.485168 81.764 143.7749
1663.452510 81.767 144.0444
1675.506573 81.768 144.3160
1687.647984 81.768 144.5878
1699.877377 81.766 144.8596
1712.195390 81.763 145.1332
1724.602663 81.756 145.4119
1737.099845 81.748 145.6998
1749.687587 81.738 146.0009
1762.366544 81.727 146.3182
1775.137379 81.716 146.6532
1788.000756 81.706 147.0051
1800.957346 81.696 147.3709
1814.007826 81.689 147.7460
1827.152874 81.683 148.1249
1840.393177 81.679 148.5024
1853.729425 81.676 148.8735
1867.162312 81.674 149.2343
1880.692540 81.671 149.5825
1894.320813 81.668 149.9178
1908.047843 81.663 150.2415
1921.874344 81.656 150.5568
1935.801038 81.645 150.8679
1949.828650 81.632 151.1793
1963.957912 81.616 151.4951
1978.189561 81.598 151.8180
1992.524338 81.579 152.1488
2006.962991 81.559 152.4865
2021.506272 81.538 152.8283
2036.154940 81.517 153.1708
2050.909758 81.496 153.5107
2065.771495 81.476 153.8451
2080.740927 81.455 154.1726
2095.818833 81.435 154.4929
2111.006001 81.414 154.8067
2126.303220 81.394 155.1155
2141.711290 81.373 155.4212
2157.231013 81.353 155.7255
2172.863198 81.334 156.0300
2188.608660 81.316 156.3361
2204.468221 81.299 156.6445
2220.442706 81.284 156.9559
2236.532950 81.271 157.2701
2252.739789 81.261 157.5867
2269.064070 81.253 157.9048
2285.506644 81.249 158.2231
2302.068367 81.249 158.5404
2318.750104 81.252 158.8554
2335.552723 81.259 159.1671
2352.477101 81.271 159.4749
2369.524119 81.286 159.7786
2386.694668 81.305 160.0780
2403.989641 81.330 160.3733
2421.409941 81.359 160.6638
2438.956476 81.394 160.9485
2456.630160 81.435 161.2250
2474.431915 81.482 161.4907
2492.362668 81.535 161.7421
2510.423356 81.595 161.9756
2528.614918 81.661 162.1877
2546.938304 81.733 162.3756
2565.394469 81.810 162.5370
2583.984375 81.892 162.6708
2602.708991 81.978 162.7765
2621.569293 82.068 162.8547
2640.566265 82.161 162.9066
2659.700897 82.257 162.9338
2678.974186 82.355 162.9379
2698.387137 82.455 162.9206
2717.940763 82.557 162.8832
2737.636082 82.661 162.8271
2757.474121 82.766 162.7534
2777.455915 82.871 162.6631
2797.582506 82.978 162.5569
2817.854942 83.085 162.4348
2838.274281 83.192 162.2968
2858.841586 83.299 162.1425
2879.557931 83.404 161.9720
2900.424394 83.508 161.7860
2921.442065 83.609 161.5858
2942.612039 83.708 161.3730
2963.935418 83.803 161.1497
2985.413316 83.893 160.9176
3007.046852 83.980 160.6784
3028.837153 84.061 160.4337
3050.785356 84.136 160.1847
3072.892604 84.205 159.9332
3095.160050 84.268 159.6809
3117.588856 84.324 159.4299
3140.180190 84.372 159.1820
3162.935230 84.414 158.9390
3185.855163 84.448 158.7020
3208.941182 84.474 158.4717
3232.194493 84.493 158.2482
3255.616307 84.505 158.0311
3279.207844 84.509 157.8199
3302.970336 84.506 157.6144
3326.905021 84.495 157.4144
3351.013146 84.478 157.2205
3375.295969 84.453 157.0335
3399.754755 84.421 156.8547
3424.390779 84.382 156.6856
3449.205326 84.337 156.5276
3474.199690 84.286 156.3823
3499.375173 84.230 156.2512
3524.733088 84.170 156.1356
3550.274757 84.106 156.0369
3576.001511 84.039 155.9563
3601.914692 83.970 155.8951
3628.015651 83.900 155.8547
3654.305748 83.830 155.8362
3680.786354 83.760 155.8408
3707.458849 83.691 155.8696
3734.324624 83.625 155.9233
3761.385080 83.562 156.0027
3788.641627 83.503 156.1081
3816.095686 83.449 156.2398
3843.748688 83.401 156.3979
3871.602076 83.359 156.5828
3899.657300 83.323 156.7948
3927.915825 83.295 157.0342
3956.379122 83.274 157.3016
3985.048676 83.262 157.5970
4013.925981 83.258 157.9203
4043.012544 83.262 158.2706
4072.309879 83.276 158.6464
4101.819515 83.299 159.0452
4131.542990 83.331 159.4637
4161.481854 83.373 159.8974
4191.637667 83.424 160.3409
4222.012001 83.485 160.7874
4252.606441 83.554 161.2289
4283.422580 83.632 161.6564
4314.462026 83.718 162.0600
4345.726396 83.811 162.4293
4377.217321 83.909 162.7540
4408.936442 84.013 163.0240
4440.885413 84.120 163.2299
4473.065899 84.228 163.3638
4505.479579 84.337 163.4191
4538.128141 84.444 163.3915
4571.013288 84.549 163.2784
4604.136735 84.648 163.0795
4637.500207 84.741 162.7958
4671.105446 84.827 162.4301
4704.954201 84.905 161.9864
4739.048239 84.973 161.4695
4773.389336 85.031 160.8849
4807.979283 85.078 160.2388
4842.819883 85.113 159.5374
4877.912952 85.137 158.7874
4913.260320 85.149 157.9960
4948.863830 85.148 157.1712
4984.725337 85.133 156.3217
5020.846712 85.105 155.4568
5057.229836 85.063 154.5869
5093.876609 85.008 153.7227
5130.788938 84.938 152.8760
5167.968750 84.854 152.0595
5205.417982 84.757 151.2866
5243.138586 84.647 150.5712
5281.132530 84.524 149.9276
5319.401793 84.390 149.3702
5357.948371 84.246 148.9136
5396.774274 84.093 148.5720
5435.881525 83.934 148.3588
5475.272163 83.770 148.2862
5514.948243 83.605 148.3641
5554.911831 83.442 148.5993
5595.165012 83.284 148.9952
5635.709884 83.135 149.5501
5676.548561 82.998 150.2575
5717.683172 82.876 151.1049
5759.115861 82.772 152.0737
5800.848789 82.689 153.1404
5842.884130 82.627 154.2770
5885.224077 82.586 155.4536
5927.870837 82.566 156.6404
5970.826633 82.564 157.8099
6014.093704 82.577 158.9389
6057.674306 82.603 160.0099
6101.570711 82.638 161.0119
6145.785208 82.677 161.9406
6190.320101 82.717 162.7980
6235.177712 82.756 163.5920
6280.360380 82.791 164.3351
6325.870460 82.820 165.0434
6371.710325 82.842 165.7351
6417.882365 82.857 166.4292
6464.388986 82.866 167.1446
6511.232613 82.870 167.8985
6558.415689 82.871 168.7054
6605.940673 82.873 169.5753
6653.810042 82.879 170.5128
6702.026292 82.892 171.5151
6750.591937 82.918 172.5710
6799.509509 82.959 173.6604
6848.781558 83.021 174.7545
6898.410653 83.104 175.8163
6948.399380 83.212 176.8027
6998.750346 83.342 177.6680
7049.466176 83.494 178.3671
7100.549514 83.664 178.8594
7152.003023 83.847 179.1116
7203.829385 84.038 179.0996
7256.031302 84.231 178.8089
7308.611496 84.418 178.2338
7361.572708 84.595 177.3761
7414.917698 84.754 176.2442
7468.649249 84.890 174.8516
7522.770160 84.997 173.2161
7577.283253 85.071 171.3594
7632.191371 85.105 169.3072
7687.497376 85.096 167.0891
7743.204151 85.039 164.7391
7799.314600 84.929 162.2962
7855.831649 84.763 159.8044
7912.758244 84.538 157.3134
7970.097352 84.251 154.8784
8027.851962 83.902 152.5608
8086.025087 83.489 150.4285
8144.619758 83.014 148.5573
8203.639030 82.477 147.0333
8263.085980 81.882 145.9567
8322.963708 81.234 145.4479
8383.275334 80.539 145.6554
8444.024002 79.807 146.7670
8505.212881 79.052 149.0195
8566.845160 78.293 152.7000
8628.924051 77.554 158.1147
8691.452792 76.867 165.4833
8754.434642 76.269 174.7221
8817.872884 75.798 -174.7930
8881.770826 75.483 -164.1759
8946.131799 75.337 -154.5399
9010.959157 75.357 -146.5116
9076.256282 75.519 -140.1839
9142.026576 75.792 -135.3539
9208.273470 76.142 -131.7387
9275.000415 76.541 -129.0798
9342.210891 76.966 -127.1734
9409.908403 77.400 -125.8686
9478.096478 77.832 -125.0573
9546.778672 78.252 -124.6622
9615.958566 78.656 -124.6282
9685.639765 79.039 -124.9150
9755.825904 79.396 -125.4917
9826.520640 79.725 -126.3326
9897.727659 80.023 -127.4152
9969.450674 80.287 -128.7173
10041.693423 80.514 -130.2161
10114.459673 80.703 -131.8878
10187.753217 80.850 -133.7066
10261.577877 80.955 -135.6454
10335.937500 81.015 -137.6754
10410.835964 81.029 -139.7666
10486.277173 80.998 -141.8878
10562.265060 80.921 -144.0070
10638.803587 80.797 -146.0922
10715.896743 80.628 -148.1107
10793.548548 80.416 -150.0306
10871.763050 80.162 -151.8207
10950.544327 79.868 -153.4511
11029.896485 79.538 -154.8942
11109.823662 79.176 -156.1255
11190.330024 78.786 -157.1254
11271.419768 78.374 -157.8810
11353.097122 77.946 -158.3884
11435.366344 77.509 -158.6552
11518.231722 77.070 -158.7025
11601.697577 76.637 -158.5656
11685.768261 76.217 -158.2934
11770.448155 75.816 -157.9455
11855.741674 75.437 -157.5867
11941.653265 75.083 -157.2811
12028.187408 74.751 -157.0851
12115.348612 74.440 -157.0423
12203.141422 74.142 -157.1796
12291.570415 73.851 -157.5052
12380.640201 73.559 -158.0083
12470.355424 73.256 -158.6603
12560.720760 72.934 -159.4153
12651.740920 72.589 -160.2117
12743.420650 72.215 -160.9733
12835.764729 71.811 -161.6126
12928.777972 71.380 -162.0368
13022.465227 70.930 -162.1575
13116.831378 70.475 -161.9060
13211.881345 70.035 -161.2538
13307.620084 69.636 -160.2354
13404.052584 69.306 -158.9659
13501.183875 69.071 -157.6424
13599.019019 68.949 -156.5188
13697.563116 68.943 -155.8584
13796.821305 69.044 -155.8818
13896.798760 69.227 -156.7341
13997.500692 69.464 -158.4782
14098.932352 69.726 -161.1081
14201.099028 69.990 -164.5721
14304.006046 70.238 -168.7939
14407.658770 70.460 -173.6893
14512.062604 70.649 -179.1768
14617.222992 70.802 174.8170
14723.145416 70.919 168.3568
14829.835397 71.000 161.5014
14937.298497 71.043 154.3068
15045.540320 71.048 146.8305
15154.566507 71.016 139.1330
15264.382743 70.946 131.2781
15374.994752 70.842 123.3305
15486.408302 70.707 115.3511
15598.629201 70.545 107.3933
15711.663298 70.362 99.5003
15825.516487 70.162 91.7061
15940.194703 69.946 84.0394
16055.703925 69.715 76.5290
16172.050174 69.466 69.2094
16289.239516 69.200 62.1226
16407.278061 68.918 55.3145
16526.171961 68.632 48.8271
16645.927415 68.360 42.6892
16766.550667 68.127 36.9062
16888.048005 67.969 31.4535
17010.425762 67.919 26.2725
17133.690320 68.008 21.2708
17257.848103 68.249 16.3272
17382.905584 68.636 11.3032
17508.869284 69.147 6.0540
17635.745768 69.747 0.4410
17763.541652 70.399 -5.6600
17892.263597 71.070 -12.3564
18021.918315 71.731 -19.7388
18152.512564 72.356 -27.8846
18284.053153 72.927 -36.8639
18416.546939 73.427 -46.7443
18550.000830 73.846 -57.5991
18684.421783 74.173 -69.5093
18819.816805 74.403 -82.5510
18956.192956 74.536 -96.7496
19093.557344 74.575 -111.9633
19231.917131 74.533 -127.7088
19371.279531 74.428 -143.0479
19511.651807 74.285 -156.7530
19653.041280 74.135 -167.7181
19795.455318 74.011 -175.2543
19938.901348 73.940 -179.0643
