* Measurement data measured by REW V5.31.3
* Source: EXCL: Headset (USB-C to 3.5mm Headphone Jack Adapter), MICROPHONE (Master Volume), 0, volume: 0.750
* Format: 256k Log Swept Sine, 1 sweep at -12.0 dBFS with no timing reference
* Dated: Apr 7, 2025 12:31:28 PM
* REW Settings:
*  C-weighting compensation: Off
*  Target level: 75.0 dB
* Note: ; 
* Measurement: HD6XX (Back) R10
* Smoothing: 1/6 octave
* Frequency Step: 96 ppo
* Start Frequency: 20.0 Hz
*
* Freq(Hz) SPL(dB) Phase(degrees)
20.187378 79.534 -99.6776
20.333664 79.568 -99.8674
20.481010 79.613 -100.1176
20.629424 79.667 -100.4157
20.778913 79.727 -100.7481
20.929486 79.792 -101.1011
21.081150 79.861 -101.4621
21.233912 79.931 -101.8197
21.387782 80.004 -102.1651
21.542767 80.079 -102.4916
21.698874 80.156 -102.7954
21.856113 80.235 -103.0753
22.014492 80.319 -103.3328
22.174018 80.405 -103.5716
22.334700 80.495 -103.7974
22.496546 80.589 -104.0176
22.659566 80.684 -104.2400
22.823766 80.781 -104.4727
22.989157 80.877 -104.7231
23.155745 80.971 -104.9974
23.323542 81.061 -105.2999
23.492554 81.144 -105.6325
23.662790 81.220 -105.9949
23.834261 81.286 -106.3844
24.006973 81.342 -106.7960
24.180938 81.387 -107.2232
24.356163 81.421 -107.6588
24.532658 81.444 -108.0951
24.710431 81.458 -108.5253
24.889493 81.464 -108.9438
25.069853 81.466 -109.3475
25.251519 81.464 -109.7354
25.434502 81.462 -110.1094
25.618811 81.461 -110.4732
25.804456 81.464 -110.8322
25.991445 81.472 -111.1918
26.179790 81.484 -111.5565
26.369500 81.502 -111.9290
26.560584 81.525 -112.3089
26.753053 81.551 -112.6929
26.946917 81.581 -113.0751
27.142185 81.613 -113.4476
27.338869 81.647 -113.8023
27.536977 81.683 -114.1321
27.736522 81.722 -114.4328
27.937512 81.764 -114.7036
28.139959 81.810 -114.9484
28.343872 81.861 -115.1751
28.549264 81.917 -115.3948
28.756143 81.978 -115.6205
28.964522 82.042 -115.8650
29.174411 82.109 -116.1390
29.385821 82.177 -116.4498
29.598763 82.244 -116.8004
29.813248 82.310 -117.1896
30.029287 82.373 -117.6120
30.246891 82.434 -118.0597
30.466073 82.492 -118.5234
30.686842 82.549 -118.9937
30.909212 82.605 -119.4626
31.133193 82.661 -119.9239
31.358797 82.719 -120.3741
31.586035 82.780 -120.8119
31.814921 82.843 -121.2377
32.045465 82.910 -121.6532
32.277680 82.981 -122.0604
32.511577 83.054 -122.4612
32.747169 83.129 -122.8565
32.984469 83.207 -123.2468
33.223488 83.286 -123.6316
33.464239 83.366 -124.0101
33.706735 83.447 -124.3814
33.950987 83.530 -124.7451
34.197010 83.614 -125.1011
34.444816 83.700 -125.4502
34.694417 83.787 -125.7939
34.945827 83.877 -126.1344
35.199059 83.969 -126.4747
35.454126 84.064 -126.8178
35.711041 84.160 -127.1666
35.969818 84.257 -127.5236
36.230470 84.355 -127.8903
36.493011 84.452 -128.2668
36.757455 84.548 -128.6519
37.023814 84.641 -129.0435
37.292104 84.732 -129.4382
37.562338 84.819 -129.8328
37.834530 84.902 -130.2242
38.108695 84.982 -130.6106
38.384846 85.059 -130.9913
38.662999 85.133 -131.3670
38.943167 85.204 -131.7393
39.225365 85.275 -132.1105
39.509608 85.343 -132.4828
39.795911 85.411 -132.8581
40.084289 85.477 -133.2374
40.374756 85.542 -133.6207
40.667328 85.604 -134.0074
40.962020 85.664 -134.3961
41.258848 85.720 -134.7854
41.557827 85.773 -135.1736
41.858972 85.821 -135.5599
42.162299 85.867 -135.9443
42.467824 85.909 -136.3281
42.775564 85.948 -136.7133
43.085533 85.987 -137.1024
43.397749 86.025 -137.4978
43.712227 86.063 -137.9005
44.028983 86.102 -138.3097
44.348036 86.141 -138.7229
44.669400 86.181 -139.1363
44.993093 86.220 -139.5457
45.319131 86.258 -139.9476
45.647532 86.295 -140.3401
45.978313 86.329 -140.7233
46.311491 86.360 -141.0990
46.647083 86.389 -141.4705
46.985107 86.416 -141.8413
47.325581 86.441 -142.2147
47.668521 86.466 -142.5923
48.013947 86.491 -142.9739
48.361876 86.516 -143.3575
48.712326 86.542 -143.7389
49.065315 86.567 -144.1131
49.420863 86.593 -144.4745
49.778987 86.617 -144.8179
50.139706 86.640 -145.1399
50.503039 86.659 -145.4385
50.869005 86.677 -145.7142
51.237623 86.692 -145.9700
51.608912 86.706 -146.2109
51.982891 86.719 -146.4437
52.359580 86.732 -146.6757
52.739000 86.745 -146.9136
53.121168 86.759 -147.1624
53.506106 86.773 -147.4251
53.893833 86.787 -147.7020
54.284370 86.799 -147.9920
54.677737 86.810 -148.2930
55.073955 86.821 -148.6029
55.473043 86.830 -148.9206
55.875024 86.839 -149.2458
56.279917 86.848 -149.5796
56.687745 86.857 -149.9231
57.098527 86.866 -150.2778
57.512287 86.876 -150.6444
57.929045 86.887 -151.0223
58.348822 86.900 -151.4093
58.771642 86.916 -151.8021
59.197525 86.936 -152.1962
59.626495 86.962 -152.5871
60.058573 86.994 -152.9705
60.493782 87.032 -153.3434
60.932145 87.075 -153.7036
61.373685 87.123 -154.0508
61.818424 87.175 -154.3856
62.266386 87.230 -154.7103
62.717593 87.286 -155.0273
63.172071 87.343 -155.3393
63.629842 87.401 -155.6487
64.090930 87.459 -155.9571
64.555359 87.517 -156.2664
65.023154 87.574 -156.5781
65.494339 87.630 -156.8935
65.968938 87.686 -157.2138
66.446976 87.739 -157.5394
66.928478 87.791 -157.8702
67.413469 87.841 -158.2057
67.901975 87.890 -158.5448
68.394021 87.936 -158.8860
68.889632 87.980 -159.2280
69.388835 88.022 -159.5697
69.891655 88.062 -159.9107
70.398118 88.099 -160.2515
70.908252 88.133 -160.5933
71.422083 88.166 -160.9374
71.939636 88.196 -161.2850
72.460941 88.225 -161.6365
72.986023 88.251 -161.9915
73.514909 88.275 -162.3491
74.047629 88.297 -162.7080
74.584208 88.317 -163.0668
75.124676 88.335 -163.4244
75.669061 88.350 -163.7801
76.217390 88.364 -164.1338
76.769692 88.376 -164.4859
77.325997 88.386 -164.8371
77.886333 88.393 -165.1880
78.450730 88.399 -165.5392
79.019216 88.403 -165.8912
79.591822 88.406 -166.2440
80.168577 88.408 -166.5979
80.749512 88.409 -166.9525
81.334656 88.409 -167.3074
81.924040 88.409 -167.6615
82.517696 88.409 -168.0139
83.115653 88.408 -168.3637
83.717943 88.408 -168.7105
84.324598 88.407 -169.0546
84.935649 88.406 -169.3966
85.551128 88.405 -169.7372
86.171066 88.404 -170.0771
86.795497 88.403 -170.4166
87.424453 88.402 -170.7556
88.057967 88.400 -171.0941
88.696071 88.398 -171.4318
89.338800 88.396 -171.7688
89.986185 88.394 -172.1055
90.638262 88.392 -172.4418
91.295065 88.390 -172.7780
91.956626 88.387 -173.1140
92.622982 88.385 -173.4497
93.294166 88.384 -173.7848
93.970214 88.382 -174.1190
94.651161 88.379 -174.4518
95.337042 88.377 -174.7827
96.027894 88.374 -175.1115
96.723752 88.371 -175.4382
97.424652 88.368 -175.7630
98.130631 88.364 -176.0868
98.841726 88.361 -176.4103
99.557974 88.357 -176.7345
100.279412 88.353 -177.0600
101.006078 88.350 -177.3868
101.738010 88.347 -177.7148
102.475245 88.345 -178.0435
103.217823 88.343 -178.3729
103.965782 88.343 -178.7033
104.719161 88.343 -179.0352
105.477999 88.344 -179.3689
106.242336 88.347 -179.7048
107.012212 88.351 179.9575
107.787666 88.356 179.6185
108.568740 88.362 179.2789
109.355474 88.370 178.9390
110.147909 88.378 178.5988
110.946086 88.387 178.2584
111.750047 88.396 177.9175
112.559834 88.405 177.5762
113.375489 88.414 177.2345
114.197055 88.423 176.8926
115.024574 88.431 176.5510
115.858089 88.439 176.2100
116.697645 88.446 175.8701
117.543284 88.453 175.5314
118.395051 88.459 175.1940
119.252990 88.466 174.8580
120.117147 88.472 174.5240
120.987565 88.479 174.1929
121.864291 88.485 173.8660
122.747370 88.491 173.5442
123.636848 88.497 173.2280
124.532771 88.502 172.9171
125.435187 88.505 172.6112
126.344142 88.508 172.3093
127.259684 88.510 172.0106
128.181860 88.510 171.7145
129.110718 88.510 171.4203
130.046308 88.508 171.1279
130.988677 88.505 170.8369
131.937875 88.502 170.5472
132.893951 88.497 170.2585
133.856956 88.491 169.9702
134.826938 88.484 169.6816
135.803950 88.476 169.3922
136.788041 88.466 169.1019
137.779264 88.456 168.8106
138.777669 88.444 168.5188
139.783309 88.430 168.2266
140.796237 88.415 167.9344
141.816504 88.399 167.6425
142.844165 88.382 167.3513
143.879273 88.364 167.0609
144.921881 88.345 166.7719
145.972045 88.324 166.4844
147.029819 88.304 166.1985
148.095257 88.282 165.9141
149.168417 88.260 165.6309
150.249353 88.238 165.3483
151.338121 88.216 165.0663
152.434780 88.194 164.7846
153.539385 88.171 164.5034
154.651995 88.149 164.2231
155.772667 88.127 163.9442
156.901460 88.104 163.6672
158.038432 88.082 163.3925
159.183644 88.059 163.1204
160.337154 88.036 162.8510
161.499023 88.013 162.5842
162.669312 87.990 162.3198
163.848081 87.967 162.0572
165.035392 87.943 161.7961
166.231306 87.920 161.5359
167.435887 87.897 161.2764
168.649196 87.874 161.0173
169.871298 87.851 160.7587
171.102255 87.828 160.5006
172.342133 87.806 160.2433
173.590995 87.784 159.9868
174.848907 87.761 159.7313
176.115934 87.738 159.4770
177.392143 87.715 159.2239
178.677599 87.691 158.9720
179.972371 87.667 158.7210
181.276525 87.642 158.4706
182.590129 87.617 158.2207
183.913252 87.591 157.9711
185.245964 87.565 157.7219
186.588332 87.539 157.4727
187.940428 87.511 157.2235
189.302322 87.483 156.9742
190.674085 87.453 156.7250
192.055788 87.423 156.4767
193.447503 87.391 156.2298
194.849303 87.359 155.9853
196.261262 87.326 155.7437
197.683452 87.292 155.5053
199.115948 87.258 155.2701
200.558824 87.223 155.0379
202.012156 87.189 154.8091
203.476019 87.154 154.5843
204.950490 87.121 154.3644
206.435646 87.088 154.1510
207.931564 87.055 153.9451
209.438322 87.024 153.7475
210.955998 86.993 153.5586
212.484672 86.964 153.3780
214.024424 86.936 153.2048
215.575333 86.908 153.0381
217.137481 86.882 152.8766
218.710948 86.857 152.7193
220.295818 86.833 152.5648
221.892172 86.810 152.4120
223.500094 86.787 152.2598
225.119668 86.766 152.1071
226.750978 86.746 151.9530
228.394109 86.727 151.7969
230.049147 86.709 151.6385
231.716178 86.692 151.4779
233.395289 86.677 151.3157
235.086567 86.663 151.1522
236.790102 86.650 150.9878
238.505980 86.639 150.8225
240.234293 86.629 150.6565
241.975130 86.620 150.4899
243.728581 86.612 150.3226
245.494739 86.604 150.1551
247.273695 86.597 149.9880
249.065542 86.590 149.8221
250.870374 86.584 149.6583
252.688284 86.577 149.4972
254.519367 86.571 149.3388
256.363720 86.565 149.1820
258.221437 86.558 149.0250
260.092616 86.551 148.8654
261.977354 86.543 148.7012
263.875750 86.535 148.5303
265.787903 86.526 148.3518
267.713911 86.517 148.1653
269.653877 86.508 147.9715
271.607900 86.498 147.7719
273.576083 86.489 147.5687
275.558528 86.479 147.3646
277.555338 86.470 147.1623
279.566619 86.461 146.9642
281.592474 86.452 146.7720
283.633009 86.443 146.5869
285.688331 86.434 146.4097
287.758546 86.425 146.2406
289.843763 86.416 146.0793
291.944090 86.408 145.9251
294.059638 86.400 145.7772
296.190515 86.392 145.6345
298.336833 86.385 145.4964
300.498705 86.379 145.3624
302.676243 86.373 145.2319
304.869559 86.367 145.1045
307.078770 86.362 144.9797
309.303989 86.357 144.8573
311.545334 86.352 144.7371
313.802919 86.347 144.6191
316.076865 86.342 144.5033
318.367288 86.338 144.3895
320.674309 86.333 144.2768
322.998047 86.329 144.1641
325.338624 86.324 144.0504
327.696162 86.319 143.9345
330.070783 86.314 143.8160
332.462612 86.309 143.6946
334.871773 86.304 143.5705
337.298392 86.297 143.4440
339.742595 86.290 143.3157
342.204510 86.282 143.1862
344.684265 86.273 143.0558
347.181989 86.262 142.9254
349.697813 86.250 142.7959
352.231868 86.236 142.6682
354.784285 86.220 142.5433
357.355198 86.203 142.4217
359.944741 86.184 142.3036
362.553049 86.163 142.1887
365.180258 86.142 142.0761
367.826505 86.120 141.9647
370.491927 86.097 141.8531
373.176665 86.075 141.7404
375.880856 86.053 141.6260
378.604644 86.032 141.5098
381.348169 86.011 141.3925
384.111575 85.991 141.2753
386.895006 85.971 141.1597
389.698607 85.952 141.0470
392.522524 85.931 140.9385
395.366904 85.911 140.8351
398.231895 85.889 140.7374
401.117648 85.866 140.6453
404.024312 85.842 140.5583
406.952038 85.817 140.4751
409.900981 85.790 140.3943
412.871292 85.763 140.3148
415.863128 85.734 140.2355
418.876643 85.704 140.1560
421.911996 85.673 140.0759
424.969344 85.642 139.9953
428.048847 85.608 139.9142
431.150666 85.574 139.8331
434.274961 85.538 139.7522
437.421897 85.501 139.6719
440.591636 85.462 139.5923
443.784345 85.421 139.5137
447.000189 85.380 139.4363
450.239337 85.338 139.3604
453.501956 85.295 139.2859
456.788219 85.252 139.2129
460.098294 85.208 139.1414
463.432356 85.165 139.0716
466.790578 85.122 139.0035
470.173135 85.079 138.9368
473.580203 85.038 138.8712
477.011961 84.997 138.8063
480.468586 84.958 138.7419
483.950259 84.920 138.6776
487.457163 84.883 138.6134
490.989478 84.848 138.5490
494.547390 84.814 138.4844
498.131084 84.781 138.4198
501.740748 84.750 138.3552
505.376568 84.719 138.2908
509.038735 84.691 138.2266
512.727439 84.664 138.1630
516.442874 84.639 138.0998
520.185232 84.615 138.0372
523.954708 84.593 137.9750
527.751500 84.573 137.9128
531.575805 84.555 137.8502
535.427822 84.538 137.7863
539.307753 84.523 137.7203
543.215800 84.510 137.6514
547.152165 84.498 137.5795
551.117055 84.488 137.5049
555.110677 84.479 137.4288
559.133237 84.472 137.3526
563.184947 84.466 137.2778
567.266018 84.462 137.2062
571.376661 84.459 137.1391
575.517092 84.457 137.0774
579.687526 84.456 137.0217
583.888181 84.456 136.9719
588.119275 84.456 136.9276
592.381030 84.457 136.8878
596.673667 84.458 136.8516
600.997410 84.459 136.8180
605.352485 84.460 136.7858
609.739119 84.461 136.7542
614.157540 84.461 136.7224
618.607979 84.460 136.6898
623.090667 84.459 136.6564
627.605839 84.456 136.6223
632.153730 84.451 136.5881
636.734576 84.445 136.5548
641.348617 84.438 136.5231
645.996094 84.429 136.4936
650.677248 84.418 136.4665
655.392323 84.407 136.4415
660.141566 84.394 136.4178
664.925224 84.381 136.3944
669.743546 84.367 136.3697
674.596784 84.352 136.3422
679.485191 84.337 136.3109
684.409020 84.322 136.2748
689.368530 84.306 136.2336
694.363979 84.289 136.1876
699.395626 84.271 136.1374
704.463736 84.252 136.0839
709.568570 84.232 136.0285
714.710396 84.211 135.9725
719.889483 84.187 135.9172
725.106099 84.162 135.8641
730.360516 84.135 135.8146
735.653010 84.106 135.7698
740.983855 84.076 135.7310
746.353329 84.043 135.6992
751.761713 84.008 135.6751
757.209288 83.973 135.6591
762.696339 83.936 135.6511
768.223151 83.899 135.6506
773.790013 83.862 135.6563
779.397214 83.825 135.6661
785.045047 83.789 135.6773
790.733808 83.754 135.6864
796.463791 83.720 135.6899
802.235296 83.687 135.6843
808.048623 83.656 135.6663
813.904077 83.625 135.6334
819.801961 83.596 135.5841
825.742584 83.566 135.5177
831.726255 83.536 135.4346
837.753287 83.505 135.3364
843.823992 83.472 135.2253
849.938689 83.438 135.1046
856.097695 83.401 134.9783
862.301332 83.362 134.8513
868.549922 83.319 134.7294
874.843793 83.273 134.6190
881.183272 83.223 134.5272
887.568689 83.171 134.4612
894.000378 83.116 134.4280
900.478673 83.060 134.4338
907.003913 83.004 134.4833
913.576437 82.949 134.5790
920.196588 82.897 134.7206
926.864712 82.850 134.9048
933.581156 82.810 135.1254
940.346270 82.777 135.3742
947.160407 82.752 135.6416
954.023921 82.735 135.9182
960.937172 82.727 136.1953
967.900519 82.728 136.4659
974.914325 82.735 136.7247
981.978956 82.750 136.9678
989.094780 82.771 137.1931
996.262169 82.797 137.3999
1003.481495 82.829 137.5880
1010.753136 82.864 137.7582
1018.077470 82.903 137.9114
1025.454879 82.946 138.0488
1032.885748 82.991 138.1714
1040.370463 83.040 138.2800
1047.909417 83.091 138.3753
1055.503000 83.144 138.4581
1063.151610 83.200 138.5292
1070.855645 83.257 138.5891
1078.615506 83.316 138.6381
1086.431599 83.377 138.6760
1094.304330 83.438 138.7020
1102.234110 83.501 138.7150
1110.221353 83.564 138.7136
1118.266475 83.628 138.6970
1126.369895 83.691 138.6649
1134.532035 83.754 138.6172
1142.753322 83.815 138.5547
1151.034184 83.876 138.4783
1159.375052 83.935 138.3894
1167.776361 83.992 138.2899
1176.238550 84.047 138.1817
1184.762060 84.100 138.0670
1193.347334 84.150 137.9480
1201.994821 84.199 137.8267
1210.704971 84.247 137.7050
1219.478238 84.292 137.5844
1228.315080 84.336 137.4661
1237.215957 84.379 137.3514
1246.181334 84.422 137.2413
1255.211678 84.463 137.1365
1264.307459 84.505 137.0377
1273.469152 84.546 136.9449
1282.697235 84.588 136.8580
1291.992188 84.629 136.7766
1301.354495 84.671 136.6998
1310.784647 84.714 136.6266
1320.283132 84.757 136.5553
1329.850448 84.800 136.4845
1339.487093 84.844 136.4127
1349.193569 84.888 136.3390
1358.970381 84.931 136.2629
1368.818041 84.975 136.1846
1378.737061 85.018 136.1049
1388.727958 85.061 136.0246
1398.791253 85.104 135.9452
1408.927471 85.146 135.8683
1419.137140 85.189 135.7956
1429.420793 85.232 135.7285
1439.778965 85.276 135.6683
1450.212197 85.321 135.6161
1460.721033 85.367 135.5726
1471.306019 85.413 135.5378
1481.967709 85.461 135.5114
1492.706658 85.510 135.4927
1503.523426 85.560 135.4811
1514.418576 85.610 135.4764
1525.392678 85.660 135.4787
1536.446302 85.709 135.4884
1547.580025 85.757 135.5059
1558.794428 85.805 135.5318
1570.090095 85.850 135.5662
1581.467615 85.894 135.6090
1592.927581 85.936 135.6595
1604.470591 85.976 135.7170
1616.097246 86.014 135.7806
1627.808153 86.048 135.8499
1639.603922 86.080 135.9250
1651.485168 86.109 136.0062
1663.452510 86.135 136.0940
1675.506573 86.159 136.1888
1687.647984 86.181 136.2908
1699.877377 86.200 136.3996
1712.195390 86.218 136.5148
1724.602663 86.234 136.6364
1737.099845 86.249 136.7642
1749.687587 86.263 136.8986
1762.366544 86.276 137.0403
1775.137379 86.288 137.1895
1788.000756 86.301 137.3464
1800.957346 86.313 137.5104
1814.007826 86.325 137.6802
1827.152874 86.338 137.8535
1840.393177 86.352 138.0280
1853.729425 86.365 138.2010
1867.162312 86.378 138.3705
1880.692540 86.391 138.5351
1894.320813 86.403 138.6943
1908.047843 86.413 138.8481
1921.874344 86.422 138.9975
1935.801038 86.429 139.1436
1949.828650 86.434 139.2875
1963.957912 86.438 139.4299
1978.189561 86.440 139.5707
1992.524338 86.441 139.7091
2006.962991 86.440 139.8434
2021.506272 86.439 139.9716
2036.154940 86.438 140.0916
2050.909758 86.436 140.2015
2065.771495 86.433 140.3002
2080.740927 86.430 140.3870
2095.818833 86.426 140.4616
2111.006001 86.422 140.5241
2126.303220 86.418 140.5748
2141.711290 86.414 140.6138
2157.231013 86.410 140.6409
2172.863198 86.406 140.6558
2188.608660 86.402 140.6581
2204.468221 86.398 140.6480
2220.442706 86.394 140.6264
2236.532950 86.389 140.5952
2252.739789 86.383 140.5573
2269.064070 86.377 140.5159
2285.506644 86.371 140.4742
2302.068367 86.364 140.4348
2318.750104 86.358 140.3994
2335.552723 86.353 140.3687
2352.477101 86.350 140.3426
2369.524119 86.349 140.3200
2386.694668 86.350 140.2995
2403.989641 86.354 140.2792
2421.409941 86.361 140.2575
2438.956476 86.371 140.2330
2456.630160 86.384 140.2049
2474.431915 86.401 140.1730
2492.362668 86.420 140.1378
2510.423356 86.442 140.0997
2528.614918 86.467 140.0598
2546.938304 86.496 140.0187
2565.394469 86.528 139.9771
2583.984375 86.564 139.9355
2602.708991 86.603 139.8941
2621.569293 86.646 139.8529
2640.566265 86.692 139.8115
2659.700897 86.743 139.7693
2678.974186 86.797 139.7255
2698.387137 86.856 139.6789
2717.940763 86.918 139.6282
2737.636082 86.983 139.5718
2757.474121 87.052 139.5083
2777.455915 87.124 139.4363
2797.582506 87.199 139.3545
2817.854942 87.275 139.2623
2838.274281 87.353 139.1593
2858.841586 87.431 139.0452
2879.557931 87.510 138.9200
2900.424394 87.588 138.7840
2921.442065 87.665 138.6378
2942.612039 87.740 138.4827
2963.935418 87.813 138.3204
2985.413316 87.882 138.1526
3007.046852 87.948 137.9810
3028.837153 88.010 137.8069
3050.785356 88.068 137.6314
3072.892604 88.120 137.4552
3095.160050 88.168 137.2789
3117.588856 88.210 137.1033
3140.180190 88.246 136.9290
3162.935230 88.275 136.7564
3185.855163 88.298 136.5861
3208.941182 88.314 136.4182
3232.194493 88.323 136.2529
3255.616307 88.324 136.0900
3279.207844 88.319 135.9294
3302.970336 88.306 135.7711
3326.905021 88.286 135.6151
3351.013146 88.259 135.4614
3375.295969 88.224 135.3105
3399.754755 88.182 135.1630
3424.390779 88.133 135.0205
3449.205326 88.077 134.8850
3474.199690 88.014 134.7590
3499.375173 87.945 134.6455
3524.733088 87.871 134.5474
3550.274757 87.792 134.4678
3576.001511 87.708 134.4092
3601.914692 87.622 134.3743
3628.015651 87.533 134.3651
3654.305748 87.443 134.3831
3680.786354 87.353 134.4292
3707.458849 87.264 134.5042
3734.324624 87.176 134.6082
3761.385080 87.091 134.7410
3788.641627 87.009 134.9026
3816.095686 86.931 135.0931
3843.748688 86.857 135.3132
3871.602076 86.788 135.5642
3899.657300 86.725 135.8477
3927.915825 86.666 136.1663
3956.379122 86.614 136.5226
3985.048676 86.568 136.9195
4013.925981 86.528 137.3594
4043.012544 86.496 137.8443
4072.309879 86.471 138.3754
4101.819515 86.455 138.9528
4131.542990 86.447 139.5753
4161.481854 86.449 140.2403
4191.637667 86.460 140.9435
4222.012001 86.481 141.6789
4252.606441 86.512 142.4385
4283.422580 86.554 143.2129
4314.462026 86.605 143.9914
4345.726396 86.665 144.7623
4377.217321 86.734 145.5135
4408.936442 86.811 146.2329
4440.885413 86.894 146.9091
4473.065899 86.983 147.5314
4505.479579 87.075 148.0912
4538.128141 87.170 148.5819
4571.013288 87.265 148.9989
4604.136735 87.359 149.3405
4637.500207 87.451 149.6067
4671.105446 87.539 149.8000
4704.954201 87.624 149.9239
4739.048239 87.703 149.9833
4773.389336 87.776 149.9838
4807.979283 87.843 149.9312
4842.819883 87.905 149.8315
4877.912952 87.960 149.6903
4913.260320 88.009 149.5128
4948.863830 88.053 149.3035
4984.725337 88.092 149.0664
5020.846712 88.125 148.8048
5057.229836 88.154 148.5221
5093.876609 88.178 148.2213
5130.788938 88.196 147.9062
5167.968750 88.210 147.5811
5205.417982 88.218 147.2507
5243.138586 88.222 146.9210
5281.132530 88.219 146.5987
5319.401793 88.212 146.2911
5357.948371 88.199 146.0062
5396.774274 88.182 145.7515
5435.881525 88.161 145.5336
5475.272163 88.137 145.3581
5514.948243 88.112 145.2283
5554.911831 88.085 145.1456
5595.165012 88.059 145.1095
5635.709884 88.034 145.1173
5676.548561 88.011 145.1648
5717.683172 87.990 145.2463
5759.115861 87.971 145.3550
5800.848789 87.955 145.4829
5842.884130 87.941 145.6216
5885.224077 87.928 145.7625
5927.870837 87.914 145.8973
5970.826633 87.900 146.0187
6014.093704 87.882 146.1213
6057.674306 87.858 146.2015
6101.570711 87.828 146.2589
6145.785208 87.787 146.2957
6190.320101 87.734 146.3179
6235.177712 87.668 146.3351
6280.360380 87.584 146.3608
6325.870460 87.483 146.4129
6371.710325 87.362 146.5131
6417.882365 87.221 146.6877
6464.388986 87.060 146.9672
6511.232613 86.879 147.3861
6558.415689 86.680 147.9834
6605.940673 86.466 148.8015
6653.810042 86.241 149.8857
6702.026292 86.011 151.2810
6750.591937 85.786 153.0283
6799.509509 85.574 155.1570
6848.781558 85.389 157.6765
6898.410653 85.244 160.5644
6948.399380 85.151 163.7585
6998.750346 85.123 167.1523
7049.466176 85.166 170.6021
7100.549514 85.283 173.9442
7152.003023 85.469 177.0188
7203.829385 85.716 179.6920
7256.031302 86.009 -178.1310
7308.611496 86.335 -176.5027
7361.572708 86.679 -175.4389
7414.917698 87.025 -174.9275
7468.649249 87.363 -174.9380
7522.770160 87.679 -175.4286
7577.283253 87.966 -176.3519
7632.191371 88.215 -177.6575
7687.497376 88.419 -179.2943
7743.204151 88.575 178.7891
7799.314600 88.676 176.6434
7855.831649 88.720 174.3193
7912.758244 88.705 171.8670
7970.097352 88.628 169.3363
8027.851962 88.488 166.7766
8086.025087 88.285 164.2372
8144.619758 88.019 161.7667
8203.639030 87.690 159.4142
8263.085980 87.300 157.2292
8322.963708 86.851 155.2632
8383.275334 86.344 153.5707
8444.024002 85.782 152.2125
8505.212881 85.169 151.2586
8566.845160 84.508 150.7944
8628.924051 83.805 150.9286
8691.452792 83.068 151.8048
8754.434642 82.308 153.6183
8817.872884 81.539 156.6357
8881.770826 80.783 161.2088
8946.131799 80.069 167.7526
9010.959157 79.433 176.6090
9076.256282 78.916 -172.2963
9142.026576 78.556 -159.8725
9208.273470 78.378 -147.7454
9275.000415 78.386 -137.3558
9342.210891 78.558 -129.2824
9409.908403 78.860 -123.3992
9478.096478 79.250 -119.3136
9546.778672 79.688 -116.6292
9615.958566 80.142 -115.0279
9685.639765 80.589 -114.2726
9755.825904 81.009 -114.1886
9826.520640 81.391 -114.6439
9897.727659 81.724 -115.5343
9969.450674 82.002 -116.7730
10041.693423 82.219 -118.2837
10114.459673 82.374 -119.9966
10187.753217 82.463 -121.8466
10261.577877 82.486 -123.7720
10335.937500 82.445 -125.7152
10410.835964 82.340 -127.6226
10486.277173 82.174 -129.4454
10562.265060 81.950 -131.1396
10638.803587 81.672 -132.6660
10715.896743 81.344 -133.9904
10793.548548 80.971 -135.0828
10871.763050 80.556 -135.9179
10950.544327 80.105 -136.4745
11029.896485 79.622 -136.7364
11109.823662 79.113 -136.6931
11190.330024 78.583 -136.3415
11271.419768 78.038 -135.6873
11353.097122 77.482 -134.7469
11435.366344 76.922 -133.5473
11518.231722 76.361 -132.1247
11601.697577 75.805 -130.5195
11685.768261 75.254 -128.7694
11770.448155 74.709 -126.9003
11855.741674 74.170 -124.9162
11941.653265 73.636 -122.7910
12028.187408 73.104 -120.4618
12115.348612 72.575 -117.8274
12203.141422 72.053 -114.7516
12291.570415 71.546 -111.0768
12380.640201 71.070 -106.6530
12470.355424 70.646 -101.3902
12560.720760 70.299 -95.3323
12651.740920 70.057 -88.7255
12743.420650 69.938 -82.0213
12835.764729 69.950 -75.7679
12928.777972 70.085 -70.4409
13022.465227 70.321 -66.3256
13116.831378 70.629 -63.5072
13211.881345 70.975 -61.9325
13307.620084 71.329 -61.4789
13404.052584 71.665 -62.0017
13501.183875 71.965 -63.3582
13599.019019 72.212 -65.4174
13697.563116 72.396 -68.0618
13796.821305 72.511 -71.1876
13896.798760 72.554 -74.7054
13997.500692 72.524 -78.5404
14098.932352 72.426 -82.6345
14201.099028 72.263 -86.9472
14304.006046 72.043 -91.4567
14407.658770 71.774 -96.1598
14512.062604 71.464 -101.0705
14617.222992 71.122 -106.2187
14723.145416 70.755 -111.6478
14829.835397 70.371 -117.4118
14937.298497 69.976 -123.5729
15045.540320 69.572 -130.1988
15154.566507 69.162 -137.3596
15264.382743 68.745 -145.1255
15374.994752 68.319 -153.5631
15486.408302 67.881 -162.7310
15598.629201 67.426 -172.6721
15711.663298 66.952 176.5991
15825.516487 66.457 165.1138
15940.194703 65.939 152.9686
16055.703925 65.402 140.3361
16172.050174 64.850 127.4557
16289.239516 64.294 114.5946
16407.278061 63.748 101.9934
16526.171961 63.239 89.8149
16645.927415 62.799 78.1180
16766.550667 62.472 66.8511
16888.048005 62.302 55.8554
17010.425762 62.328 44.8411
17133.690320 62.569 33.2857
17257.848103 63.018 20.0614
17382.905584 63.643 1.8606
17508.869284 64.399 -35.7080
17635.745768 65.239 -112.4782
17763.541652 66.121 -151.8453
17892.263597 67.014 -171.0793
18021.918315 67.893 174.5388
18152.512564 68.741 161.5176
18284.053153 69.542 148.6598
18416.546939 70.289 135.3825
18550.000830 70.971 121.3331
18684.421783 71.583 106.3178
18819.816805 72.120 90.3557
18956.192956 72.580 73.7864
19093.557344 72.959 57.3129
19231.917131 73.262 41.8503
19371.279531 73.490 28.2386
19511.651807 73.654 17.0405
19653.041280 73.762 8.5413
19795.455318 73.825 2.8517
19938.901348 73.854 0.0042
