* Measurement data measured by REW V5.31.3
* Source: EXCL: Headset (USB-C to 3.5mm Headphone Jack Adapter), MICROPHONE (Master Volume), 0, volume: 0.750
* Format: 256k Log Swept Sine, 1 sweep at -12.0 dBFS with no timing reference
* Dated: Apr 1, 2025 10:22:48 PM
* REW Settings:
*  C-weighting compensation: Off
*  Target level: 75.0 dB
* Note: ; 
* Measurement: HD6XX (Soulwit) L1
* Smoothing: 1/6 octave
* Frequency Step: 96 ppo
* Start Frequency: 20.0 Hz
*
* Freq(Hz) SPL(dB) Phase(degrees)
20.033247 82.675 -95.8195
20.178416 82.744 -96.1044
20.324637 82.815 -96.3785
20.471918 82.890 -96.6396
20.620266 82.970 -96.8876
20.769689 83.055 -97.1245
20.920195 83.146 -97.3546
21.071791 83.244 -97.5839
21.224486 83.349 -97.8191
21.378287 83.458 -98.0671
21.533203 83.572 -98.3338
21.689242 83.687 -98.6229
21.846411 83.803 -98.9359
22.004719 83.917 -99.2711
22.164174 84.027 -99.6242
22.324785 84.133 -99.9886
22.486559 84.231 -100.3560
22.649506 84.323 -100.7173
22.813634 84.408 -101.0641
22.978951 84.486 -101.3896
23.145466 84.558 -101.6891
23.313188 84.626 -101.9609
23.482124 84.689 -102.2070
23.652286 84.750 -102.4318
23.823680 84.808 -102.6425
23.996316 84.864 -102.8472
24.170203 84.919 -103.0546
24.345351 84.972 -103.2720
24.521767 85.022 -103.5048
24.699462 85.068 -103.7559
24.878444 85.111 -104.0255
25.058724 85.149 -104.3110
25.240310 85.183 -104.6086
25.423211 85.213 -104.9129
25.607438 85.240 -105.2189
25.793000 85.263 -105.5224
25.979907 85.285 -105.8204
26.168168 85.306 -106.1119
26.357794 85.327 -106.3973
26.548793 85.349 -106.6783
26.741176 85.372 -106.9570
26.934954 85.397 -107.2358
27.130136 85.423 -107.5162
27.326732 85.451 -107.7988
27.524753 85.480 -108.0836
27.724208 85.511 -108.3696
27.925110 85.543 -108.6564
28.127466 85.578 -108.9438
28.331290 85.615 -109.2333
28.536590 85.656 -109.5274
28.743378 85.699 -109.8303
28.951664 85.746 -110.1467
29.161460 85.795 -110.4812
29.372776 85.846 -110.8370
29.585623 85.898 -111.2149
29.800013 85.950 -111.6132
30.015956 86.001 -112.0269
30.233464 86.051 -112.4489
30.452548 86.099 -112.8705
30.673220 86.147 -113.2830
30.895490 86.196 -113.6793
31.119372 86.247 -114.0547
31.344876 86.302 -114.4078
31.572014 86.362 -114.7408
31.800797 86.428 -115.0585
32.031239 86.501 -115.3676
32.263351 86.580 -115.6751
32.497144 86.666 -115.9869
32.732632 86.756 -116.3073
32.969826 86.850 -116.6379
33.208739 86.947 -116.9785
33.449383 87.045 -117.3275
33.691771 87.144 -117.6820
33.935916 87.243 -118.0397
34.181829 87.342 -118.3981
34.429525 87.439 -118.7552
34.679015 87.535 -119.1093
34.930314 87.629 -119.4585
35.183433 87.721 -119.8005
35.438387 87.811 -120.1324
35.695188 87.897 -120.4512
35.953850 87.982 -120.7539
36.214387 88.064 -121.0385
36.476811 88.145 -121.3038
36.741137 88.226 -121.5508
37.007378 88.307 -121.7821
37.275549 88.388 -122.0022
37.545663 88.470 -122.2164
37.817734 88.552 -122.4312
38.091777 88.636 -122.6523
38.367806 88.719 -122.8850
38.645835 88.802 -123.1327
38.925879 88.883 -123.3968
39.207952 88.962 -123.6769
39.492069 89.039 -123.9708
39.778244 89.114 -124.2758
40.066494 89.186 -124.5889
40.356832 89.256 -124.9084
40.649275 89.325 -125.2343
40.943836 89.393 -125.5677
41.240532 89.460 -125.9113
41.539378 89.525 -126.2678
41.840389 89.588 -126.6387
42.143582 89.648 -127.0240
42.448972 89.705 -127.4219
42.756574 89.758 -127.8284
43.066406 89.807 -128.2383
43.378483 89.851 -128.6463
43.692822 89.891 -129.0464
44.009438 89.927 -129.4332
44.328348 89.960 -129.8021
44.649570 89.991 -130.1494
44.973119 90.020 -130.4733
45.299013 90.049 -130.7740
45.627268 90.078 -131.0545
45.957902 90.109 -131.3196
46.290932 90.141 -131.5750
46.626375 90.175 -131.8265
46.964249 90.211 -132.0781
47.304571 90.247 -132.3325
47.647360 90.284 -132.5905
47.992632 90.321 -132.8528
48.340407 90.359 -133.1204
48.690701 90.396 -133.3945
49.043534 90.433 -133.6765
49.398924 90.469 -133.9666
49.756889 90.503 -134.2637
50.117447 90.535 -134.5649
50.480619 90.564 -134.8668
50.846423 90.591 -135.1658
51.214877 90.615 -135.4591
51.586001 90.637 -135.7452
51.959814 90.658 -136.0237
52.336336 90.677 -136.2946
52.715587 90.695 -136.5588
53.097586 90.712 -136.8173
53.482353 90.728 -137.0719
53.869908 90.745 -137.3243
54.260272 90.762 -137.5765
54.653464 90.780 -137.8306
55.049506 90.798 -138.0884
55.448417 90.818 -138.3519
55.850219 90.839 -138.6228
56.254933 90.861 -138.9022
56.662579 90.885 -139.1905
57.073180 90.911 -139.4871
57.486755 90.939 -139.7908
57.903328 90.968 -140.1000
58.322919 90.999 -140.4127
58.745551 91.032 -140.7266
59.171246 91.067 -141.0392
59.600025 91.104 -141.3479
60.031911 91.143 -141.6504
60.466927 91.184 -141.9455
60.905096 91.227 -142.2331
61.346439 91.273 -142.5140
61.790981 91.320 -142.7897
62.238744 91.369 -143.0611
62.689751 91.419 -143.3295
63.144027 91.470 -143.5958
63.601595 91.522 -143.8609
64.062478 91.574 -144.1260
64.526701 91.626 -144.3926
64.994288 91.679 -144.6619
65.465264 91.731 -144.9354
65.939652 91.783 -145.2142
66.417478 91.835 -145.4991
66.898766 91.887 -145.7906
67.383542 91.937 -146.0889
67.871831 91.987 -146.3938
68.363659 92.035 -146.7051
68.859050 92.082 -147.0221
69.358031 92.128 -147.3438
69.860628 92.171 -147.6689
70.366867 92.212 -147.9961
70.876774 92.252 -148.3241
71.390376 92.288 -148.6516
71.907700 92.322 -148.9778
72.428773 92.354 -149.3019
72.953622 92.383 -149.6237
73.482274 92.409 -149.9432
74.014757 92.434 -150.2610
74.551098 92.455 -150.5775
75.091326 92.475 -150.8933
75.635469 92.492 -151.2086
76.183555 92.507 -151.5234
76.735612 92.521 -151.8378
77.291670 92.532 -152.1514
77.851757 92.542 -152.4641
78.415903 92.550 -152.7756
78.984137 92.558 -153.0859
79.556489 92.564 -153.3948
80.132988 92.569 -153.7023
80.713665 92.574 -154.0082
81.298549 92.578 -154.3125
81.887672 92.582 -154.6153
82.481064 92.585 -154.9167
83.078756 92.588 -155.2172
83.680778 92.591 -155.5165
84.287164 92.594 -155.8149
84.897943 92.596 -156.1125
85.513149 92.598 -156.4093
86.132812 92.599 -156.7051
86.756966 92.601 -156.9996
87.385643 92.601 -157.2928
88.018875 92.602 -157.5843
88.656696 92.601 -157.8739
89.299139 92.600 -158.1613
89.946238 92.599 -158.4463
90.598025 92.597 -158.7288
91.254536 92.595 -159.0087
91.915804 92.592 -159.2865
92.581864 92.590 -159.5626
93.252750 92.587 -159.8378
93.928498 92.584 -160.1125
94.609143 92.582 -160.3874
95.294719 92.580 -160.6627
95.985264 92.577 -160.9384
96.680813 92.575 -161.2144
97.381402 92.573 -161.4904
98.087068 92.570 -161.7662
98.797847 92.568 -162.0419
99.513777 92.567 -162.3171
100.234895 92.565 -162.5919
100.961238 92.564 -162.8662
101.692845 92.564 -163.1397
102.429753 92.563 -163.4120
103.172002 92.564 -163.6826
103.919628 92.565 -163.9507
104.672673 92.567 -164.2159
105.431174 92.569 -164.4775
106.195172 92.572 -164.7357
106.964706 92.577 -164.9903
107.739816 92.582 -165.2420
108.520543 92.588 -165.4911
109.306928 92.595 -165.7383
110.099011 92.604 -165.9839
110.896834 92.613 -166.2283
111.700438 92.623 -166.4712
112.509866 92.633 -166.7125
113.325158 92.644 -166.9516
114.146359 92.656 -167.1879
114.973511 92.668 -167.4209
115.806656 92.681 -167.6509
116.645839 92.693 -167.8785
117.491103 92.706 -168.1044
118.342492 92.719 -168.3297
119.200050 92.731 -168.5548
120.063823 92.742 -168.7803
120.933855 92.753 -169.0062
121.810191 92.764 -169.2322
122.692878 92.773 -169.4581
123.581962 92.782 -169.6839
124.477487 92.790 -169.9095
125.379503 92.798 -170.1350
126.288054 92.804 -170.3607
127.203189 92.810 -170.5870
128.124956 92.815 -170.8141
129.053402 92.820 -171.0424
129.988577 92.823 -171.2717
130.930527 92.825 -171.5016
131.879304 92.826 -171.7312
132.834956 92.826 -171.9595
133.797533 92.825 -172.1854
134.767085 92.822 -172.4081
135.743663 92.818 -172.6271
136.727317 92.813 -172.8422
137.718100 92.807 -173.0540
138.716062 92.799 -173.2627
139.721255 92.790 -173.4692
140.733733 92.779 -173.6740
141.753548 92.767 -173.8775
142.780753 92.753 -174.0798
143.815401 92.739 -174.2811
144.857546 92.724 -174.4811
145.907244 92.707 -174.6796
146.964548 92.690 -174.8765
148.029514 92.673 -175.0718
149.102197 92.655 -175.2654
150.182652 92.637 -175.4576
151.270938 92.618 -175.6486
152.367109 92.600 -175.8385
153.471224 92.581 -176.0276
154.583340 92.563 -176.2161
155.703515 92.544 -176.4038
156.831807 92.526 -176.5903
157.968274 92.508 -176.7755
159.112978 92.490 -176.9586
160.265976 92.472 -177.1395
161.427329 92.454 -177.3179
162.597098 92.436 -177.4936
163.775344 92.418 -177.6667
164.962128 92.400 -177.8373
166.157511 92.383 -178.0056
167.361557 92.365 -178.1716
168.574328 92.348 -178.3357
169.795887 92.331 -178.4980
171.026298 92.313 -178.6591
172.265625 92.297 -178.8190
173.513933 92.280 -178.9785
174.771286 92.263 -179.1376
176.037751 92.247 -179.2966
177.313393 92.230 -179.4558
178.598279 92.213 -179.6150
179.892476 92.196 -179.7737
181.196051 92.178 -179.9317
182.509072 92.160 179.9116
183.831608 92.141 179.7565
185.163728 92.122 179.6031
186.505500 92.102 179.4513
187.856996 92.082 179.3010
189.218285 92.061 179.1522
190.589439 92.039 179.0054
191.970529 92.017 178.8610
193.361626 91.995 178.7196
194.762804 91.972 178.5817
196.174136 91.948 178.4477
197.595694 91.924 178.3178
199.027554 91.900 178.1920
200.469790 91.876 178.0699
201.922477 91.851 177.9513
203.385690 91.826 177.8357
204.859507 91.801 177.7227
206.344003 91.777 177.6119
207.839257 91.753 177.5028
209.345346 91.729 177.3948
210.862348 91.706 177.2877
212.390344 91.683 177.1808
213.929412 91.661 177.0740
215.479633 91.640 176.9671
217.041087 91.621 176.8600
218.613856 91.602 176.7530
220.198022 91.584 176.6462
221.793668 91.567 176.5400
223.400876 91.551 176.4349
225.019731 91.536 176.3310
226.650317 91.521 176.2285
228.292718 91.507 176.1274
229.947022 91.494 176.0274
231.613312 91.481 175.9283
233.291678 91.469 175.8301
234.982206 91.459 175.7328
236.684984 91.449 175.6365
238.400101 91.441 175.5413
240.127646 91.434 175.4470
241.867710 91.427 175.3534
243.620383 91.422 175.2603
245.385757 91.417 175.1676
247.163923 91.413 175.0759
248.954975 91.410 174.9858
250.759005 91.406 174.8979
252.576108 91.403 174.8127
254.406379 91.400 174.7305
256.249912 91.397 174.6513
258.106805 91.394 174.5750
259.977153 91.392 174.5015
261.861055 91.389 174.4304
263.758608 91.386 174.3619
265.669911 91.383 174.2957
267.595065 91.380 174.2316
269.534169 91.376 174.1694
271.487325 91.372 174.1086
273.454634 91.368 174.0490
275.436199 91.363 173.9900
277.432123 91.358 173.9313
279.442511 91.352 173.8729
281.467467 91.347 173.8149
283.507096 91.341 173.7574
285.561505 91.336 173.7009
287.630801 91.332 173.6460
289.715093 91.327 173.5933
291.814488 91.324 173.5433
293.929096 91.321 173.4966
296.059027 91.318 173.4532
298.204393 91.317 173.4133
300.365305 91.316 173.3764
302.541876 91.315 173.3422
304.734219 91.316 173.3099
306.942449 91.316 173.2792
309.166680 91.318 173.2496
311.407029 91.319 173.2213
313.663613 91.321 173.1941
315.936549 91.322 173.1680
318.225955 91.324 173.1431
320.531952 91.325 173.1197
322.854659 91.326 173.0977
325.194197 91.327 173.0771
327.550688 91.328 173.0582
329.924255 91.328 173.0409
332.315022 91.328 173.0253
334.723114 91.328 173.0116
337.148655 91.327 172.9998
339.591774 91.325 172.9902
342.052596 91.323 172.9828
344.531250 91.319 172.9779
347.027865 91.315 172.9754
349.542572 91.310 172.9755
352.075502 91.304 172.9780
354.626786 91.296 172.9825
357.196558 91.287 172.9886
359.784951 91.278 172.9958
362.392101 91.267 173.0035
365.018144 91.256 173.0117
367.663216 91.244 173.0200
370.327455 91.231 173.0284
373.011000 91.219 173.0370
375.713992 91.206 173.0458
378.436570 91.193 173.0547
381.178878 91.179 173.0638
383.941057 91.166 173.0733
386.723252 91.152 173.0831
389.525608 91.138 173.0933
392.348271 91.124 173.1038
395.191389 91.109 173.1148
398.055108 91.094 173.1262
400.939580 91.078 173.1380
403.844953 91.062 173.1505
406.771380 91.045 173.1636
409.719013 91.027 173.1777
412.688006 91.009 173.1929
415.678514 90.989 173.2089
418.690692 90.969 173.2256
421.724697 90.947 173.2429
424.780688 90.924 173.2607
427.858824 90.900 173.2792
430.959265 90.874 173.2988
434.082174 90.846 173.3197
437.227712 90.817 173.3425
440.396044 90.786 173.3673
443.587336 90.754 173.3945
446.801752 90.721 173.4241
450.039462 90.686 173.4560
453.300634 90.651 173.4903
456.585437 90.615 173.5269
459.894043 90.579 173.5657
463.226625 90.543 173.6068
466.583356 90.507 173.6499
469.964411 90.471 173.6953
473.369967 90.436 173.7427
476.800201 90.402 173.7922
480.255292 90.370 173.8436
483.735420 90.338 173.8968
487.240766 90.308 173.9515
490.771513 90.279 174.0074
494.327846 90.251 174.0645
497.909949 90.225 174.1222
501.518010 90.201 174.1804
505.152216 90.178 174.2389
508.812758 90.157 174.2973
512.499825 90.138 174.3551
516.213610 90.121 174.4117
519.954306 90.106 174.4664
523.722109 90.093 174.5184
527.517216 90.082 174.5669
531.339823 90.073 174.6115
535.190130 90.065 174.6519
539.068339 90.060 174.6882
542.974650 90.056 174.7209
546.909268 90.054 174.7507
550.872398 90.053 174.7784
554.864247 90.053 174.8049
558.885022 90.055 174.8316
562.934933 90.057 174.8596
567.014192 90.061 174.8903
571.123010 90.064 174.9254
575.261603 90.068 174.9666
579.430186 90.071 175.0155
583.628976 90.075 175.0739
587.858192 90.078 175.1434
592.118055 90.082 175.2254
596.408786 90.085 175.3206
600.730610 90.089 175.4290
605.083752 90.093 175.5499
609.468438 90.098 175.6812
613.884897 90.104 175.8200
618.333360 90.111 175.9631
622.814059 90.119 176.1068
627.327226 90.128 176.2480
631.873098 90.137 176.3839
636.451911 90.147 176.5123
641.063904 90.157 176.6320
645.709317 90.167 176.7424
650.388393 90.175 176.8435
655.101375 90.183 176.9357
659.848510 90.190 177.0198
664.630044 90.196 177.0966
669.446228 90.199 177.1672
674.297311 90.201 177.2327
679.183547 90.202 177.2944
684.105191 90.200 177.3535
689.062499 90.198 177.4113
694.055730 90.193 177.4689
699.085144 90.188 177.5273
704.151003 90.181 177.5870
709.253572 90.174 177.6482
714.393116 90.165 177.7103
719.569903 90.156 177.7723
724.784203 90.147 177.8328
730.036288 90.136 177.8900
735.326432 90.125 177.9423
740.654910 90.113 177.9885
746.022001 90.100 178.0274
751.427984 90.085 178.0587
756.873141 90.069 178.0822
762.357756 90.050 178.0985
767.882114 90.031 178.1082
773.446504 90.009 178.1115
779.051217 89.986 178.1086
784.696543 89.961 178.0989
790.382778 89.935 178.0818
796.110217 89.907 178.0566
801.879160 89.877 178.0232
807.689907 89.844 177.9824
813.542761 89.810 177.9360
819.438027 89.772 177.8875
825.376013 89.731 177.8414
831.357028 89.686 177.8043
837.381383 89.638 177.7833
843.449394 89.586 177.7867
849.561376 89.532 177.8234
855.717648 89.476 177.9012
861.918531 89.420 178.0269
868.164348 89.364 178.2044
874.455424 89.312 178.4337
880.792089 89.266 178.7106
887.174671 89.226 179.0265
893.603505 89.195 179.3698
900.078924 89.172 179.7271
906.601267 89.159 -179.9153
913.170874 89.155 -179.5691
919.788086 89.159 -179.2440
926.453250 89.170 -178.9462
933.166712 89.187 -178.6794
939.928823 89.208 -178.4446
946.739934 89.234 -178.2411
953.600402 89.263 -178.0675
960.510584 89.294 -177.9217
967.470839 89.328 -177.8011
974.481532 89.364 -177.7036
981.543027 89.401 -177.6263
988.655692 89.440 -177.5673
995.819899 89.480 -177.5244
1003.036020 89.522 -177.4954
1010.304433 89.564 -177.4785
1017.625515 89.608 -177.4719
1024.999649 89.653 -177.4734
1032.427219 89.698 -177.4814
1039.908612 89.744 -177.4942
1047.444219 89.791 -177.5106
1055.034432 89.838 -177.5300
1062.679646 89.887 -177.5525
1070.380261 89.936 -177.5784
1078.136677 89.985 -177.6086
1085.949300 90.035 -177.6441
1093.818536 90.086 -177.6855
1101.744796 90.136 -177.7332
1109.728493 90.185 -177.7869
1117.770043 90.234 -177.8458
1125.869866 90.282 -177.9086
1134.028383 90.329 -177.9741
1142.246020 90.374 -178.0414
1150.523206 90.419 -178.1104
1158.860371 90.463 -178.1812
1167.257951 90.506 -178.2546
1175.716383 90.548 -178.3309
1184.236109 90.588 -178.4103
1192.817572 90.628 -178.4921
1201.461220 90.666 -178.5748
1210.167503 90.703 -178.6567
1218.936876 90.739 -178.7360
1227.769795 90.774 -178.8113
1236.666721 90.808 -178.8823
1245.628118 90.842 -178.9498
1254.654453 90.877 -179.0150
1263.746196 90.911 -179.0796
1272.903822 90.945 -179.1450
1282.127808 90.979 -179.2120
1291.418634 91.013 -179.2807
1300.776786 91.046 -179.3508
1310.202751 91.079 -179.4219
1319.697020 91.110 -179.4935
1329.260089 91.141 -179.5654
1338.892455 91.171 -179.6372
1348.594622 91.200 -179.7081
1358.367094 91.227 -179.7771
1368.210382 91.254 -179.8424
1378.124999 91.280 -179.9022
1388.111461 91.306 -179.9554
1398.170288 91.331 179.9987
1408.302007 91.357 179.9596
1418.507144 91.383 179.9272
1428.786231 91.410 179.9014
1439.139805 91.438 179.8829
1449.568405 91.466 179.8727
1460.072576 91.494 179.8726
1470.652863 91.524 179.8840
1481.309820 91.555 179.9085
1492.044002 91.586 179.9468
1502.855968 91.619 179.9987
1513.746282 91.653 -179.9376
1524.715511 91.688 -179.8649
1535.764228 91.723 -179.7862
1546.893009 91.758 -179.7040
1558.102433 91.792 -179.6194
1569.393086 91.825 -179.5319
1580.765555 91.855 -179.4402
1592.220434 91.883 -179.3428
1603.758320 91.909 -179.2383
1615.379813 91.932 -179.1263
1627.085521 91.952 -179.0073
1638.876054 91.970 -178.8823
1650.752025 91.985 -178.7529
1662.714055 91.997 -178.6209
1674.762766 92.006 -178.4872
1686.898788 92.011 -178.3516
1699.122752 92.014 -178.2128
1711.435296 92.013 -178.0682
1723.837061 92.009 -177.9147
1736.328695 92.003 -177.7498
1748.910849 91.995 -177.5717
1761.584178 91.987 -177.3804
1774.349343 91.978 -177.1775
1787.207010 91.970 -176.9660
1800.157848 91.962 -176.7499
1813.202534 91.955 -176.5336
1826.341747 91.949 -176.3218
1839.576172 91.943 -176.1184
1852.906500 91.936 -175.9264
1866.333424 91.927 -175.7471
1879.857645 91.916 -175.5801
1893.479869 91.901 -175.4224
1907.200804 91.882 -175.2700
1921.021168 91.858 -175.1175
1934.941679 91.830 -174.9598
1948.963064 91.797 -174.7919
1963.086054 91.760 -174.6097
1977.311384 91.720 -174.4104
1991.639798 91.677 -174.1927
2006.072041 91.631 -173.9570
2020.608866 91.585 -173.7047
2035.251031 91.538 -173.4388
2049.999299 91.491 -173.1630
2064.854438 91.444 -172.8807
2079.817225 91.397 -172.5951
2094.888438 91.351 -172.3088
2110.068863 91.306 -172.0230
2125.359292 91.261 -171.7380
2140.760521 91.216 -171.4522
2156.273355 91.171 -171.1631
2171.898600 91.126 -170.8672
2187.637073 91.082 -170.5611
2203.489593 91.040 -170.2422
2219.456987 91.000 -169.9091
2235.540087 90.963 -169.5619
2251.739732 90.929 -169.2020
2268.056766 90.900 -168.8322
2284.492041 90.876 -168.4562
2301.046412 90.857 -168.0786
2317.720742 90.845 -167.7040
2334.515902 90.838 -167.3372
2351.432767 90.838 -166.9828
2368.472218 90.843 -166.6451
2385.635144 90.855 -166.3281
2402.922440 90.871 -166.0349
2420.335006 90.892 -165.7675
2437.873752 90.918 -165.5262
2455.539590 90.947 -165.3106
2473.333442 90.979 -165.1188
2491.256235 91.014 -164.9483
2509.308905 91.052 -164.7960
2527.492392 91.092 -164.6581
2545.807644 91.136 -164.5315
2564.255615 91.181 -164.4133
2582.837268 91.231 -164.3016
2601.553572 91.283 -164.1955
2620.405502 91.339 -164.0942
2639.394040 91.399 -163.9977
2658.520177 91.463 -163.9059
2677.784910 91.531 -163.8195
2697.189244 91.602 -163.7396
2716.734189 91.678 -163.6672
2736.420765 91.758 -163.6033
2756.249998 91.841 -163.5493
2776.222921 91.927 -163.5067
2796.340577 92.017 -163.4772
2816.604013 92.109 -163.4628
2837.014287 92.203 -163.4648
2857.572462 92.298 -163.4837
2878.279610 92.394 -163.5196
2899.136811 92.491 -163.5723
2920.145151 92.586 -163.6412
2941.305727 92.681 -163.7264
2962.619641 92.774 -163.8279
2984.088004 92.864 -163.9456
3005.711935 92.952 -164.0792
3027.492563 93.035 -164.2277
3049.431022 93.114 -164.3897
3071.528457 93.187 -164.5638
3093.786018 93.255 -164.7487
3116.204867 93.316 -164.9429
3138.786172 93.371 -165.1454
3161.531110 93.419 -165.3549
3184.440868 93.458 -165.5699
3207.516639 93.490 -165.7888
3230.759627 93.514 -166.0097
3254.171043 93.530 -166.2307
3277.752108 93.537 -166.4501
3301.504051 93.537 -166.6669
3325.428110 93.529 -166.8804
3349.525533 93.513 -167.0897
3373.797576 93.489 -167.2944
3398.245504 93.459 -167.4934
3422.870591 93.422 -167.6848
3447.674123 93.378 -167.8667
3472.657391 93.328 -168.0367
3497.821698 93.273 -168.1929
3523.168356 93.214 -168.3334
3548.698686 93.151 -168.4568
3574.414019 93.086 -168.5628
3600.315697 93.020 -168.6511
3626.405068 92.953 -168.7222
3652.683494 92.886 -168.7765
3679.152345 92.821 -168.8145
3705.812999 92.757 -168.8361
3732.666848 92.697 -168.8410
3759.715291 92.640 -168.8285
3786.959737 92.586 -168.7974
3814.401609 92.537 -168.7462
3842.042335 92.494 -168.6735
3869.883358 92.456 -168.5776
3897.926128 92.426 -168.4576
3926.172107 92.402 -168.3126
3954.622769 92.386 -168.1427
3983.279596 92.379 -167.9483
4012.144082 92.380 -167.7303
4041.217732 92.390 -167.4899
4070.502061 92.410 -167.2284
4099.998597 92.440 -166.9481
4129.708877 92.479 -166.6519
4159.634450 92.528 -166.3440
4189.776876 92.587 -166.0301
4220.137726 92.657 -165.7175
4250.718584 92.736 -165.4150
4281.521043 92.824 -165.1327
4312.546709 92.922 -164.8817
4343.797200 93.027 -164.6736
4375.274146 93.139 -164.5197
4406.979186 93.256 -164.4304
4438.913974 93.377 -164.4156
4471.080174 93.500 -164.4832
4503.479464 93.623 -164.6400
4536.113533 93.746 -164.8907
4568.984081 93.865 -165.2382
4602.092823 93.979 -165.6835
4635.441485 94.088 -166.2252
4669.031805 94.189 -166.8608
4702.865534 94.281 -167.5860
4736.944436 94.363 -168.3958
4771.270288 94.436 -169.2845
4805.844880 94.497 -170.2464
4840.670013 94.548 -171.2756
4875.747503 94.586 -172.3665
4911.079179 94.613 -173.5132
4946.666884 94.626 -174.7100
4982.512471 94.627 -175.9505
5018.617810 94.614 -177.2278
5054.984784 94.586 -178.5338
5091.615287 94.543 -179.8589
5128.511230 94.484 178.8077
5165.674537 94.409 177.4788
5203.107144 94.315 176.1692
5240.811003 94.204 174.8956
5278.788080 94.075 173.6768
5317.040355 93.929 172.5328
5355.569821 93.765 171.4847
5394.378487 93.587 170.5536
5433.468378 93.396 169.7599
5472.841529 93.195 169.1213
5512.499995 92.989 168.6523
5552.445842 92.780 168.3618
5592.681154 92.575 168.2524
5633.208027 92.378 168.3196
5674.028574 92.193 168.5505
5715.144924 92.025 168.9249
5756.559221 91.878 169.4155
5798.273622 91.752 169.9902
5840.290302 91.649 170.6140
5882.611454 91.569 171.2519
5925.239281 91.507 171.8725
5968.176007 91.462 172.4500
6011.423871 91.429 172.9663
6054.985126 91.403 173.4120
6098.862045 91.380 173.7858
6143.056913 91.356 174.0939
6187.572036 91.328 174.3480
6232.409733 91.293 174.5641
6277.572344 91.248 174.7607
6323.062220 91.194 174.9576
6368.881736 91.130 175.1749
6415.033278 91.056 175.4313
6461.519254 90.973 175.7437
6508.342086 90.885 176.1261
6555.504216 90.793 176.5884
6603.008102 90.700 177.1360
6650.856220 90.610 177.7689
6699.051066 90.526 178.4810
6747.595151 90.451 179.2598
6796.491007 90.390 -179.9136
6845.741183 90.345 -179.0641
6895.348246 90.319 -178.2218
6945.314781 90.312 -177.4203
6995.643395 90.325 -176.6952
7046.336711 90.359 -176.0818
7097.397372 90.410 -175.6135
7148.828039 90.476 -175.3198
7200.631394 90.554 -175.2250
7252.810137 90.638 -175.3471
7305.366989 90.725 -175.6982
7358.304690 90.809 -176.2844
7411.625999 90.885 -177.1062
7465.333696 90.947 -178.1595
7519.430581 90.991 -179.4355
7573.919475 91.010 179.0793
7628.803218 90.999 177.4031
7684.084670 90.954 175.5594
7739.766716 90.868 173.5786
7795.852256 90.737 171.4985
7852.344215 90.556 169.3668
7909.245538 90.320 167.2429
7966.559191 90.026 165.2007
8024.288163 89.672 163.3328
8082.435463 89.255 161.7555
8141.004122 88.779 160.6165
8199.997194 88.246 160.1047
8259.417754 87.668 160.4631
8319.268900 87.057 161.9987
8379.553752 86.436 165.0779
8440.275452 85.834 170.0676
8501.437168 85.289 177.1609
8563.042086 84.840 -173.9333
8625.093419 84.523 -164.1932
8687.594401 84.361 -154.9611
8750.548291 84.356 -147.2378
8813.958371 84.490 -141.3451
8877.827947 84.734 -137.1227
8942.160348 85.055 -134.2384
9006.958928 85.423 -132.3647
9072.227065 85.816 -131.2390
9137.968162 86.219 -130.6672
9204.185647 86.622 -130.5132
9270.882970 87.019 -130.6838
9338.063610 87.408 -131.1179
9405.731068 87.788 -131.7776
9473.888873 88.157 -132.6416
9542.540577 88.517 -133.7000
9611.689759 88.865 -134.9507
9681.340025 89.201 -136.3964
9751.495006 89.523 -138.0419
9822.158359 89.829 -139.8920
9893.333767 90.115 -141.9501
9965.024942 90.378 -144.2160
10037.235620 90.615 -146.6859
10109.969567 90.820 -149.3508
10183.230574 90.991 -152.1968
10257.022461 91.124 -155.2048
10331.349074 91.214 -158.3514
10406.214288 91.261 -161.6091
10481.622007 91.261 -164.9481
10557.576160 91.215 -168.3368
10634.080709 91.122 -171.7440
10711.139642 90.983 -175.1398
10788.756975 90.799 -178.4967
10866.936755 90.573 178.2092
10945.683059 90.307 174.9983
11024.999990 90.004 171.8872
11104.891685 89.668 168.8894
11185.362308 89.300 166.0163
11266.416054 88.903 163.2780
11348.057149 88.480 160.6849
11430.289849 88.033 158.2489
11513.118441 87.564 155.9830
11596.547243 87.077 153.9014
11680.580605 86.574 152.0165
11765.222907 86.061 150.3356
11850.478562 85.545 148.8557
11936.352015 85.035 147.5577
12022.847742 84.543 146.4032
12109.970253 84.080 145.3332
12197.724089 83.657 144.2710
12286.113826 83.285 143.1286
12375.144072 82.969 141.8149
12464.819467 82.713 140.2437
12555.144687 82.513 138.3405
12646.124441 82.363 136.0463
12737.763472 82.251 133.3200
12830.066557 82.165 130.1379
12923.038508 82.091 126.4924
13016.684172 82.016 122.3900
13111.008431 81.930 117.8472
13206.016203 81.825 112.8860
13301.712440 81.697 107.5289
13398.102132 81.544 101.7947
13495.190303 81.365 95.6961
13592.982015 81.162 89.2397
13691.482366 80.936 82.4279
13790.696491 80.685 75.2635
13890.629563 80.408 67.7544
13991.286791 80.101 59.9188
14092.673422 79.759 51.7894
14194.794743 79.378 43.4156
14297.656077 78.954 34.8630
14401.262787 78.484 26.2118
14505.620274 77.968 17.5529
14610.733978 77.407 8.9846
14716.609379 76.805 0.6082
14823.251997 76.168 -7.4759
14930.667392 75.504 -15.1733
15038.861162 74.825 -22.4011
15147.838950 74.146 -29.0952
15257.606435 73.488 -35.2188
15368.169341 72.880 -40.7718
15479.533431 72.354 -45.7997
15591.704511 71.945 -50.3990
15704.688430 71.681 -54.7131
15818.491076 71.575 -58.9186
15933.118383 71.618 -63.2014
16048.576327 71.781 -67.7286
16164.870926 72.023 -72.6255
16282.008245 72.303 -77.9625
16399.994388 72.584 -83.7560
16518.835508 72.841 -89.9795
16638.537799 73.055 -96.5780
16759.107503 73.219 -103.4850
16880.550905 73.332 -110.6322
17002.874335 73.396 -117.9581
17126.084171 73.422 -125.4105
17250.186837 73.421 -132.9501
17375.188802 73.411 -140.5505
17501.096582 73.410 -148.2008
17627.916743 73.438 -155.9086
17755.655894 73.515 -163.7031
17884.320696 73.655 -171.6396
18013.917856 73.859 -179.8038
18144.454131 74.122 171.6903
18275.936325 74.424 162.7034
18408.371293 74.741 153.0791
18541.765940 75.044 142.6555
18676.127219 75.310 131.2737
18811.462136 75.518 118.7957
18947.777745 75.656 105.1501
19085.081153 75.720 90.4365
19223.379519 75.714 75.0967
19362.680051 75.650 60.0341
19502.990012 75.550 46.4727
19644.316718 75.438 35.5533
19786.667534 75.343 28.0153
19930.049884 75.288 24.1952
