* Measurement data measured by REW V5.31.3
* Source: EXCL: Headset (USB-C to 3.5mm Headphone Jack Adapter), MICROPHONE (Master Volume), 0, volume: 0.750
* Format: 256k Log Swept Sine, 1 sweep at -12.0 dBFS with no timing reference
* Dated: Apr 7, 2025 12:22:15 PM
* REW Settings:
*  C-weighting compensation: Off
*  Target level: 75.0 dB
* Note: ; 
* Measurement: HD6XX R10
* Smoothing: 1/6 octave
* Frequency Step: 96 ppo
* Start Frequency: 20.0 Hz
*
* Freq(Hz) SPL(dB) Phase(degrees)
20.187378 78.943 -97.6473
20.333664 78.973 -97.7824
20.481010 79.014 -97.9605
20.629424 79.067 -98.1731
20.778913 79.130 -98.4107
20.929486 79.204 -98.6639
21.081150 79.289 -98.9241
21.233912 79.382 -99.1836
21.387782 79.484 -99.4363
21.542767 79.594 -99.6774
21.698874 79.711 -99.9037
21.856113 79.833 -100.1137
22.014492 79.959 -100.3077
22.174018 80.088 -100.4876
22.334700 80.218 -100.6571
22.496546 80.347 -100.8214
22.659566 80.474 -100.9871
22.823766 80.598 -101.1614
22.989157 80.717 -101.3519
23.155745 80.829 -101.5659
23.323542 80.934 -101.8095
23.492554 81.030 -102.0871
23.662790 81.116 -102.4011
23.834261 81.192 -102.7511
24.006973 81.257 -103.1344
24.180938 81.312 -103.5457
24.356163 81.357 -103.9780
24.532658 81.394 -104.4228
24.710431 81.423 -104.8713
24.889493 81.447 -105.3147
25.069853 81.467 -105.7455
25.251519 81.485 -106.1576
25.434502 81.503 -106.5471
25.618811 81.522 -106.9120
25.804456 81.542 -107.2522
25.991445 81.565 -107.5691
26.179790 81.589 -107.8649
26.369500 81.615 -108.1423
26.560584 81.642 -108.4044
26.753053 81.670 -108.6539
26.946917 81.697 -108.8940
27.142185 81.723 -109.1282
27.338869 81.750 -109.3606
27.536977 81.776 -109.5965
27.736522 81.803 -109.8421
27.937512 81.831 -110.1040
28.139959 81.861 -110.3893
28.343872 81.893 -110.7040
28.549264 81.928 -111.0524
28.756143 81.965 -111.4364
28.964522 82.004 -111.8543
29.174411 82.046 -112.3016
29.385821 82.090 -112.7702
29.598763 82.135 -113.2503
29.813248 82.181 -113.7307
30.029287 82.229 -114.2007
30.246891 82.277 -114.6505
30.466073 82.328 -115.0731
30.686842 82.380 -115.4642
30.909212 82.434 -115.8227
31.133193 82.491 -116.1502
31.358797 82.549 -116.4509
31.586035 82.610 -116.7308
31.814921 82.674 -116.9969
32.045465 82.740 -117.2565
32.277680 82.809 -117.5168
32.511577 82.882 -117.7841
32.747169 82.958 -118.0635
32.984469 83.038 -118.3587
33.223488 83.122 -118.6712
33.464239 83.210 -119.0009
33.706735 83.301 -119.3457
33.950987 83.394 -119.7019
34.197010 83.491 -120.0648
34.444816 83.589 -120.4293
34.694417 83.688 -120.7905
34.945827 83.789 -121.1448
35.199059 83.889 -121.4896
35.454126 83.989 -121.8247
35.711041 84.089 -122.1514
35.969818 84.189 -122.4729
36.230470 84.288 -122.7936
36.493011 84.387 -123.1186
36.757455 84.484 -123.4527
37.023814 84.581 -123.7996
37.292104 84.677 -124.1610
37.562338 84.770 -124.5368
37.834530 84.861 -124.9239
38.108695 84.949 -125.3178
38.384846 85.033 -125.7128
38.662999 85.113 -126.1032
38.943167 85.189 -126.4846
39.225365 85.261 -126.8544
39.509608 85.329 -127.2122
39.795911 85.394 -127.5592
40.084289 85.455 -127.8980
40.374756 85.513 -128.2313
40.667328 85.569 -128.5616
40.962020 85.623 -128.8902
41.258848 85.675 -129.2178
41.557827 85.728 -129.5447
41.858972 85.781 -129.8705
42.162299 85.834 -130.1953
42.467824 85.887 -130.5191
42.775564 85.941 -130.8418
43.085533 85.993 -131.1636
43.397749 86.043 -131.4843
43.712227 86.091 -131.8035
44.028983 86.135 -132.1202
44.348036 86.174 -132.4331
44.669400 86.210 -132.7403
44.993093 86.241 -133.0397
45.319131 86.269 -133.3292
45.647532 86.294 -133.6079
45.978313 86.318 -133.8764
46.311491 86.341 -134.1376
46.647083 86.364 -134.3965
46.985107 86.388 -134.6590
47.325581 86.412 -134.9309
47.668521 86.435 -135.2159
48.013947 86.458 -135.5151
48.361876 86.478 -135.8263
48.712326 86.497 -136.1450
49.065315 86.515 -136.4652
49.420863 86.532 -136.7805
49.778987 86.550 -137.0858
50.139706 86.567 -137.3775
50.503039 86.586 -137.6543
50.869005 86.606 -137.9172
51.237623 86.626 -138.1691
51.608912 86.646 -138.4143
51.982891 86.665 -138.6575
52.359580 86.682 -138.9033
52.739000 86.697 -139.1550
53.121168 86.708 -139.4146
53.506106 86.717 -139.6832
53.893833 86.724 -139.9601
54.284370 86.730 -140.2440
54.677737 86.734 -140.5326
55.073955 86.738 -140.8231
55.473043 86.743 -141.1122
55.875024 86.747 -141.3970
56.279917 86.752 -141.6750
56.687745 86.756 -141.9453
57.098527 86.762 -142.2085
57.512287 86.768 -142.4668
57.929045 86.775 -142.7233
58.348822 86.784 -142.9814
58.771642 86.797 -143.2451
59.197525 86.816 -143.5180
59.626495 86.842 -143.8039
60.058573 86.877 -144.1062
60.493782 86.920 -144.4268
60.932145 86.970 -144.7652
61.373685 87.027 -145.1188
61.818424 87.089 -145.4828
62.266386 87.153 -145.8520
62.717593 87.219 -146.2219
63.172071 87.285 -146.5897
63.629842 87.351 -146.9538
64.090930 87.417 -147.3135
64.555359 87.483 -147.6682
65.023154 87.548 -148.0170
65.494339 87.612 -148.3594
65.968938 87.674 -148.6948
66.446976 87.736 -149.0236
66.928478 87.795 -149.3465
67.413469 87.853 -149.6648
67.901975 87.908 -149.9799
68.394021 87.961 -150.2927
68.889632 88.011 -150.6037
69.388835 88.058 -150.9132
69.891655 88.102 -151.2215
70.398118 88.142 -151.5292
70.908252 88.180 -151.8371
71.422083 88.213 -152.1464
71.939636 88.244 -152.4581
72.460941 88.271 -152.7727
72.986023 88.296 -153.0906
73.514909 88.317 -153.4113
74.047629 88.336 -153.7344
74.584208 88.353 -154.0593
75.124676 88.367 -154.3853
75.669061 88.380 -154.7123
76.217390 88.391 -155.0397
76.769692 88.401 -155.3671
77.325997 88.409 -155.6938
77.886333 88.417 -156.0193
78.450730 88.423 -156.3430
79.019216 88.429 -156.6647
79.591822 88.433 -156.9843
80.168577 88.437 -157.3022
80.749512 88.440 -157.6188
81.334656 88.442 -157.9344
81.924040 88.444 -158.2493
82.517696 88.445 -158.5636
83.115653 88.447 -158.8773
83.717943 88.448 -159.1901
84.324598 88.450 -159.5022
84.935649 88.451 -159.8137
85.551128 88.452 -160.1251
86.171066 88.453 -160.4367
86.795497 88.453 -160.7489
87.424453 88.454 -161.0616
88.057967 88.453 -161.3744
88.696071 88.453 -161.6866
89.338800 88.451 -161.9972
89.986185 88.449 -162.3052
90.638262 88.446 -162.6094
91.295065 88.443 -162.9093
91.956626 88.439 -163.2046
92.622982 88.435 -163.4958
93.294166 88.430 -163.7837
93.970214 88.425 -164.0695
94.651161 88.420 -164.3544
95.337042 88.415 -164.6390
96.027894 88.410 -164.9241
96.723752 88.406 -165.2096
97.424652 88.402 -165.4956
98.130631 88.398 -165.7819
98.841726 88.395 -166.0684
99.557974 88.392 -166.3550
100.279412 88.390 -166.6416
101.006078 88.388 -166.9282
101.738010 88.388 -167.2145
102.475245 88.387 -167.5001
103.217823 88.388 -167.7844
103.965782 88.389 -168.0666
104.719161 88.391 -168.3457
105.477999 88.393 -168.6212
106.242336 88.395 -168.8928
107.012212 88.397 -169.1610
107.787666 88.400 -169.4267
108.568740 88.403 -169.6911
109.355474 88.407 -169.9547
110.147909 88.412 -170.2180
110.946086 88.417 -170.4809
111.750047 88.424 -170.7434
112.559834 88.430 -171.0055
113.375489 88.437 -171.2669
114.197055 88.445 -171.5276
115.024574 88.452 -171.7872
115.858089 88.459 -172.0454
116.697645 88.467 -172.3018
117.543284 88.474 -172.5561
118.395051 88.482 -172.8084
119.252990 88.490 -173.0590
120.117147 88.499 -173.3082
120.987565 88.507 -173.5571
121.864291 88.515 -173.8063
122.747370 88.522 -174.0565
123.636848 88.529 -174.3078
124.532771 88.535 -174.5597
125.435187 88.540 -174.8114
126.344142 88.545 -175.0619
127.259684 88.548 -175.3103
128.181860 88.551 -175.5560
129.110718 88.553 -175.7991
130.046308 88.554 -176.0398
130.988677 88.554 -176.2787
131.937875 88.553 -176.5161
132.893951 88.551 -176.7521
133.856956 88.547 -176.9864
134.826938 88.541 -177.2184
135.803950 88.533 -177.4475
136.788041 88.524 -177.6736
137.779264 88.514 -177.8967
138.777669 88.502 -178.1172
139.783309 88.489 -178.3359
140.796237 88.474 -178.5530
141.816504 88.459 -178.7691
142.844165 88.443 -178.9842
143.879273 88.425 -179.1985
144.921881 88.407 -179.4121
145.972045 88.387 -179.6247
147.029819 88.367 -179.8364
148.095257 88.347 179.9528
149.168417 88.325 179.7426
150.249353 88.303 179.5324
151.338121 88.281 179.3220
152.434780 88.259 179.1109
153.539385 88.236 178.8992
154.651995 88.213 178.6873
155.772667 88.190 178.4757
156.901460 88.167 178.2648
158.038432 88.144 178.0551
159.183644 88.122 177.8470
160.337154 88.099 177.6411
161.499023 88.077 177.4378
162.669312 88.055 177.2376
163.848081 88.033 177.0408
165.035392 88.012 176.8477
166.231306 87.992 176.6581
167.435887 87.971 176.4717
168.649196 87.951 176.2879
169.871298 87.930 176.1059
171.102255 87.910 175.9250
172.342133 87.888 175.7449
173.590995 87.867 175.5655
174.848907 87.844 175.3875
176.115934 87.822 175.2113
177.392143 87.798 175.0378
178.677599 87.775 174.8670
179.972371 87.751 174.6990
181.276525 87.726 174.5331
182.590129 87.701 174.3690
183.913252 87.675 174.2058
185.245964 87.649 174.0432
186.588332 87.622 173.8809
187.940428 87.595 173.7188
189.302322 87.567 173.5574
190.674085 87.539 173.3972
192.055788 87.510 173.2390
193.447503 87.481 173.0836
194.849303 87.451 172.9319
196.261262 87.421 172.7841
197.683452 87.391 172.6407
199.115948 87.360 172.5018
200.558824 87.329 172.3679
202.012156 87.297 172.2390
203.476019 87.266 172.1150
204.950490 87.235 171.9954
206.435646 87.204 171.8794
207.931564 87.173 171.7660
209.438322 87.143 171.6547
210.955998 87.113 171.5455
212.484672 87.085 171.4390
214.024424 87.057 171.3361
215.575333 87.030 171.2377
217.137481 87.004 171.1446
218.710948 86.979 171.0571
220.295818 86.955 170.9753
221.892172 86.932 170.8985
223.500094 86.910 170.8258
225.119668 86.889 170.7558
226.750978 86.869 170.6870
228.394109 86.849 170.6180
230.049147 86.832 170.5477
231.716178 86.815 170.4750
233.395289 86.800 170.3996
235.086567 86.787 170.3213
236.790102 86.776 170.2404
238.505980 86.768 170.1574
240.234293 86.761 170.0728
241.975130 86.756 169.9870
243.728581 86.753 169.9006
245.494739 86.751 169.8145
247.273695 86.749 169.7293
249.065542 86.747 169.6460
250.870374 86.744 169.5649
252.688284 86.740 169.4858
254.519367 86.735 169.4081
256.363720 86.730 169.3309
258.221437 86.723 169.2527
260.092616 86.716 169.1725
261.977354 86.708 169.0892
263.875750 86.700 169.0030
265.787903 86.693 168.9148
267.713911 86.685 168.8264
269.653877 86.678 168.7403
271.607900 86.671 168.6586
273.576083 86.664 168.5830
275.558528 86.658 168.5139
277.555338 86.651 168.4511
279.566619 86.644 168.3938
281.592474 86.638 168.3410
283.633009 86.631 168.2919
285.688331 86.625 168.2461
287.758546 86.620 168.2027
289.843763 86.615 168.1612
291.944090 86.610 168.1209
294.059638 86.606 168.0811
296.190515 86.602 168.0416
298.336833 86.599 168.0019
300.498705 86.597 167.9622
302.676243 86.594 167.9227
304.869559 86.592 167.8838
307.078770 86.590 167.8459
309.303989 86.589 167.8094
311.545334 86.587 167.7742
313.802919 86.585 167.7405
316.076865 86.584 167.7081
318.367288 86.582 167.6770
320.674309 86.581 167.6469
322.998047 86.579 167.6176
325.338624 86.578 167.5891
327.696162 86.576 167.5612
330.070783 86.574 167.5342
332.462612 86.573 167.5081
334.871773 86.570 167.4832
337.298392 86.567 167.4599
339.742595 86.563 167.4382
342.204510 86.559 167.4182
344.684265 86.553 167.3996
347.181989 86.546 167.3822
349.697813 86.538 167.3659
352.231868 86.529 167.3510
354.784285 86.519 167.3380
357.355198 86.508 167.3281
359.944741 86.496 167.3226
362.553049 86.482 167.3228
365.180258 86.469 167.3297
367.826505 86.454 167.3434
370.491927 86.439 167.3635
373.176665 86.424 167.3889
375.880856 86.408 167.4178
378.604644 86.392 167.4485
381.348169 86.375 167.4788
384.111575 86.358 167.5072
386.895006 86.340 167.5327
389.698607 86.321 167.5548
392.522524 86.302 167.5736
395.366904 86.282 167.5895
398.231895 86.262 167.6033
401.117648 86.241 167.6157
404.024312 86.220 167.6277
406.952038 86.198 167.6400
409.900981 86.176 167.6533
412.871292 86.153 167.6677
415.863128 86.129 167.6835
418.876643 86.105 167.7010
421.911996 86.079 167.7205
424.969344 86.053 167.7420
428.048847 86.025 167.7654
431.150666 85.995 167.7903
434.274961 85.965 167.8166
437.421897 85.932 167.8438
440.591636 85.898 167.8719
443.784345 85.863 167.9010
447.000189 85.827 167.9314
450.239337 85.789 167.9634
453.501956 85.751 167.9973
456.788219 85.712 168.0338
460.098294 85.673 168.0731
463.432356 85.635 168.1156
466.790578 85.598 168.1613
470.173135 85.561 168.2097
473.580203 85.525 168.2601
477.011961 85.491 168.3115
480.468586 85.457 168.3629
483.950259 85.425 168.4135
487.457163 85.393 168.4629
490.989478 85.363 168.5109
494.547390 85.334 168.5575
498.131084 85.306 168.6030
501.740748 85.280 168.6475
505.376568 85.254 168.6912
509.038735 85.231 168.7341
512.727439 85.208 168.7761
516.442874 85.188 168.8173
520.185232 85.169 168.8575
523.954708 85.152 168.8969
527.751500 85.138 168.9358
531.575805 85.125 168.9746
535.427822 85.114 169.0138
539.307753 85.105 169.0540
543.215800 85.098 169.0957
547.152165 85.093 169.1395
551.117055 85.089 169.1859
555.110677 85.086 169.2352
559.133237 85.085 169.2880
563.184947 85.084 169.3448
567.266018 85.084 169.4061
571.376661 85.085 169.4727
575.517092 85.087 169.5451
579.687526 85.090 169.6240
583.888181 85.094 169.7099
588.119275 85.099 169.8031
592.381030 85.105 169.9033
596.673667 85.112 170.0096
600.997410 85.119 170.1205
605.352485 85.127 170.2340
609.739119 85.135 170.3480
614.157540 85.142 170.4604
618.607979 85.149 170.5704
623.090667 85.154 170.6773
627.605839 85.158 170.7814
632.153730 85.161 170.8833
636.734576 85.163 170.9834
641.348617 85.164 171.0822
645.996094 85.164 171.1799
650.677248 85.164 171.2764
655.392323 85.162 171.3716
660.141566 85.160 171.4652
664.925224 85.157 171.5571
669.743546 85.154 171.6470
674.596784 85.150 171.7347
679.485191 85.145 171.8204
684.409020 85.140 171.9041
689.368530 85.134 171.9855
694.363979 85.127 172.0647
699.395626 85.119 172.1415
704.463736 85.110 172.2160
709.568570 85.100 172.2883
714.710396 85.089 172.3584
719.889483 85.077 172.4266
725.106099 85.064 172.4929
730.360516 85.050 172.5573
735.653010 85.035 172.6194
740.983855 85.019 172.6788
746.353329 85.002 172.7350
751.761713 84.984 172.7871
757.209288 84.965 172.8346
762.696339 84.945 172.8766
768.223151 84.924 172.9124
773.790013 84.902 172.9412
779.397214 84.879 172.9624
785.045047 84.854 172.9750
790.733808 84.828 172.9781
796.463791 84.801 172.9710
802.235296 84.771 172.9528
808.048623 84.740 172.9230
813.904077 84.708 172.8820
819.801961 84.672 172.8307
825.742584 84.634 172.7709
831.726255 84.593 172.7061
837.753287 84.549 172.6404
843.823992 84.501 172.5798
849.938689 84.449 172.5309
856.097695 84.392 172.5017
862.301332 84.332 172.5007
868.549922 84.268 172.5367
874.843793 84.202 172.6181
881.183272 84.135 172.7522
887.568689 84.068 172.9438
894.000378 84.003 173.1951
900.478673 83.942 173.5043
907.003913 83.888 173.8662
913.576437 83.842 174.2720
920.196588 83.805 174.7101
926.864712 83.778 175.1677
933.581156 83.762 175.6319
940.346270 83.757 176.0908
947.160407 83.761 176.5344
954.023921 83.774 176.9554
960.937172 83.795 177.3485
967.900519 83.822 177.7109
974.914325 83.854 178.0416
981.978956 83.891 178.3410
989.094780 83.932 178.6105
996.262169 83.976 178.8524
1003.481495 84.022 179.0694
1010.753136 84.071 179.2642
1018.077470 84.122 179.4395
1025.454879 84.175 179.5978
1032.885748 84.229 179.7412
1040.370463 84.285 179.8714
1047.909417 84.341 179.9897
1055.503000 84.399 -179.9028
1063.151610 84.458 -179.8049
1070.855645 84.517 -179.7154
1078.615506 84.576 -179.6333
1086.431599 84.636 -179.5576
1094.304330 84.696 -179.4876
1102.234110 84.756 -179.4226
1110.221353 84.816 -179.3621
1118.266475 84.876 -179.3057
1126.369895 84.936 -179.2531
1134.532035 84.996 -179.2043
1142.753322 85.055 -179.1593
1151.034184 85.114 -179.1185
1159.375052 85.173 -179.0822
1167.776361 85.231 -179.0512
1176.238550 85.289 -179.0259
1184.762060 85.346 -179.0069
1193.347334 85.403 -178.9942
1201.994821 85.458 -178.9877
1210.704971 85.513 -178.9868
1219.478238 85.567 -178.9910
1228.315080 85.620 -178.9992
1237.215957 85.672 -179.0102
1246.181334 85.722 -179.0227
1255.211678 85.772 -179.0352
1264.307459 85.821 -179.0465
1273.469152 85.870 -179.0557
1282.697235 85.918 -179.0621
1291.992188 85.965 -179.0653
1301.354495 86.013 -179.0649
1310.784647 86.060 -179.0609
1320.283132 86.107 -179.0535
1329.850448 86.155 -179.0438
1339.487093 86.202 -179.0329
1349.193569 86.250 -179.0220
1358.970381 86.298 -179.0120
1368.818041 86.346 -179.0032
1378.737061 86.394 -178.9954
1388.727958 86.443 -178.9880
1398.791253 86.491 -178.9798
1408.927471 86.540 -178.9696
1419.137140 86.590 -178.9561
1429.420793 86.640 -178.9385
1439.778965 86.692 -178.9160
1450.212197 86.745 -178.8881
1460.721033 86.799 -178.8546
1471.306019 86.854 -178.8154
1481.967709 86.911 -178.7710
1492.706658 86.968 -178.7219
1503.523426 87.026 -178.6688
1514.418576 87.085 -178.6126
1525.392678 87.144 -178.5537
1536.446302 87.202 -178.4926
1547.580025 87.259 -178.4288
1558.794428 87.314 -178.3620
1570.090095 87.367 -178.2916
1581.467615 87.418 -178.2174
1592.927581 87.467 -178.1395
1604.470591 87.512 -178.0581
1616.097246 87.554 -177.9732
1627.808153 87.592 -177.8842
1639.603922 87.626 -177.7900
1651.485168 87.657 -177.6886
1663.452510 87.683 -177.5780
1675.506573 87.707 -177.4562
1687.647984 87.727 -177.3215
1699.877377 87.745 -177.1730
1712.195390 87.762 -177.0104
1724.602663 87.777 -176.8343
1737.099845 87.791 -176.6455
1749.687587 87.806 -176.4455
1762.366544 87.821 -176.2359
1775.137379 87.836 -176.0186
1788.000756 87.852 -175.7958
1800.957346 87.869 -175.5700
1814.007826 87.887 -175.3444
1827.152874 87.906 -175.1221
1840.393177 87.926 -174.9063
1853.729425 87.945 -174.6991
1867.162312 87.964 -174.5017
1880.692540 87.982 -174.3141
1894.320813 87.999 -174.1356
1908.047843 88.014 -173.9645
1921.874344 88.027 -173.7994
1935.801038 88.038 -173.6388
1949.828650 88.048 -173.4818
1963.957912 88.055 -173.3280
1978.189561 88.061 -173.1778
1992.524338 88.066 -173.0321
2006.962991 88.069 -172.8927
2021.506272 88.072 -172.7616
2036.154940 88.074 -172.6416
2050.909758 88.075 -172.5351
2065.771495 88.077 -172.4449
2080.740927 88.077 -172.3727
2095.818833 88.077 -172.3197
2111.006001 88.076 -172.2858
2126.303220 88.073 -172.2698
2141.711290 88.069 -172.2698
2157.231013 88.064 -172.2832
2172.863198 88.057 -172.3072
2188.608660 88.049 -172.3392
2204.468221 88.040 -172.3770
2220.442706 88.031 -172.4187
2236.532950 88.020 -172.4629
2252.739789 88.010 -172.5083
2269.064070 87.999 -172.5540
2285.506644 87.989 -172.5993
2302.068367 87.980 -172.6438
2318.750104 87.971 -172.6870
2335.552723 87.964 -172.7288
2352.477101 87.958 -172.7690
2369.524119 87.954 -172.8078
2386.694668 87.952 -172.8458
2403.989641 87.953 -172.8842
2421.409941 87.958 -172.9253
2438.956476 87.965 -172.9711
2456.630160 87.976 -173.0240
2474.431915 87.990 -173.0853
2492.362668 88.007 -173.1556
2510.423356 88.027 -173.2342
2528.614918 88.049 -173.3195
2546.938304 88.073 -173.4092
2565.394469 88.100 -173.5002
2583.984375 88.130 -173.5896
2602.708991 88.162 -173.6749
2621.569293 88.198 -173.7545
2640.566265 88.237 -173.8279
2659.700897 88.281 -173.8957
2678.974186 88.329 -173.9597
2698.387137 88.381 -174.0224
2717.940763 88.439 -174.0871
2737.636082 88.501 -174.1573
2757.474121 88.568 -174.2363
2777.455915 88.638 -174.3271
2797.582506 88.712 -174.4316
2817.854942 88.789 -174.5515
2838.274281 88.867 -174.6875
2858.841586 88.947 -174.8401
2879.557931 89.028 -175.0098
2900.424394 89.109 -175.1965
2921.442065 89.189 -175.4003
2942.612039 89.267 -175.6212
2963.935418 89.344 -175.8588
2985.413316 89.417 -176.1124
3007.046852 89.487 -176.3810
3028.837153 89.552 -176.6631
3050.785356 89.612 -176.9570
3072.892604 89.667 -177.2609
3095.160050 89.715 -177.5733
3117.588856 89.756 -177.8929
3140.180190 89.790 -178.2181
3162.935230 89.817 -178.5479
3185.855163 89.836 -178.8805
3208.941182 89.846 -179.2144
3232.194493 89.848 -179.5482
3255.616307 89.842 -179.8805
3279.207844 89.827 179.7896
3302.970336 89.803 179.4630
3326.905021 89.772 179.1409
3351.013146 89.732 178.8243
3375.295969 89.684 178.5145
3399.754755 89.628 178.2125
3424.390779 89.565 177.9195
3449.205326 89.495 177.6366
3474.199690 89.419 177.3653
3499.375173 89.337 177.1075
3524.733088 89.249 176.8653
3550.274757 89.156 176.6411
3576.001511 89.060 176.4370
3601.914692 88.960 176.2549
3628.015651 88.858 176.0961
3654.305748 88.755 175.9617
3680.786354 88.652 175.8524
3707.458849 88.549 175.7689
3734.324624 88.448 175.7117
3761.385080 88.350 175.6817
3788.641627 88.254 175.6794
3816.095686 88.162 175.7054
3843.748688 88.075 175.7603
3871.602076 87.993 175.8448
3899.657300 87.916 175.9600
3927.915825 87.845 176.1069
3956.379122 87.780 176.2867
3985.048676 87.722 176.5010
4013.925981 87.671 176.7510
4043.012544 87.627 177.0381
4072.309879 87.591 177.3628
4101.819515 87.563 177.7252
4131.542990 87.543 178.1242
4161.481854 87.532 178.5572
4191.637667 87.531 179.0199
4222.012001 87.539 179.5066
4252.606441 87.557 -179.9906
4283.422580 87.585 -179.4806
4314.462026 87.622 -178.9740
4345.726396 87.669 -178.4821
4377.217321 87.723 -178.0171
4408.936442 87.785 -177.5909
4440.885413 87.853 -177.2152
4473.065899 87.926 -176.9002
4505.479579 88.002 -176.6546
4538.128141 88.079 -176.4850
4571.013288 88.157 -176.3957
4604.136735 88.233 -176.3889
4637.500207 88.306 -176.4647
4671.105446 88.375 -176.6217
4704.954201 88.438 -176.8570
4739.048239 88.496 -177.1667
4773.389336 88.547 -177.5464
4807.979283 88.590 -177.9912
4842.819883 88.625 -178.4961
4877.912952 88.652 -179.0560
4913.260320 88.671 -179.6657
4948.863830 88.681 179.6798
4984.725337 88.682 178.9854
5020.846712 88.674 178.2562
5057.229836 88.656 177.4977
5093.876609 88.628 176.7159
5130.788938 88.590 175.9181
5167.968750 88.540 175.1127
5205.417982 88.478 174.3099
5243.138586 88.404 173.5215
5281.132530 88.316 172.7610
5319.401793 88.216 172.0437
5357.948371 88.103 171.3854
5396.774274 87.979 170.8029
5435.881525 87.843 170.3121
5475.272163 87.699 169.9278
5514.948243 87.548 169.6625
5554.911831 87.393 169.5256
5595.165012 87.237 169.5232
5635.709884 87.082 169.6575
5676.548561 86.930 169.9268
5717.683172 86.786 170.3260
5759.115861 86.650 170.8462
5800.848789 86.524 171.4758
5842.884130 86.410 172.2008
5885.224077 86.309 173.0064
5927.870837 86.219 173.8780
5970.826633 86.140 174.8028
6014.093704 86.072 175.7708
6057.674306 86.013 176.7758
6101.570711 85.962 177.8156
6145.785208 85.917 178.8924
6190.320101 85.877 -179.9875
6235.177712 85.843 -178.8147
6280.360380 85.815 -177.5776
6325.870460 85.795 -176.2644
6371.710325 85.784 -174.8648
6417.882365 85.785 -173.3720
6464.388986 85.803 -171.7845
6511.232613 85.842 -170.1077
6558.415689 85.906 -168.3550
6605.940673 85.999 -166.5491
6653.810042 86.126 -164.7219
6702.026292 86.289 -162.9143
6750.591937 86.491 -161.1748
6799.509509 86.731 -159.5575
6848.781558 87.008 -158.1183
6898.410653 87.319 -156.9117
6948.399380 87.659 -155.9871
6998.750346 88.021 -155.3857
7049.466176 88.399 -155.1388
7100.549514 88.783 -155.2664
7152.003023 89.168 -155.7778
7203.829385 89.543 -156.6723
7256.031302 89.903 -157.9410
7308.611496 90.241 -159.5681
7361.572708 90.549 -161.5326
7414.917698 90.823 -163.8091
7468.649249 91.057 -166.3692
7522.770160 91.246 -169.1817
7577.283253 91.388 -172.2133
7632.191371 91.478 -175.4290
7687.497376 91.514 -178.7919
7743.204151 91.493 177.7365
7799.314600 91.412 174.1964
7855.831649 91.271 170.6299
7912.758244 91.067 167.0820
7970.097352 90.800 163.6006
8027.851962 90.470 160.2379
8086.025087 90.075 157.0517
8144.619758 89.617 154.1068
8203.639030 89.096 151.4775
8263.085980 88.515 149.2508
8322.963708 87.876 147.5302
8383.275334 87.185 146.4406
8444.024002 86.447 146.1343
8505.212881 85.673 146.7941
8566.845160 84.877 148.6307
8628.924051 84.077 151.8599
8691.452792 83.299 156.6410
8754.434642 82.574 162.9616
8817.872884 81.938 170.4988
8881.770826 81.425 178.5842
8946.131799 81.061 -173.6042
9010.959157 80.860 -166.7267
9076.256282 80.813 -161.1015
9142.026576 80.900 -156.7494
9208.273470 81.091 -153.5333
9275.000415 81.356 -151.2695
9342.210891 81.668 -149.7871
9409.908403 82.006 -148.9468
9478.096478 82.353 -148.6430
9546.778672 82.698 -148.7973
9615.958566 83.032 -149.3525
9685.639765 83.347 -150.2652
9755.825904 83.637 -151.5011
9826.520640 83.899 -153.0305
9897.727659 84.126 -154.8258
9969.450674 84.316 -156.8588
10041.693423 84.463 -159.1001
10114.459673 84.567 -161.5179
10187.753217 84.623 -164.0786
10261.577877 84.630 -166.7469
10335.937500 84.586 -169.4864
10410.835964 84.491 -172.2605
10486.277173 84.346 -175.0331
10562.265060 84.151 -177.7697
10638.803587 83.907 179.5629
10715.896743 83.616 176.9955
10793.548548 83.280 174.5571
10871.763050 82.901 172.2745
10950.544327 82.483 170.1726
11029.896485 82.028 168.2739
11109.823662 81.540 166.5983
11190.330024 81.023 165.1615
11271.419768 80.480 163.9744
11353.097122 79.916 163.0405
11435.366344 79.338 162.3556
11518.231722 78.749 161.9061
11601.697577 78.155 161.6703
11685.768261 77.561 161.6208
11770.448155 76.971 161.7273
11855.741674 76.386 161.9628
11941.653265 75.809 162.3083
12028.187408 75.239 162.7573
12115.348612 74.676 163.3190
12203.141422 74.121 164.0182
12291.570415 73.573 164.8926
12380.640201 73.037 165.9858
12470.355424 72.519 167.3375
12560.720760 72.032 168.9702
12651.740920 71.591 170.8734
12743.420650 71.214 172.9891
12835.764729 70.923 175.2031
12928.777972 70.735 177.3483
13022.465227 70.661 179.2242
13116.831378 70.700 -179.3716
13211.881345 70.842 -178.6122
13307.620084 71.065 -178.6196
13404.052584 71.342 -179.4601
13501.183875 71.647 178.8490
13599.019019 71.954 176.3271
13697.563116 72.242 173.0181
13796.821305 72.492 168.9811
13896.798760 72.692 164.2842
13997.500692 72.832 159.0008
14098.932352 72.907 153.2057
14201.099028 72.918 146.9721
14304.006046 72.867 140.3675
14407.658770 72.765 133.4497
14512.062604 72.624 126.2645
14617.222992 72.463 118.8438
14723.145416 72.302 111.2066
14829.835397 72.166 103.3619
14937.298497 72.077 95.3112
15045.540320 72.056 87.0529
15154.566507 72.115 78.5853
15264.382743 72.259 69.9087
15374.994752 72.479 61.0262
15486.408302 72.759 51.9440
15598.629201 73.077 42.6706
15711.663298 73.405 33.2182
15825.516487 73.718 23.6045
15940.194703 73.991 13.8573
16055.703925 74.201 4.0182
16172.050174 74.332 -5.8524
16289.239516 74.369 -15.6768
16407.278061 74.308 -25.3641
16526.171961 74.147 -34.8217
16645.927415 73.894 -43.9669
16766.550667 73.562 -52.7397
16888.048005 73.170 -61.1085
17010.425762 72.746 -69.0737
17133.690320 72.324 -76.6683
17257.848103 71.946 -83.9557
17382.905584 71.654 -91.0253
17508.869284 71.488 -97.9891
17635.745768 71.477 -104.9752
17763.541652 71.625 -112.1221
17892.263597 71.917 -119.5745
18021.918315 72.319 -127.4791
18152.512564 72.791 -135.9863
18284.053153 73.292 -145.2537
18416.546939 73.791 -155.4548
18550.000830 74.259 -166.7950
18684.421783 74.680 -179.5166
18819.816805 75.041 166.1273
18956.192956 75.337 149.9975
19093.557344 75.565 132.3590
19231.917131 75.731 114.2094
19371.279531 75.842 97.1741
19511.651807 75.907 82.7805
19653.041280 75.940 71.8663
19795.455318 75.953 64.6485
19938.901348 75.957 61.0765
