* Measurement data measured by REW V5.31.3
* Source: EXCL: Headset (USB-C to 3.5mm Headphone Jack Adapter), MICROPHONE (Master Volume), 0, volume: 0.750
* Format: 256k Log Swept Sine, 1 sweep at -12.0 dBFS with no timing reference
* Dated: Apr 1, 2025 10:16:10 PM
* REW Settings:
*  C-weighting compensation: Off
*  Target level: 75.0 dB
* Note: ; 
* Measurement: HD6XX R5
* Smoothing: 1/6 octave
* Frequency Step: 96 ppo
* Start Frequency: 20.0 Hz
*
* Freq(Hz) SPL(dB) Phase(degrees)
20.033247 84.542 -93.0468
20.178416 84.612 -93.2414
20.324637 84.685 -93.4428
20.471918 84.763 -93.6499
20.620266 84.845 -93.8615
20.769689 84.931 -94.0769
20.920195 85.021 -94.2957
21.071791 85.117 -94.5187
21.224486 85.218 -94.7477
21.378287 85.324 -94.9855
21.533203 85.435 -95.2354
21.689242 85.550 -95.5015
21.846411 85.667 -95.7874
22.004719 85.786 -96.0964
22.164174 85.904 -96.4304
22.324785 86.021 -96.7896
22.486559 86.135 -97.1725
22.649506 86.243 -97.5758
22.813634 86.345 -97.9944
22.978951 86.440 -98.4221
23.145466 86.527 -98.8521
23.313188 86.607 -99.2780
23.482124 86.679 -99.6942
23.652286 86.744 -100.0967
23.823680 86.804 -100.4836
23.996316 86.860 -100.8554
24.170203 86.912 -101.2147
24.345351 86.961 -101.5657
24.521767 87.009 -101.9138
24.699462 87.055 -102.2642
24.878444 87.099 -102.6214
25.058724 87.142 -102.9881
25.240310 87.182 -103.3652
25.423211 87.220 -103.7511
25.607438 87.255 -104.1422
25.793000 87.287 -104.5338
25.979907 87.316 -104.9201
26.168168 87.344 -105.2958
26.357794 87.370 -105.6567
26.548793 87.396 -106.0003
26.741176 87.423 -106.3259
26.934954 87.451 -106.6352
27.130136 87.482 -106.9315
27.326732 87.515 -107.2190
27.524753 87.551 -107.5024
27.724208 87.589 -107.7861
27.925110 87.630 -108.0731
28.127466 87.671 -108.3654
28.331290 87.714 -108.6632
28.536590 87.756 -108.9656
28.743378 87.799 -109.2709
28.951664 87.841 -109.5772
29.161460 87.884 -109.8825
29.372776 87.927 -110.1858
29.585623 87.970 -110.4868
29.800013 88.015 -110.7861
30.015956 88.061 -111.0851
30.233464 88.109 -111.3857
30.452548 88.160 -111.6898
30.673220 88.212 -111.9990
30.895490 88.268 -112.3143
31.119372 88.325 -112.6360
31.344876 88.386 -112.9633
31.572014 88.449 -113.2948
31.800797 88.514 -113.6287
32.031239 88.583 -113.9627
32.263351 88.655 -114.2949
32.497144 88.731 -114.6236
32.732632 88.811 -114.9479
32.969826 88.895 -115.2674
33.208739 88.983 -115.5829
33.449383 89.075 -115.8951
33.691771 89.171 -116.2055
33.935916 89.271 -116.5155
34.181829 89.373 -116.8263
34.429525 89.478 -117.1389
34.679015 89.585 -117.4539
34.930314 89.693 -117.7716
35.183433 89.802 -118.0921
35.438387 89.911 -118.4157
35.695188 90.020 -118.7427
35.953850 90.128 -119.0734
36.214387 90.235 -119.4082
36.476811 90.340 -119.7475
36.741137 90.444 -120.0915
37.007378 90.544 -120.4400
37.275549 90.641 -120.7927
37.545663 90.735 -121.1485
37.817734 90.825 -121.5063
38.091777 90.912 -121.8646
38.367806 90.995 -122.2220
38.645835 91.074 -122.5772
38.925879 91.150 -122.9293
39.207952 91.223 -123.2781
39.492069 91.293 -123.6243
39.778244 91.361 -123.9696
40.066494 91.428 -124.3165
40.356832 91.493 -124.6678
40.649275 91.557 -125.0264
40.943836 91.618 -125.3942
41.240532 91.678 -125.7721
41.539378 91.735 -126.1596
41.840389 91.790 -126.5549
42.143582 91.842 -126.9553
42.448972 91.892 -127.3580
42.756574 91.939 -127.7602
43.066406 91.985 -128.1597
43.378483 92.028 -128.5547
43.692822 92.071 -128.9443
44.009438 92.112 -129.3279
44.328348 92.152 -129.7051
44.649570 92.191 -130.0762
44.973119 92.228 -130.4412
45.299013 92.265 -130.8004
45.627268 92.301 -131.1538
45.957902 92.335 -131.5013
46.290932 92.368 -131.8423
46.626375 92.399 -132.1766
46.964249 92.429 -132.5043
47.304571 92.459 -132.8263
47.647360 92.487 -133.1443
47.992632 92.514 -133.4604
48.340407 92.541 -133.7769
48.690701 92.566 -134.0954
49.043534 92.590 -134.4165
49.398924 92.611 -134.7394
49.756889 92.632 -135.0629
50.117447 92.650 -135.3854
50.480619 92.667 -135.7053
50.846423 92.683 -136.0221
51.214877 92.698 -136.3358
51.586001 92.713 -136.6473
51.959814 92.727 -136.9582
52.336336 92.741 -137.2700
52.715587 92.754 -137.5840
53.097586 92.767 -137.9005
53.482353 92.779 -138.2187
53.869908 92.789 -138.5368
54.260272 92.798 -138.8523
54.653464 92.807 -139.1627
55.049506 92.814 -139.4664
55.448417 92.821 -139.7626
55.850219 92.829 -140.0514
56.254933 92.837 -140.3334
56.662579 92.846 -140.6097
57.073180 92.857 -140.8810
57.486755 92.869 -141.1480
57.903328 92.884 -141.4111
58.322919 92.901 -141.6705
58.745551 92.921 -141.9259
59.171246 92.944 -142.1770
59.600025 92.970 -142.4236
60.031911 93.001 -142.6664
60.466927 93.036 -142.9066
60.905096 93.075 -143.1458
61.346439 93.118 -143.3853
61.790981 93.164 -143.6260
62.238744 93.214 -143.8682
62.689751 93.267 -144.1120
63.144027 93.322 -144.3575
63.601595 93.378 -144.6052
64.062478 93.437 -144.8553
64.526701 93.496 -145.1086
64.994288 93.556 -145.3652
65.465264 93.615 -145.6257
65.939652 93.675 -145.8905
66.417478 93.735 -146.1603
66.898766 93.793 -146.4361
67.383542 93.851 -146.7186
67.871831 93.908 -147.0084
68.363659 93.963 -147.3057
68.859050 94.017 -147.6101
69.358031 94.069 -147.9208
69.860628 94.119 -148.2366
70.366867 94.167 -148.5560
70.876774 94.212 -148.8778
71.390376 94.255 -149.2007
71.907700 94.296 -149.5239
72.428773 94.334 -149.8468
72.953622 94.370 -150.1694
73.482274 94.403 -150.4915
74.014757 94.433 -150.8136
74.551098 94.461 -151.1357
75.091326 94.486 -151.4582
75.635469 94.508 -151.7814
76.183555 94.528 -152.1055
76.735612 94.545 -152.4305
77.291670 94.560 -152.7561
77.851757 94.573 -153.0822
78.415903 94.583 -153.4084
78.984137 94.592 -153.7343
79.556489 94.600 -154.0598
80.132988 94.606 -154.3844
80.713665 94.611 -154.7077
81.298549 94.616 -155.0295
81.887672 94.620 -155.3495
82.481064 94.623 -155.6678
83.078756 94.626 -155.9845
83.680778 94.628 -156.2998
84.287164 94.630 -156.6142
84.897943 94.631 -156.9280
85.513149 94.632 -157.2417
86.132812 94.633 -157.5554
86.756966 94.633 -157.8692
87.385643 94.632 -158.1827
88.018875 94.631 -158.4955
88.656696 94.629 -158.8070
89.299139 94.626 -159.1164
89.946238 94.623 -159.4229
90.598025 94.620 -159.7260
91.254536 94.617 -160.0256
91.915804 94.613 -160.3218
92.581864 94.610 -160.6149
93.252750 94.606 -160.9053
93.928498 94.603 -161.1934
94.609143 94.600 -161.4798
95.294719 94.598 -161.7649
95.985264 94.595 -162.0491
96.680813 94.593 -162.3328
97.381402 94.592 -162.6162
98.087068 94.590 -162.8996
98.797847 94.589 -163.1831
99.513777 94.588 -163.4667
100.234895 94.588 -163.7501
100.961238 94.588 -164.0331
101.692845 94.588 -164.3157
102.429753 94.588 -164.5979
103.172002 94.589 -164.8796
103.919628 94.591 -165.1611
104.672673 94.593 -165.4422
105.431174 94.595 -165.7230
106.195172 94.599 -166.0031
106.964706 94.603 -166.2822
107.739816 94.608 -166.5600
108.520543 94.614 -166.8362
109.306928 94.621 -167.1108
110.099011 94.628 -167.3837
110.896834 94.637 -167.6548
111.700438 94.645 -167.9241
112.509866 94.654 -168.1914
113.325158 94.663 -168.4568
114.146359 94.672 -168.7205
114.973511 94.680 -168.9825
115.806656 94.688 -169.2432
116.645839 94.697 -169.5029
117.491103 94.705 -169.7621
118.342492 94.714 -170.0211
119.200050 94.723 -170.2800
120.063823 94.732 -170.5389
120.933855 94.741 -170.7975
121.810191 94.750 -171.0552
122.692878 94.759 -171.3111
123.581962 94.767 -171.5644
124.477487 94.774 -171.8145
125.379503 94.781 -172.0616
126.288054 94.786 -172.3061
127.203189 94.789 -172.5490
128.124956 94.792 -172.7910
129.053402 94.793 -173.0329
129.988577 94.793 -173.2750
130.930527 94.791 -173.5172
131.879304 94.788 -173.7590
132.834956 94.784 -173.9997
133.797533 94.778 -174.2382
134.767085 94.770 -174.4738
135.743663 94.762 -174.7060
136.727317 94.752 -174.9347
137.718100 94.741 -175.1602
138.716062 94.729 -175.3830
139.721255 94.716 -175.6037
140.733733 94.702 -175.8226
141.753548 94.687 -176.0398
142.780753 94.670 -176.2553
143.815401 94.653 -176.4691
144.857546 94.636 -176.6811
145.907244 94.617 -176.8914
146.964548 94.598 -177.0999
148.029514 94.578 -177.3065
149.102197 94.558 -177.5111
150.182652 94.537 -177.7137
151.270938 94.516 -177.9144
152.367109 94.495 -178.1131
153.471224 94.473 -178.3103
154.583340 94.451 -178.5061
155.703515 94.428 -178.7010
156.831807 94.406 -178.8953
157.968274 94.383 -179.0893
159.112978 94.361 -179.2832
160.265976 94.338 -179.4767
161.427329 94.316 -179.6696
162.597098 94.295 -179.8616
163.775344 94.274 179.9481
164.962128 94.253 179.7599
166.157511 94.233 179.5741
167.361557 94.213 179.3908
168.574328 94.194 179.2097
169.795887 94.175 179.0306
171.026298 94.155 178.8530
172.265625 94.136 178.6766
173.513933 94.116 178.5013
174.771286 94.096 178.3274
176.037751 94.076 178.1552
177.313393 94.054 177.9852
178.598279 94.032 177.8183
179.892476 94.010 177.6550
181.196051 93.986 177.4957
182.509072 93.962 177.3407
183.831608 93.937 177.1898
185.163728 93.912 177.0430
186.505500 93.887 176.8995
187.856996 93.861 176.7589
189.218285 93.835 176.6202
190.589439 93.808 176.4826
191.970529 93.782 176.3453
193.361626 93.754 176.2076
194.762804 93.727 176.0688
196.174136 93.698 175.9289
197.595694 93.669 175.7878
199.027554 93.640 175.6464
200.469790 93.610 175.5052
201.922477 93.579 175.3655
203.385690 93.549 175.2281
204.859507 93.518 175.0937
206.344003 93.488 174.9630
207.839257 93.457 174.8362
209.345346 93.427 174.7138
210.862348 93.397 174.5959
212.390344 93.368 174.4829
213.929412 93.339 174.3753
215.479633 93.311 174.2737
217.041087 93.284 174.1788
218.613856 93.257 174.0911
220.198022 93.232 174.0110
221.793668 93.208 173.9385
223.400876 93.186 173.8735
225.019731 93.165 173.8153
226.650317 93.145 173.7628
228.292718 93.128 173.7146
229.947022 93.112 173.6691
231.613312 93.097 173.6245
233.291678 93.084 173.5795
234.982206 93.073 173.5330
236.684984 93.063 173.4841
238.400101 93.054 173.4324
240.127646 93.047 173.3776
241.867710 93.041 173.3197
243.620383 93.036 173.2589
245.385757 93.031 173.1957
247.163923 93.028 173.1307
248.954975 93.025 173.0645
250.759005 93.022 172.9978
252.576108 93.019 172.9312
254.406379 93.017 172.8653
256.249912 93.015 172.8006
258.106805 93.012 172.7377
259.977153 93.010 172.6767
261.861055 93.007 172.6180
263.758608 93.004 172.5612
265.669911 93.000 172.5060
267.595065 92.995 172.4518
269.534169 92.989 172.3981
271.487325 92.983 172.3445
273.454634 92.977 172.2911
275.436199 92.970 172.2382
277.432123 92.963 172.1860
279.442511 92.956 172.1349
281.467467 92.950 172.0853
283.507096 92.945 172.0374
285.561505 92.939 171.9913
287.630801 92.935 171.9473
289.715093 92.931 171.9056
291.814488 92.927 171.8662
293.929096 92.923 171.8290
296.059027 92.921 171.7938
298.204393 92.918 171.7603
300.365305 92.916 171.7283
302.541876 92.914 171.6977
304.734219 92.913 171.6686
306.942449 92.911 171.6416
309.166680 92.910 171.6171
311.407029 92.910 171.5957
313.663613 92.909 171.5776
315.936549 92.909 171.5628
318.225955 92.909 171.5511
320.531952 92.909 171.5420
322.854659 92.909 171.5349
325.194197 92.909 171.5291
327.550688 92.909 171.5243
329.924255 92.910 171.5200
332.315022 92.909 171.5158
334.723114 92.909 171.5117
337.148655 92.908 171.5075
339.591774 92.906 171.5034
342.052596 92.904 171.4995
344.531250 92.900 171.4958
347.027865 92.896 171.4924
349.542572 92.890 171.4894
352.075502 92.883 171.4872
354.626786 92.874 171.4860
357.196558 92.864 171.4860
359.784951 92.854 171.4874
362.392101 92.841 171.4905
365.018144 92.828 171.4954
367.663216 92.814 171.5020
370.327455 92.800 171.5105
373.011000 92.784 171.5208
375.713992 92.769 171.5329
378.436570 92.753 171.5466
381.178878 92.737 171.5618
383.941057 92.721 171.5784
386.723252 92.705 171.5963
389.525608 92.688 171.6155
392.348271 92.672 171.6357
395.191389 92.655 171.6567
398.055108 92.637 171.6782
400.939580 92.620 171.6999
403.844953 92.602 171.7214
406.771380 92.583 171.7426
409.719013 92.563 171.7639
412.688006 92.543 171.7854
415.678514 92.521 171.8076
418.690692 92.498 171.8311
421.724697 92.474 171.8562
424.780688 92.449 171.8835
427.858824 92.422 171.9131
430.959265 92.393 171.9453
434.082174 92.363 171.9800
437.227712 92.332 172.0172
440.396044 92.299 172.0567
443.587336 92.265 172.0988
446.801752 92.230 172.1436
450.039462 92.194 172.1917
453.300634 92.158 172.2430
456.585437 92.121 172.2978
459.894043 92.084 172.3559
463.226625 92.047 172.4171
466.583356 92.011 172.4812
469.964411 91.975 172.5476
473.369967 91.940 172.6157
476.800201 91.906 172.6849
480.255292 91.873 172.7545
483.735420 91.841 172.8241
487.240766 91.811 172.8933
490.771513 91.782 172.9619
494.327846 91.755 173.0294
497.909949 91.729 173.0960
501.518010 91.705 173.1615
505.152216 91.682 173.2258
508.812758 91.661 173.2891
512.499825 91.642 173.3511
516.213610 91.625 173.4117
519.954306 91.609 173.4707
523.722109 91.595 173.5277
527.517216 91.583 173.5826
531.339823 91.572 173.6354
535.190130 91.564 173.6865
539.068339 91.557 173.7363
542.974650 91.551 173.7856
546.909268 91.547 173.8351
550.872398 91.545 173.8854
554.864247 91.544 173.9370
558.885022 91.544 173.9902
562.934933 91.546 174.0454
567.014192 91.548 174.1028
571.123010 91.551 174.1628
575.261603 91.555 174.2258
579.430186 91.559 174.2926
583.628976 91.564 174.3640
587.858192 91.568 174.4408
592.118055 91.573 174.5240
596.408786 91.579 174.6143
600.730610 91.585 174.7121
605.083752 91.591 174.8171
609.468438 91.597 174.9283
613.884897 91.604 175.0443
618.333360 91.611 175.1631
622.814059 91.618 175.2827
627.327226 91.625 175.4011
631.873098 91.631 175.5170
636.451911 91.637 175.6294
641.063904 91.642 175.7377
645.709317 91.645 175.8419
650.388393 91.648 175.9422
655.101375 91.649 176.0389
659.848510 91.649 176.1329
664.630044 91.647 176.2249
669.446228 91.645 176.3157
674.297311 91.641 176.4056
679.183547 91.635 176.4948
684.105191 91.629 176.5831
689.062499 91.622 176.6701
694.055730 91.614 176.7555
699.085144 91.604 176.8391
704.151003 91.594 176.9207
709.253572 91.583 177.0004
714.393116 91.570 177.0786
719.569903 91.556 177.1552
724.784203 91.541 177.2308
730.036288 91.524 177.3058
735.326432 91.507 177.3806
740.654910 91.488 177.4555
746.022001 91.467 177.5311
751.427984 91.446 177.6077
756.873141 91.423 177.6857
762.357756 91.400 177.7653
767.882114 91.375 177.8464
773.446504 91.350 177.9285
779.051217 91.325 178.0108
784.696543 91.299 178.0920
790.382778 91.273 178.1711
796.110217 91.248 178.2466
801.879160 91.222 178.3173
807.689907 91.197 178.3815
813.542761 91.173 178.4377
819.438027 91.149 178.4843
825.376013 91.125 178.5196
831.357028 91.100 178.5429
837.381383 91.075 178.5543
843.449394 91.049 178.5549
849.561376 91.022 178.5469
855.717648 90.991 178.5341
861.918531 90.959 178.5212
868.164348 90.923 178.5145
874.455424 90.884 178.5208
880.792089 90.842 178.5478
887.174671 90.798 178.6035
893.603505 90.752 178.6949
900.078924 90.706 178.8278
906.601267 90.661 179.0054
913.170874 90.619 179.2277
919.788086 90.582 179.4909
926.453250 90.551 179.7880
933.166712 90.528 -179.8905
939.928823 90.512 -179.5555
946.739934 90.506 -179.2175
953.600402 90.507 -178.8858
960.510584 90.516 -178.5679
967.470839 90.532 -178.2685
974.481532 90.553 -177.9908
981.543027 90.580 -177.7359
988.655692 90.611 -177.5038
995.819899 90.646 -177.2935
1003.036020 90.684 -177.1039
1010.304433 90.725 -176.9333
1017.625515 90.768 -176.7801
1024.999649 90.813 -176.6425
1032.427219 90.860 -176.5187
1039.908612 90.908 -176.4070
1047.444219 90.957 -176.3062
1055.034432 91.008 -176.2148
1062.679646 91.059 -176.1320
1070.380261 91.111 -176.0569
1078.136677 91.163 -175.9887
1085.949300 91.215 -175.9269
1093.818536 91.268 -175.8710
1101.744796 91.320 -175.8203
1109.728493 91.372 -175.7744
1117.770043 91.423 -175.7324
1125.869866 91.473 -175.6935
1134.028383 91.522 -175.6569
1142.246020 91.570 -175.6216
1150.523206 91.617 -175.5869
1158.860371 91.663 -175.5517
1167.257951 91.708 -175.5151
1175.716383 91.752 -175.4762
1184.236109 91.796 -175.4337
1192.817572 91.838 -175.3868
1201.461220 91.881 -175.3347
1210.167503 91.924 -175.2769
1218.936876 91.967 -175.2139
1227.769795 92.011 -175.1466
1236.666721 92.057 -175.0762
1245.628118 92.103 -175.0043
1254.654453 92.150 -174.9319
1263.746196 92.198 -174.8600
1272.903822 92.247 -174.7896
1282.127808 92.297 -174.7219
1291.418634 92.348 -174.6579
1300.776786 92.399 -174.5986
1310.202751 92.450 -174.5443
1319.697020 92.502 -174.4953
1329.260089 92.553 -174.4511
1338.892455 92.604 -174.4113
1348.594622 92.655 -174.3752
1358.367094 92.705 -174.3417
1368.210382 92.755 -174.3094
1378.124999 92.806 -174.2773
1388.111461 92.856 -174.2444
1398.170288 92.907 -174.2105
1408.302007 92.958 -174.1754
1418.507144 93.011 -174.1389
1428.786231 93.064 -174.1013
1439.139805 93.119 -174.0624
1449.568405 93.175 -174.0221
1460.072576 93.233 -173.9804
1470.652863 93.292 -173.9369
1481.309820 93.352 -173.8919
1492.044002 93.412 -173.8456
1502.855968 93.474 -173.7983
1513.746282 93.536 -173.7504
1524.715511 93.597 -173.7020
1535.764228 93.658 -173.6531
1546.893009 93.717 -173.6031
1558.102433 93.774 -173.5510
1569.393086 93.829 -173.4957
1580.765555 93.881 -173.4354
1592.220434 93.929 -173.3688
1603.758320 93.975 -173.2952
1615.379813 94.018 -173.2143
1627.085521 94.058 -173.1271
1638.876054 94.096 -173.0347
1650.752025 94.130 -172.9386
1662.714055 94.162 -172.8399
1674.762766 94.190 -172.7393
1686.898788 94.216 -172.6368
1699.122752 94.240 -172.5316
1711.435296 94.260 -172.4225
1723.837061 94.279 -172.3078
1736.328695 94.295 -172.1863
1748.910849 94.310 -172.0571
1761.584178 94.323 -171.9199
1774.349343 94.336 -171.7751
1787.207010 94.349 -171.6243
1800.157848 94.362 -171.4701
1813.202534 94.375 -171.3161
1826.341747 94.389 -171.1656
1839.576172 94.402 -171.0220
1852.906500 94.414 -170.8876
1866.333424 94.424 -170.7635
1879.857645 94.433 -170.6494
1893.479869 94.438 -170.5437
1907.200804 94.440 -170.4436
1921.021168 94.439 -170.3457
1934.941679 94.433 -170.2461
1948.963064 94.424 -170.1408
1963.086054 94.411 -170.0265
1977.311384 94.395 -169.9008
1991.639798 94.378 -169.7631
2006.072041 94.358 -169.6144
2020.608866 94.339 -169.4571
2035.251031 94.319 -169.2953
2049.999299 94.299 -169.1334
2064.854438 94.280 -168.9760
2079.817225 94.262 -168.8269
2094.888438 94.244 -168.6890
2110.068863 94.226 -168.5638
2125.359292 94.209 -168.4515
2140.760521 94.191 -168.3515
2156.273355 94.173 -168.2619
2171.898600 94.154 -168.1806
2187.637073 94.136 -168.1049
2203.489593 94.117 -168.0322
2219.456987 94.099 -167.9602
2235.540087 94.081 -167.8873
2251.739732 94.064 -167.8128
2268.056766 94.049 -167.7366
2284.492041 94.036 -167.6594
2301.046412 94.025 -167.5824
2317.720742 94.016 -167.5070
2334.515902 94.011 -167.4349
2351.432767 94.008 -167.3676
2368.472218 94.009 -167.3069
2385.635144 94.013 -167.2539
2402.922440 94.020 -167.2096
2420.335006 94.030 -167.1740
2437.873752 94.043 -167.1469
2455.539590 94.060 -167.1277
2473.333442 94.079 -167.1158
2491.256235 94.103 -167.1108
2509.308905 94.130 -167.1127
2527.492392 94.161 -167.1220
2545.807644 94.197 -167.1399
2564.255615 94.236 -167.1674
2582.837268 94.279 -167.2060
2601.553572 94.326 -167.2563
2620.405502 94.377 -167.3187
2639.394040 94.431 -167.3927
2658.520177 94.487 -167.4773
2677.784910 94.547 -167.5708
2697.189244 94.609 -167.6718
2716.734189 94.673 -167.7792
2736.420765 94.741 -167.8928
2756.249998 94.811 -168.0134
2776.222921 94.884 -168.1424
2796.340577 94.959 -168.2816
2816.604013 95.036 -168.4329
2837.014287 95.114 -168.5977
2857.572462 95.194 -168.7768
2878.279610 95.273 -168.9705
2899.136811 95.353 -169.1784
2920.145151 95.431 -169.4004
2941.305727 95.508 -169.6362
2962.619641 95.583 -169.8859
2984.088004 95.654 -170.1496
3005.711935 95.723 -170.4273
3027.492563 95.786 -170.7186
3049.431022 95.845 -171.0220
3071.528457 95.897 -171.3358
3093.786018 95.943 -171.6573
3116.204867 95.982 -171.9842
3138.786172 96.013 -172.3141
3161.531110 96.037 -172.6450
3184.440868 96.053 -172.9755
3207.516639 96.060 -173.3045
3230.759627 96.060 -173.6310
3254.171043 96.052 -173.9543
3277.752108 96.035 -174.2737
3301.504051 96.010 -174.5887
3325.428110 95.978 -174.8987
3349.525533 95.937 -175.2032
3373.797576 95.889 -175.5013
3398.245504 95.833 -175.7923
3422.870591 95.771 -176.0751
3447.674123 95.701 -176.3488
3472.657391 95.625 -176.6121
3497.821698 95.544 -176.8637
3523.168356 95.457 -177.1021
3548.698686 95.365 -177.3253
3574.414019 95.270 -177.5314
3600.315697 95.171 -177.7179
3626.405068 95.069 -177.8826
3652.683494 94.966 -178.0232
3679.152345 94.862 -178.1379
3705.812999 94.758 -178.2252
3732.666848 94.655 -178.2840
3759.715291 94.555 -178.3134
3786.959737 94.457 -178.3125
3814.401609 94.363 -178.2806
3842.042335 94.273 -178.2168
3869.883358 94.189 -178.1204
3897.926128 94.110 -177.9904
3926.172107 94.037 -177.8259
3954.622769 93.970 -177.6260
3983.279596 93.911 -177.3898
4012.144082 93.859 -177.1163
4041.217732 93.815 -176.8049
4070.502061 93.779 -176.4551
4099.998597 93.752 -176.0670
4129.708877 93.734 -175.6417
4159.634450 93.725 -175.1813
4189.776876 93.726 -174.6897
4220.137726 93.737 -174.1723
4250.718584 93.758 -173.6368
4281.521043 93.790 -173.0928
4312.546709 93.833 -172.5515
4343.797200 93.885 -172.0257
4375.274146 93.947 -171.5284
4406.979186 94.018 -171.0730
4438.913974 94.095 -170.6718
4471.080174 94.178 -170.3358
4503.479464 94.264 -170.0744
4536.113533 94.353 -169.8947
4568.984081 94.443 -169.8018
4602.092823 94.531 -169.7979
4635.441485 94.615 -169.8831
4669.031805 94.696 -170.0551
4702.865534 94.771 -170.3098
4736.944436 94.838 -170.6419
4771.270288 94.899 -171.0448
4805.844880 94.951 -171.5116
4840.670013 94.995 -172.0353
4875.747503 95.031 -172.6089
4911.079179 95.058 -173.2261
4946.666884 95.077 -173.8809
4982.512471 95.088 -174.5682
5018.617810 95.091 -175.2830
5054.984784 95.085 -176.0208
5091.615287 95.072 -176.7765
5128.511230 95.051 -177.5451
5165.674537 95.021 -178.3205
5203.107144 94.983 -179.0961
5240.811003 94.936 -179.8641
5278.788080 94.880 179.3845
5317.040355 94.815 178.6592
5355.569821 94.742 177.9703
5394.378487 94.660 177.3282
5433.468378 94.570 176.7429
5472.841529 94.475 176.2237
5512.499995 94.374 175.7782
5552.445842 94.270 175.4121
5592.681154 94.163 175.1287
5633.208027 94.056 174.9284
5674.028574 93.951 174.8094
5715.144924 93.847 174.7672
5756.559221 93.747 174.7951
5798.273622 93.651 174.8853
5840.290302 93.558 175.0293
5882.611454 93.469 175.2190
5925.239281 93.381 175.4481
5968.176007 93.295 175.7131
6011.423871 93.208 176.0142
6054.985126 93.119 176.3557
6098.862045 93.026 176.7466
6143.056913 92.928 177.2006
6187.572036 92.826 177.7347
6232.409733 92.718 178.3693
6277.572344 92.608 179.1265
6323.062220 92.496 -179.9718
6368.881736 92.386 -178.9055
6415.033278 92.283 -177.6585
6461.519254 92.193 -176.2212
6508.342086 92.121 -174.5930
6555.504216 92.074 -172.7845
6603.008102 92.060 -170.8198
6650.856220 92.083 -168.7366
6699.051066 92.150 -166.5864
6747.595151 92.264 -164.4316
6796.491007 92.427 -162.3424
6845.741183 92.638 -160.3920
6895.348246 92.895 -158.6512
6945.314781 93.190 -157.1834
6995.643395 93.520 -156.0412
7046.336711 93.874 -155.2633
7097.397372 94.245 -154.8748
7148.828039 94.624 -154.8873
7200.631394 95.003 -155.3013
7252.810137 95.374 -156.1085
7305.366989 95.731 -157.2941
7358.304690 96.066 -158.8387
7411.625999 96.375 -160.7196
7465.333696 96.653 -162.9123
7519.430581 96.895 -165.3905
7573.919475 97.097 -168.1272
7628.803218 97.257 -171.0945
7684.084670 97.370 -174.2641
7739.766716 97.434 -177.6065
7795.852256 97.445 178.9092
7852.344215 97.402 175.3162
7909.245538 97.300 171.6508
7966.559191 97.138 167.9540
8024.288163 96.913 164.2728
8082.435463 96.622 160.6617
8141.004122 96.263 157.1851
8199.997194 95.835 153.9186
8259.417754 95.338 150.9523
8319.268900 94.772 148.3938
8379.553752 94.141 146.3734
8440.275452 93.448 145.0513
8501.437168 92.701 144.6260
8563.042086 91.911 145.3442
8625.093419 91.092 147.5012
8687.594401 90.267 151.4135
8750.548291 89.463 157.3198
8813.958371 88.716 165.1729
8877.827947 88.063 174.3984
8942.160348 87.543 -176.0851
9006.958928 87.185 -167.4035
9072.227065 86.999 -160.2242
9137.968162 86.978 -154.6760
9204.185647 87.096 -150.5754
9270.882970 87.323 -147.6491
9338.063610 87.627 -145.6443
9405.731068 87.981 -144.3633
9473.888873 88.365 -143.6628
9542.540577 88.762 -143.4427
9611.689759 89.163 -143.6355
9681.340025 89.560 -144.1956
9751.495006 89.946 -145.0922
9822.158359 90.315 -146.3041
9893.333767 90.665 -147.8147
9965.024942 90.990 -149.6100
10037.235620 91.286 -151.6756
10109.969567 91.550 -153.9959
10183.230574 91.777 -156.5525
10257.022461 91.963 -159.3238
10331.349074 92.104 -162.2847
10406.214288 92.198 -165.4064
10481.622007 92.241 -168.6570
10557.576160 92.232 -172.0012
10634.080709 92.168 -175.4017
10711.139642 92.049 -178.8198
10788.756975 91.875 177.7835
10866.936755 91.647 174.4470
10945.683059 91.366 171.2077
11024.999990 91.034 168.1006
11104.891685 90.654 165.1577
11185.362308 90.231 162.4067
11266.416054 89.768 159.8701
11348.057149 89.270 157.5633
11430.289849 88.743 155.4940
11513.118441 88.193 153.6606
11596.547243 87.626 152.0513
11680.580605 87.048 150.6454
11765.222907 86.466 149.4141
11850.478562 85.885 148.3235
11936.352015 85.308 147.3380
12022.847742 84.738 146.4239
12109.970253 84.177 145.5526
12197.724089 83.626 144.7023
12286.113826 83.083 143.8578
12375.144072 82.548 143.0094
12464.819467 82.022 142.1495
12555.144687 81.504 141.2699
12646.124441 80.996 140.3585
12737.763472 80.500 139.3977
12830.066557 80.020 138.3641
12923.038508 79.560 137.2280
13016.684172 79.125 135.9534
13111.008431 78.723 134.4975
13206.016203 78.362 132.8090
13301.712440 78.050 130.8266
13398.102132 77.797 128.4790
13495.190303 77.609 125.6855
13592.982015 77.490 122.3604
13691.482366 77.439 118.4184
13790.696491 77.451 113.7817
13890.629563 77.515 108.3859
13991.286791 77.622 102.1866
14092.673422 77.762 95.1635
14194.794743 77.928 87.3260
14297.656077 78.116 78.7180
14401.262787 78.327 69.4211
14505.620274 78.565 59.5557
14610.733978 78.835 49.2746
14716.609379 79.142 38.7482
14823.251997 79.489 28.1424
14930.667392 79.875 17.5967
15038.861162 80.295 7.2090
15147.838950 80.742 -2.9692
15257.606435 81.204 -12.9279
15368.169341 81.671 -22.6881
15479.533431 82.128 -32.2897
15591.704511 82.563 -41.7810
15704.688430 82.963 -51.2104
15818.491076 83.313 -60.6189
15933.118383 83.602 -70.0341
16048.576327 83.818 -79.4658
16164.870926 83.951 -88.9036
16282.008245 83.996 -98.3183
16399.994388 83.948 -107.6674
16518.835508 83.806 -116.9009
16638.537799 83.574 -125.9687
16759.107503 83.256 -134.8254
16880.550905 82.860 -143.4341
17002.874335 82.396 -151.7693
17126.084171 81.876 -159.8171
17250.186837 81.318 -167.5771
17375.188802 80.742 -175.0634
17501.096582 80.173 177.6921
17627.916743 79.645 170.6348
17755.655894 79.196 163.6827
17884.320696 78.862 156.7219
18013.917856 78.672 149.6033
18144.454131 78.639 142.1449
18275.936325 78.749 134.1354
18408.371293 78.973 125.3390
18541.765940 79.268 115.5013
18676.127219 79.593 104.3569
18811.462136 79.913 91.6658
18947.777745 80.203 77.3189
19085.081153 80.447 61.5549
19223.379519 80.637 45.2025
19362.680051 80.773 29.6245
19502.990012 80.861 16.2064
19644.316718 80.911 5.8473
19786.667534 80.935 -1.0933
19930.049884 80.945 -4.5536
