* Measurement data measured by REW V5.31.3
* Source: EXCL: Headset (USB-C to 3.5mm Headphone Jack Adapter), MICROPHONE (Master Volume), 0, volume: 0.750
* Format: 256k Log Swept Sine, 1 sweep at -12.0 dBFS with no timing reference
* Dated: Apr 1, 2025 10:14:41 PM
* REW Settings:
*  C-weighting compensation: Off
*  Target level: 75.0 dB
* Note: ; 
* Measurement: HD6XX R1
* Smoothing: 1/6 octave
* Frequency Step: 96 ppo
* Start Frequency: 20.0 Hz
*
* Freq(Hz) SPL(dB) Phase(degrees)
20.033247 84.282 -93.6907
20.178416 84.363 -93.9602
20.324637 84.446 -94.2378
20.471918 84.530 -94.5216
20.620266 84.617 -94.8092
20.769689 84.707 -95.0979
20.920195 84.798 -95.3852
21.071791 84.892 -95.6690
21.224486 84.989 -95.9481
21.378287 85.089 -96.2221
21.533203 85.192 -96.4917
21.689242 85.297 -96.7585
21.846411 85.405 -97.0250
22.004719 85.515 -97.2940
22.164174 85.625 -97.5682
22.324785 85.735 -97.8502
22.486559 85.843 -98.1416
22.649506 85.949 -98.4431
22.813634 86.050 -98.7541
22.978951 86.146 -99.0732
23.145466 86.237 -99.3981
23.313188 86.322 -99.7262
23.482124 86.400 -100.0547
23.652286 86.472 -100.3817
23.823680 86.538 -100.7062
23.996316 86.599 -101.0284
24.170203 86.656 -101.3497
24.345351 86.709 -101.6728
24.521767 86.759 -102.0010
24.699462 86.806 -102.3380
24.878444 86.850 -102.6868
25.058724 86.891 -103.0493
25.240310 86.929 -103.4261
25.423211 86.963 -103.8158
25.607438 86.994 -104.2150
25.793000 87.022 -104.6192
25.979907 87.045 -105.0225
26.168168 87.066 -105.4188
26.357794 87.084 -105.8025
26.548793 87.101 -106.1691
26.741176 87.118 -106.5156
26.934954 87.135 -106.8413
27.130136 87.155 -107.1476
27.326732 87.177 -107.4375
27.524753 87.202 -107.7157
27.724208 87.231 -107.9872
27.925110 87.264 -108.2572
28.127466 87.300 -108.5300
28.331290 87.338 -108.8089
28.536590 87.379 -109.0953
28.743378 87.421 -109.3896
28.951664 87.464 -109.6906
29.161460 87.507 -109.9964
29.372776 87.552 -110.3049
29.585623 87.597 -110.6138
29.800013 87.643 -110.9215
30.015956 87.691 -111.2271
30.233464 87.741 -111.5304
30.452548 87.793 -111.8318
30.673220 87.848 -112.1323
30.895490 87.907 -112.4329
31.119372 87.969 -112.7347
31.344876 88.035 -113.0387
31.572014 88.105 -113.3456
31.800797 88.179 -113.6558
32.031239 88.257 -113.9697
32.263351 88.340 -114.2878
32.497144 88.426 -114.6103
32.732632 88.515 -114.9377
32.969826 88.608 -115.2702
33.208739 88.704 -115.6079
33.449383 88.802 -115.9505
33.691771 88.902 -116.2972
33.935916 89.004 -116.6467
34.181829 89.106 -116.9978
34.429525 89.209 -117.3490
34.679015 89.312 -117.6991
34.930314 89.415 -118.0476
35.183433 89.519 -118.3944
35.438387 89.622 -118.7403
35.695188 89.725 -119.0862
35.953850 89.828 -119.4334
36.214387 89.929 -119.7830
36.476811 90.029 -120.1358
36.741137 90.127 -120.4922
37.007378 90.224 -120.8522
37.275549 90.318 -121.2159
37.545663 90.409 -121.5828
37.817734 90.498 -121.9531
38.091777 90.584 -122.3264
38.367806 90.668 -122.7025
38.645835 90.748 -123.0807
38.925879 90.826 -123.4603
39.207952 90.900 -123.8397
39.492069 90.972 -124.2174
39.778244 91.040 -124.5922
40.066494 91.107 -124.9629
40.356832 91.172 -125.3292
40.649275 91.235 -125.6919
40.943836 91.298 -126.0523
41.240532 91.359 -126.4122
41.539378 91.420 -126.7737
41.840389 91.479 -127.1387
42.143582 91.537 -127.5085
42.448972 91.594 -127.8838
42.756574 91.650 -128.2643
43.066406 91.703 -128.6491
43.378483 91.754 -129.0367
43.692822 91.802 -129.4253
44.009438 91.848 -129.8128
44.328348 91.892 -130.1973
44.649570 91.933 -130.5772
44.973119 91.972 -130.9513
45.299013 92.009 -131.3190
45.627268 92.045 -131.6803
45.957902 92.078 -132.0354
46.290932 92.110 -132.3848
46.626375 92.141 -132.7291
46.964249 92.170 -133.0692
47.304571 92.198 -133.4060
47.647360 92.224 -133.7407
47.992632 92.250 -134.0746
48.340407 92.274 -134.4087
48.690701 92.296 -134.7437
49.043534 92.317 -135.0797
49.398924 92.336 -135.4162
49.756889 92.354 -135.7524
50.117447 92.370 -136.0874
50.480619 92.384 -136.4204
50.846423 92.397 -136.7510
51.214877 92.409 -137.0786
51.586001 92.419 -137.4031
51.959814 92.429 -137.7238
52.336336 92.438 -138.0399
52.715587 92.446 -138.3503
53.097586 92.453 -138.6538
53.482353 92.461 -138.9496
53.869908 92.469 -139.2370
54.260272 92.478 -139.5163
54.653464 92.488 -139.7881
55.049506 92.499 -140.0540
55.448417 92.513 -140.3158
55.850219 92.528 -140.5757
56.254933 92.546 -140.8354
56.662579 92.566 -141.0961
57.073180 92.587 -141.3582
57.486755 92.611 -141.6216
57.903328 92.636 -141.8856
58.322919 92.662 -142.1495
58.745551 92.690 -142.4121
59.171246 92.720 -142.6721
59.600025 92.751 -142.9277
60.031911 92.783 -143.1770
60.466927 92.816 -143.4184
60.905096 92.851 -143.6511
61.346439 92.889 -143.8754
61.790981 92.928 -144.0928
62.238744 92.970 -144.3055
62.689751 93.015 -144.5162
63.144027 93.061 -144.7277
63.601595 93.110 -144.9425
64.062478 93.160 -145.1629
64.526701 93.212 -145.3907
64.994288 93.265 -145.6272
65.465264 93.319 -145.8736
65.939652 93.374 -146.1304
66.417478 93.429 -146.3980
66.898766 93.485 -146.6762
67.383542 93.539 -146.9642
67.871831 93.594 -147.2606
68.363659 93.647 -147.5642
68.859050 93.699 -147.8737
69.358031 93.751 -148.1882
69.860628 93.800 -148.5069
70.366867 93.848 -148.8293
70.876774 93.895 -149.1549
71.390376 93.939 -149.4833
71.907700 93.981 -149.8142
72.428773 94.020 -150.1472
72.953622 94.057 -150.4825
73.482274 94.091 -150.8199
74.014757 94.123 -151.1593
74.551098 94.151 -151.5008
75.091326 94.177 -151.8441
75.635469 94.201 -152.1889
76.183555 94.221 -152.5348
76.735612 94.239 -152.8809
77.291670 94.255 -153.2262
77.851757 94.268 -153.5696
78.415903 94.279 -153.9101
78.984137 94.289 -154.2471
79.556489 94.297 -154.5803
80.132988 94.303 -154.9096
80.713665 94.309 -155.2354
81.298549 94.313 -155.5579
81.887672 94.318 -155.8775
82.481064 94.321 -156.1947
83.078756 94.325 -156.5096
83.680778 94.328 -156.8225
84.287164 94.331 -157.1336
84.897943 94.334 -157.4432
85.513149 94.336 -157.7516
86.132812 94.339 -158.0591
86.756966 94.342 -158.3660
87.385643 94.344 -158.6727
88.018875 94.346 -158.9796
88.656696 94.348 -159.2869
89.299139 94.349 -159.5946
89.946238 94.349 -159.9028
90.598025 94.348 -160.2111
91.254536 94.347 -160.5195
91.915804 94.345 -160.8276
92.581864 94.343 -161.1356
93.252750 94.340 -161.4433
93.928498 94.338 -161.7506
94.609143 94.335 -162.0574
95.294719 94.332 -162.3636
95.985264 94.329 -162.6692
96.680813 94.327 -162.9742
97.381402 94.324 -163.2786
98.087068 94.322 -163.5824
98.797847 94.320 -163.8857
99.513777 94.318 -164.1883
100.234895 94.316 -164.4901
100.961238 94.314 -164.7911
101.692845 94.313 -165.0914
102.429753 94.312 -165.3910
103.172002 94.312 -165.6901
103.919628 94.313 -165.9884
104.672673 94.314 -166.2859
105.431174 94.317 -166.5822
106.195172 94.320 -166.8769
106.964706 94.324 -167.1696
107.739816 94.330 -167.4601
108.520543 94.336 -167.7486
109.306928 94.343 -168.0352
110.099011 94.350 -168.3206
110.896834 94.359 -168.6056
111.700438 94.368 -168.8907
112.509866 94.378 -169.1764
113.325158 94.388 -169.4628
114.146359 94.398 -169.7498
114.973511 94.409 -170.0367
115.806656 94.420 -170.3228
116.645839 94.430 -170.6071
117.491103 94.440 -170.8887
118.342492 94.449 -171.1670
119.200050 94.457 -171.4415
120.063823 94.464 -171.7123
120.933855 94.470 -171.9799
121.810191 94.475 -172.2449
122.692878 94.479 -172.5082
123.581962 94.482 -172.7707
124.477487 94.484 -173.0325
125.379503 94.486 -173.2937
126.288054 94.487 -173.5540
127.203189 94.488 -173.8129
128.124956 94.488 -174.0697
129.053402 94.488 -174.3239
129.988577 94.487 -174.5753
130.930527 94.485 -174.8236
131.879304 94.482 -175.0688
132.834956 94.479 -175.3111
133.797533 94.474 -175.5504
134.767085 94.468 -175.7870
135.743663 94.461 -176.0212
136.727317 94.452 -176.2530
137.718100 94.443 -176.4826
138.716062 94.432 -176.7101
139.721255 94.419 -176.9355
140.733733 94.405 -177.1589
141.753548 94.390 -177.3804
142.780753 94.373 -177.6004
143.815401 94.355 -177.8187
144.857546 94.336 -178.0357
145.907244 94.316 -178.2512
146.964548 94.296 -178.4654
148.029514 94.274 -178.6783
149.102197 94.252 -178.8900
150.182652 94.230 -179.1010
151.270938 94.208 -179.3114
152.367109 94.185 -179.5217
153.471224 94.162 -179.7321
154.583340 94.139 -179.9426
155.703515 94.116 179.8473
156.831807 94.093 179.6378
157.968274 94.071 179.4296
159.112978 94.048 179.2233
160.265976 94.026 179.0193
161.427329 94.003 178.8179
162.597098 93.981 178.6191
163.775344 93.959 178.4229
164.962128 93.937 178.2294
166.157511 93.915 178.0389
167.361557 93.893 177.8514
168.574328 93.871 177.6672
169.795887 93.850 177.4864
171.026298 93.828 177.3086
172.265625 93.806 177.1337
173.513933 93.784 176.9610
174.771286 93.763 176.7903
176.037751 93.742 176.6209
177.313393 93.720 176.4527
178.598279 93.699 176.2854
179.892476 93.677 176.1191
181.196051 93.655 175.9539
182.509072 93.632 175.7899
183.831608 93.608 175.6274
185.163728 93.583 175.4665
186.505500 93.557 175.3075
187.856996 93.531 175.1505
189.218285 93.504 174.9959
190.589439 93.476 174.8438
191.970529 93.448 174.6943
193.361626 93.420 174.5475
194.762804 93.392 174.4032
196.174136 93.364 174.2613
197.595694 93.336 174.1213
199.027554 93.308 173.9830
200.469790 93.279 173.8459
201.922477 93.250 173.7093
203.385690 93.220 173.5727
204.859507 93.190 173.4359
206.344003 93.159 173.2990
207.839257 93.128 173.1622
209.345346 93.096 173.0269
210.862348 93.064 172.8943
212.390344 93.033 172.7663
213.929412 93.002 172.6443
215.479633 92.971 172.5294
217.041087 92.942 172.4219
218.613856 92.913 172.3220
220.198022 92.886 172.2292
221.793668 92.860 172.1432
223.400876 92.837 172.0634
225.019731 92.814 171.9890
226.650317 92.794 171.9195
228.292718 92.775 171.8536
229.947022 92.759 171.7903
231.613312 92.744 171.7280
233.291678 92.731 171.6657
234.982206 92.719 171.6021
236.684984 92.709 171.5364
238.400101 92.701 171.4683
240.127646 92.694 171.3976
241.867710 92.688 171.3249
243.620383 92.683 171.2505
245.385757 92.678 171.1754
247.163923 92.675 171.1003
248.954975 92.671 171.0255
250.759005 92.667 170.9514
252.576108 92.664 170.8779
254.406379 92.659 170.8047
256.249912 92.655 170.7320
258.106805 92.649 170.6595
259.977153 92.644 170.5877
261.861055 92.638 170.5167
263.758608 92.631 170.4467
265.669911 92.624 170.3781
267.595065 92.617 170.3108
269.534169 92.610 170.2448
271.487325 92.604 170.1797
273.454634 92.597 170.1151
275.436199 92.590 170.0508
277.432123 92.583 169.9864
279.442511 92.577 169.9217
281.467467 92.571 169.8566
283.507096 92.565 169.7913
285.561505 92.560 169.7261
287.630801 92.554 169.6617
289.715093 92.550 169.5989
291.814488 92.545 169.5386
293.929096 92.541 169.4818
296.059027 92.537 169.4292
298.204393 92.534 169.3813
300.365305 92.530 169.3382
302.541876 92.527 169.2994
304.734219 92.525 169.2645
306.942449 92.522 169.2326
309.166680 92.520 169.2030
311.407029 92.518 169.1751
313.663613 92.516 169.1485
315.936549 92.515 169.1229
318.225955 92.513 169.0983
320.531952 92.512 169.0748
322.854659 92.510 169.0526
325.194197 92.508 169.0317
327.550688 92.506 169.0123
329.924255 92.503 168.9942
332.315022 92.501 168.9776
334.723114 92.497 168.9623
337.148655 92.493 168.9487
339.591774 92.488 168.9366
342.052596 92.482 168.9263
344.531250 92.476 168.9178
347.027865 92.468 168.9109
349.542572 92.459 168.9053
352.075502 92.449 168.9008
354.626786 92.438 168.8971
357.196558 92.426 168.8940
359.784951 92.412 168.8916
362.392101 92.398 168.8895
365.018144 92.382 168.8879
367.663216 92.366 168.8869
370.327455 92.349 168.8867
373.011000 92.331 168.8875
375.713992 92.314 168.8896
378.436570 92.296 168.8932
381.178878 92.278 168.8984
383.941057 92.260 168.9052
386.723252 92.242 168.9137
389.525608 92.223 168.9237
392.348271 92.205 168.9354
395.191389 92.187 168.9489
398.055108 92.168 168.9641
400.939580 92.149 168.9811
403.844953 92.130 169.0000
406.771380 92.110 169.0208
409.719013 92.090 169.0432
412.688006 92.068 169.0672
415.678514 92.046 169.0925
418.690692 92.022 169.1190
421.724697 91.998 169.1464
424.780688 91.971 169.1749
427.858824 91.944 169.2043
430.959265 91.915 169.2347
434.082174 91.884 169.2663
437.227712 91.852 169.2991
440.396044 91.818 169.3332
443.587336 91.783 169.3686
446.801752 91.747 169.4053
450.039462 91.710 169.4433
453.300634 91.672 169.4828
456.585437 91.633 169.5240
459.894043 91.593 169.5677
463.226625 91.553 169.6141
466.583356 91.514 169.6636
469.964411 91.475 169.7164
473.369967 91.437 169.7721
476.800201 91.400 169.8303
480.255292 91.364 169.8905
483.735420 91.330 169.9521
487.240766 91.297 170.0148
490.771513 91.265 170.0781
494.327846 91.235 170.1417
497.909949 91.206 170.2054
501.518010 91.178 170.2687
505.152216 91.153 170.3313
508.812758 91.129 170.3929
512.499825 91.106 170.4532
516.213610 91.085 170.5121
519.954306 91.066 170.5694
523.722109 91.049 170.6251
527.517216 91.034 170.6792
531.339823 91.021 170.7320
535.190130 91.010 170.7838
539.068339 91.001 170.8350
542.974650 90.994 170.8862
546.909268 90.988 170.9379
550.872398 90.984 170.9905
554.864247 90.983 171.0444
558.885022 90.983 171.0995
562.934933 90.984 171.1556
567.014192 90.987 171.2126
571.123010 90.991 171.2704
575.261603 90.997 171.3289
579.430186 91.003 171.3887
583.628976 91.009 171.4501
587.858192 91.015 171.5139
592.118055 91.022 171.5807
596.408786 91.027 171.6512
600.730610 91.033 171.7261
605.083752 91.037 171.8054
609.468438 91.041 171.8892
613.884897 91.045 171.9767
618.333360 91.047 172.0674
622.814059 91.050 172.1602
627.327226 91.051 172.2540
631.873098 91.052 172.3480
636.451911 91.051 172.4415
641.063904 91.050 172.5342
645.709317 91.048 172.6260
650.388393 91.045 172.7174
655.101375 91.041 172.8091
659.848510 91.035 172.9018
664.630044 91.029 172.9963
669.446228 91.022 173.0931
674.297311 91.014 173.1921
679.183547 91.006 173.2928
684.105191 90.998 173.3943
689.062499 90.989 173.4952
694.055730 90.980 173.5939
699.085144 90.971 173.6886
704.151003 90.961 173.7778
709.253572 90.950 173.8604
714.393116 90.938 173.9354
719.569903 90.925 174.0028
724.784203 90.910 174.0628
730.036288 90.893 174.1161
735.326432 90.874 174.1638
740.654910 90.852 174.2078
746.022001 90.827 174.2504
751.427984 90.799 174.2945
756.873141 90.769 174.3433
762.357756 90.735 174.4003
767.882114 90.700 174.4683
773.446504 90.663 174.5495
779.051217 90.625 174.6448
784.696543 90.586 174.7539
790.382778 90.548 174.8752
796.110217 90.511 175.0058
801.879160 90.476 175.1421
807.689907 90.443 175.2797
813.542761 90.413 175.4140
819.438027 90.384 175.5405
825.376013 90.358 175.6552
831.357028 90.333 175.7551
837.381383 90.309 175.8388
843.449394 90.285 175.9062
849.561376 90.260 175.9589
855.717648 90.235 175.9998
861.918531 90.208 176.0331
868.164348 90.178 176.0637
874.455424 90.147 176.0974
880.792089 90.113 176.1403
887.174671 90.077 176.1987
893.603505 90.040 176.2784
900.078924 90.002 176.3850
906.601267 89.964 176.5225
913.170874 89.927 176.6934
919.788086 89.893 176.8981
926.453250 89.863 177.1344
933.166712 89.837 177.3980
939.928823 89.817 177.6829
946.739934 89.804 177.9821
953.600402 89.797 178.2885
960.510584 89.798 178.5953
967.470839 89.804 178.8973
974.481532 89.817 179.1900
981.543027 89.836 179.4703
988.655692 89.860 179.7362
995.819899 89.889 179.9865
1003.036020 89.922 -179.7793
1010.304433 89.959 -179.5611
1017.625515 89.999 -179.3583
1024.999649 90.043 -179.1701
1032.427219 90.089 -178.9957
1039.908612 90.138 -178.8341
1047.444219 90.188 -178.6847
1055.034432 90.241 -178.5472
1062.679646 90.295 -178.4209
1070.380261 90.351 -178.3054
1078.136677 90.407 -178.2001
1085.949300 90.464 -178.1045
1093.818536 90.522 -178.0180
1101.744796 90.579 -177.9401
1109.728493 90.637 -177.8702
1117.770043 90.694 -177.8077
1125.869866 90.751 -177.7518
1134.028383 90.807 -177.7019
1142.246020 90.863 -177.6575
1150.523206 90.918 -177.6181
1158.860371 90.972 -177.5835
1167.257951 91.026 -177.5538
1175.716383 91.078 -177.5287
1184.236109 91.130 -177.5078
1192.817572 91.181 -177.4906
1201.461220 91.231 -177.4762
1210.167503 91.281 -177.4640
1218.936876 91.330 -177.4538
1227.769795 91.378 -177.4453
1236.666721 91.426 -177.4385
1245.628118 91.473 -177.4328
1254.654453 91.520 -177.4275
1263.746196 91.566 -177.4221
1272.903822 91.612 -177.4159
1282.127808 91.658 -177.4089
1291.418634 91.704 -177.4011
1300.776786 91.749 -177.3928
1310.202751 91.794 -177.3840
1319.697020 91.839 -177.3747
1329.260089 91.883 -177.3650
1338.892455 91.928 -177.3549
1348.594622 91.972 -177.3444
1358.367094 92.016 -177.3332
1368.210382 92.060 -177.3207
1378.124999 92.103 -177.3066
1388.111461 92.147 -177.2904
1398.170288 92.192 -177.2719
1408.302007 92.237 -177.2507
1418.507144 92.283 -177.2265
1428.786231 92.330 -177.1990
1439.139805 92.378 -177.1682
1449.568405 92.428 -177.1337
1460.072576 92.478 -177.0954
1470.652863 92.530 -177.0530
1481.309820 92.583 -177.0067
1492.044002 92.636 -176.9567
1502.855968 92.691 -176.9030
1513.746282 92.745 -176.8455
1524.715511 92.799 -176.7843
1535.764228 92.852 -176.7191
1546.893009 92.904 -176.6493
1558.102433 92.954 -176.5741
1569.393086 93.001 -176.4924
1580.765555 93.047 -176.4026
1592.220434 93.089 -176.3037
1603.758320 93.128 -176.1947
1615.379813 93.165 -176.0759
1627.085521 93.200 -175.9482
1638.876054 93.232 -175.8129
1650.752025 93.261 -175.6723
1662.714055 93.289 -175.5282
1674.762766 93.315 -175.3824
1686.898788 93.338 -175.2360
1699.122752 93.359 -175.0886
1711.435296 93.377 -174.9393
1723.837061 93.394 -174.7860
1736.328695 93.408 -174.6268
1748.910849 93.421 -174.4598
1761.584178 93.433 -174.2837
1774.349343 93.444 -174.0988
1787.207010 93.456 -173.9065
1800.157848 93.468 -173.7097
1813.202534 93.480 -173.5122
1826.341747 93.493 -173.3180
1839.576172 93.506 -173.1307
1852.906500 93.519 -172.9531
1866.333424 93.530 -172.7868
1879.857645 93.540 -172.6322
1893.479869 93.548 -172.4882
1907.200804 93.553 -172.3529
1921.021168 93.554 -172.2239
1934.941679 93.552 -172.0977
1948.963064 93.547 -171.9714
1963.086054 93.538 -171.8419
1977.311384 93.526 -171.7074
1991.639798 93.512 -171.5676
2006.072041 93.495 -171.4232
2020.608866 93.478 -171.2762
2035.251031 93.459 -171.1292
2049.999299 93.440 -170.9851
2064.854438 93.419 -170.8465
2079.817225 93.399 -170.7150
2094.888438 93.377 -170.5917
2110.068863 93.355 -170.4767
2125.359292 93.332 -170.3690
2140.760521 93.308 -170.2675
2156.273355 93.283 -170.1701
2171.898600 93.258 -170.0750
2187.637073 93.232 -169.9799
2203.489593 93.207 -169.8828
2219.456987 93.181 -169.7821
2235.540087 93.156 -169.6761
2251.739732 93.132 -169.5640
2268.056766 93.109 -169.4452
2284.492041 93.088 -169.3199
2301.046412 93.070 -169.1888
2317.720742 93.054 -169.0531
2334.515902 93.042 -168.9147
2351.432767 93.033 -168.7757
2368.472218 93.028 -168.6385
2385.635144 93.027 -168.5052
2402.922440 93.030 -168.3777
2420.335006 93.037 -168.2576
2437.873752 93.048 -168.1456
2455.539590 93.064 -168.0422
2473.333442 93.083 -167.9478
2491.256235 93.107 -167.8626
2509.308905 93.135 -167.7868
2527.492392 93.167 -167.7206
2545.807644 93.203 -167.6642
2564.255615 93.244 -167.6175
2582.837268 93.288 -167.5804
2601.553572 93.337 -167.5525
2620.405502 93.389 -167.5336
2639.394040 93.445 -167.5233
2658.520177 93.505 -167.5213
2677.784910 93.569 -167.5278
2697.189244 93.636 -167.5427
2716.734189 93.707 -167.5668
2736.420765 93.781 -167.6012
2756.249998 93.858 -167.6473
2776.222921 93.937 -167.7065
2796.340577 94.019 -167.7800
2816.604013 94.103 -167.8683
2837.014287 94.188 -167.9717
2857.572462 94.274 -168.0901
2878.279610 94.360 -168.2229
2899.136811 94.445 -168.3698
2920.145151 94.529 -168.5302
2941.305727 94.612 -168.7040
2962.619641 94.693 -168.8916
2984.088004 94.772 -169.0928
3005.711935 94.846 -169.3075
3027.492563 94.916 -169.5347
3049.431022 94.982 -169.7725
3071.528457 95.041 -170.0186
3093.786018 95.094 -170.2705
3116.204867 95.141 -170.5258
3138.786172 95.180 -170.7829
3161.531110 95.213 -171.0407
3184.440868 95.238 -171.2986
3207.516639 95.256 -171.5560
3230.759627 95.266 -171.8121
3254.171043 95.268 -172.0660
3277.752108 95.263 -172.3167
3301.504051 95.249 -172.5635
3325.428110 95.228 -172.8053
3349.525533 95.200 -173.0415
3373.797576 95.164 -173.2712
3398.245504 95.121 -173.4938
3422.870591 95.071 -173.7087
3447.674123 95.015 -173.9153
3472.657391 94.954 -174.1127
3497.821698 94.887 -174.2998
3523.168356 94.815 -174.4750
3548.698686 94.739 -174.6365
3574.414019 94.659 -174.7818
3600.315697 94.577 -174.9086
3626.405068 94.493 -175.0147
3652.683494 94.407 -175.0982
3679.152345 94.322 -175.1578
3705.812999 94.238 -175.1926
3732.666848 94.155 -175.2020
3759.715291 94.076 -175.1855
3786.959737 94.000 -175.1427
3814.401609 93.928 -175.0731
3842.042335 93.862 -174.9765
3869.883358 93.802 -174.8523
3897.926128 93.748 -174.7001
3926.172107 93.700 -174.5196
3954.622769 93.660 -174.3102
3983.279596 93.628 -174.0715
4012.144082 93.603 -173.8032
4041.217732 93.586 -173.5053
4070.502061 93.578 -173.1780
4099.998597 93.577 -172.8218
4129.708877 93.586 -172.4376
4159.634450 93.603 -172.0274
4189.776876 93.629 -171.5938
4220.137726 93.664 -171.1410
4250.718584 93.708 -170.6751
4281.521043 93.761 -170.2035
4312.546709 93.824 -169.7357
4343.797200 93.895 -169.2823
4375.274146 93.975 -168.8542
4406.979186 94.062 -168.4630
4438.913974 94.155 -168.1194
4471.080174 94.254 -167.8336
4503.479464 94.357 -167.6147
4536.113533 94.462 -167.4703
4568.984081 94.568 -167.4062
4602.092823 94.675 -167.4262
4635.441485 94.780 -167.5323
4669.031805 94.881 -167.7243
4702.865534 94.979 -168.0005
4736.944436 95.072 -168.3573
4771.270288 95.159 -168.7904
4805.844880 95.239 -169.2943
4840.670013 95.313 -169.8638
4875.747503 95.381 -170.4939
4911.079179 95.442 -171.1799
4946.666884 95.496 -171.9180
4982.512471 95.543 -172.7045
5018.617810 95.584 -173.5360
5054.984784 95.618 -174.4094
5091.615287 95.645 -175.3212
5128.511230 95.665 -176.2679
5165.674537 95.676 -177.2449
5203.107144 95.679 -178.2473
5240.811003 95.673 -179.2683
5278.788080 95.656 179.6995
5317.040355 95.630 178.6652
5355.569821 95.592 177.6387
5394.378487 95.544 176.6308
5433.468378 95.485 175.6526
5472.841529 95.415 174.7147
5512.499995 95.337 173.8267
5552.445842 95.250 172.9969
5592.681154 95.156 172.2312
5633.208027 95.056 171.5336
5674.028574 94.952 170.9057
5715.144924 94.844 170.3467
5756.559221 94.735 169.8538
5798.273622 94.624 169.4224
5840.290302 94.511 169.0471
5882.611454 94.397 168.7228
5925.239281 94.280 168.4453
5968.176007 94.160 168.2126
6011.423871 94.035 168.0259
6054.985126 93.904 167.8897
6098.862045 93.765 167.8122
6143.056913 93.617 167.8054
6187.572036 93.461 167.8847
6232.409733 93.295 168.0683
6277.572344 93.121 168.3760
6323.062220 92.939 168.8288
6368.881736 92.753 169.4466
6415.033278 92.565 170.2478
6461.519254 92.380 171.2469
6508.342086 92.203 172.4536
6555.504216 92.039 173.8712
6603.008102 91.894 175.4954
6650.856220 91.776 177.3128
6699.051066 91.690 179.3000
6747.595151 91.644 -178.5781
6796.491007 91.644 -176.3684
6845.741183 91.694 -174.1301
6895.348246 91.798 -171.9328
6945.314781 91.956 -169.8541
6995.643395 92.167 -167.9738
7046.336711 92.425 -166.3685
7097.397372 92.725 -165.1049
7148.828039 93.056 -164.2353
7200.631394 93.409 -163.7955
7252.810137 93.773 -163.8044
7305.366989 94.138 -164.2658
7358.304690 94.494 -165.1713
7411.625999 94.831 -166.5025
7465.333696 95.143 -168.2342
7519.430581 95.420 -170.3358
7573.919475 95.659 -172.7735
7628.803218 95.852 -175.5113
7684.084670 95.996 -178.5113
7739.766716 96.086 178.2656
7795.852256 96.119 174.8601
7852.344215 96.092 171.3146
7909.245538 96.000 167.6741
7966.559191 95.843 163.9866
8024.288163 95.619 160.3040
8082.435463 95.324 156.6838
8141.004122 94.958 153.1893
8199.997194 94.522 149.8922
8259.417754 94.014 146.8733
8319.268900 93.438 144.2270
8379.553752 92.795 142.0651
8440.275452 92.089 140.5255
8501.437168 91.328 139.7831
8563.042086 90.521 140.0675
8625.093419 89.680 141.6819
8687.594401 88.824 145.0162
8750.548291 87.979 150.5151
8813.958371 87.177 158.5154
8877.827947 86.460 168.8629
8942.160348 85.871 -179.4918
9006.958928 85.451 -168.2424
9072.227065 85.220 -158.7468
9137.968162 85.179 -151.4535
9204.185647 85.306 -146.1628
9270.882970 85.564 -142.4684
9338.063610 85.916 -139.9899
9405.731068 86.327 -138.4373
9473.888873 86.771 -137.6061
9542.540577 87.228 -137.3570
9611.689759 87.683 -137.5955
9681.340025 88.127 -138.2571
9751.495006 88.551 -139.2963
9822.158359 88.950 -140.6787
9893.333767 89.319 -142.3763
9965.024942 89.652 -144.3633
10037.235620 89.946 -146.6143
10109.969567 90.196 -149.1021
10183.230574 90.401 -151.7973
10257.022461 90.556 -154.6681
10331.349074 90.659 -157.6799
10406.214288 90.709 -160.7963
10481.622007 90.705 -163.9796
10557.576160 90.646 -167.1918
10634.080709 90.534 -170.3952
10711.139642 90.369 -173.5536
10788.756975 90.152 -176.6328
10866.936755 89.888 -179.6010
10945.683059 89.578 177.5708
11024.999990 89.225 174.9089
11104.891685 88.833 172.4364
11185.362308 88.406 170.1729
11266.416054 87.949 168.1335
11348.057149 87.466 166.3279
11430.289849 86.963 164.7587
11513.118441 86.447 163.4201
11596.547243 85.922 162.2964
11680.580605 85.397 161.3623
11765.222907 84.877 160.5835
11850.478562 84.367 159.9193
11936.352015 83.872 159.3261
12022.847742 83.394 158.7621
12109.970253 82.934 158.1909
12197.724089 82.493 157.5845
12286.113826 82.069 156.9253
12375.144072 81.659 156.2048
12464.819467 81.263 155.4219
12555.144687 80.882 154.5792
12646.124441 80.516 153.6785
12737.763472 80.170 152.7166
12830.066557 79.851 151.6803
12923.038508 79.568 150.5422
13016.684172 79.332 149.2576
13111.008431 79.152 147.7637
13206.016203 79.038 145.9826
13301.712440 78.992 143.8279
13398.102132 79.013 141.2137
13495.190303 79.092 138.0648
13592.982015 79.216 134.3240
13691.482366 79.372 129.9568
13790.696491 79.545 124.9523
13890.629563 79.722 119.3211
13991.286791 79.898 113.0919
14092.673422 80.068 106.3069
14194.794743 80.235 99.0178
14297.656077 80.405 91.2821
14401.262787 80.586 83.1601
14505.620274 80.787 74.7129
14610.733978 81.018 66.0006
14716.609379 81.284 57.0799
14823.251997 81.589 48.0013
14930.667392 81.931 38.8067
15038.861162 82.304 29.5273
15147.838950 82.699 20.1827
15257.606435 83.103 10.7816
15368.169341 83.503 1.3239
15479.533431 83.885 -8.1957
15591.704511 84.234 -17.7833
15704.688430 84.536 -27.4413
15818.491076 84.779 -37.1636
15933.118383 84.953 -46.9327
16048.576327 85.049 -56.7192
16164.870926 85.061 -66.4835
16282.008245 84.987 -76.1784
16399.994388 84.825 -85.7545
16518.835508 84.577 -95.1624
16638.537799 84.248 -104.3574
16759.107503 83.841 -113.3029
16880.550905 83.366 -121.9705
17002.874335 82.832 -130.3436
17126.084171 82.251 -138.4153
17250.186837 81.639 -146.1903
17375.188802 81.016 -153.6856
17501.096582 80.408 -160.9335
17627.916743 79.848 -167.9863
17755.655894 79.373 -174.9208
17884.320696 79.020 178.1555
18013.917856 78.819 171.0999
18144.454131 78.780 163.7350
18275.936325 78.890 155.8518
18408.371293 79.115 147.2167
18541.765940 79.413 137.5791
18676.127219 79.741 126.6755
18811.462136 80.062 114.2520
18947.777745 80.350 100.1429
19085.081153 80.590 84.4648
19223.379519 80.773 67.9009
19362.680051 80.901 51.7810
19502.990012 80.980 37.6448
19644.316718 81.022 26.6101
19786.667534 81.039 19.1802
19930.049884 81.044 15.4705
