* Measurement data measured by REW V5.31.3
* Source: EXCL: Headset (USB-C to 3.5mm Headphone Jack Adapter), MICROPHONE (Master Volume), 0, volume: 0.750
* Format: 256k Log Swept Sine, 1 sweep at -12.0 dBFS with no timing reference
* Dated: Apr 7, 2025 12:28:50 PM
* REW Settings:
*  C-weighting compensation: Off
*  Target level: 75.0 dB
* Note: ; 
* Measurement: HD6XX (Back) R1
* Smoothing: 1/6 octave
* Frequency Step: 96 ppo
* Start Frequency: 20.0 Hz
*
* Freq(Hz) SPL(dB) Phase(degrees)
20.187378 79.700 -96.2618
20.333664 79.732 -96.3895
20.481010 79.775 -96.5661
20.629424 79.827 -96.7933
20.778913 79.887 -97.0718
20.929486 79.953 -97.4013
21.081150 80.024 -97.7799
21.233912 80.099 -98.2037
21.387782 80.177 -98.6675
21.542767 80.257 -99.1645
21.698874 80.340 -99.6870
21.856113 80.425 -100.2269
22.014492 80.513 -100.7760
22.174018 80.603 -101.3265
22.334700 80.696 -101.8714
22.496546 80.790 -102.4044
22.659566 80.885 -102.9202
22.823766 80.979 -103.4143
22.989157 81.072 -103.8827
23.155745 81.161 -104.3221
23.323542 81.245 -104.7297
23.492554 81.323 -105.1031
23.662790 81.392 -105.4404
23.834261 81.452 -105.7409
24.006973 81.502 -106.0047
24.180938 81.543 -106.2336
24.356163 81.573 -106.4312
24.532658 81.595 -106.6030
24.710431 81.610 -106.7564
24.889493 81.618 -106.9005
25.069853 81.621 -107.0452
25.251519 81.622 -107.2009
25.434502 81.621 -107.3771
25.618811 81.621 -107.5816
25.804456 81.622 -107.8196
25.991445 81.625 -108.0931
26.179790 81.631 -108.4006
26.369500 81.640 -108.7372
26.560584 81.654 -109.0956
26.753053 81.671 -109.4666
26.946917 81.692 -109.8402
27.142185 81.717 -110.2074
27.338869 81.745 -110.5603
27.536977 81.777 -110.8937
27.736522 81.811 -111.2049
27.937512 81.848 -111.4937
28.139959 81.886 -111.7623
28.343872 81.924 -112.0144
28.549264 81.963 -112.2546
28.756143 82.001 -112.4878
28.964522 82.040 -112.7191
29.174411 82.079 -112.9531
29.385821 82.119 -113.1946
29.598763 82.161 -113.4482
29.813248 82.207 -113.7186
30.029287 82.257 -114.0103
30.246891 82.313 -114.3275
30.466073 82.373 -114.6729
30.686842 82.439 -115.0480
30.909212 82.510 -115.4514
31.133193 82.584 -115.8793
31.358797 82.660 -116.3257
31.586035 82.738 -116.7823
31.814921 82.816 -117.2403
32.045465 82.894 -117.6911
32.277680 82.973 -118.1278
32.511577 83.053 -118.5456
32.747169 83.133 -118.9427
32.984469 83.216 -119.3195
33.223488 83.300 -119.6786
33.464239 83.388 -120.0236
33.706735 83.477 -120.3580
33.950987 83.569 -120.6849
34.197010 83.662 -121.0061
34.444816 83.757 -121.3227
34.694417 83.852 -121.6354
34.945827 83.949 -121.9449
35.199059 84.046 -122.2523
35.454126 84.143 -122.5594
35.711041 84.241 -122.8683
35.969818 84.338 -123.1814
36.230470 84.436 -123.5002
36.493011 84.532 -123.8258
36.757455 84.628 -124.1580
37.023814 84.722 -124.4962
37.292104 84.814 -124.8392
37.562338 84.905 -125.1862
37.834530 84.994 -125.5370
38.108695 85.080 -125.8922
38.384846 85.163 -126.2531
38.662999 85.243 -126.6212
38.943167 85.320 -126.9980
39.225365 85.393 -127.3847
39.509608 85.463 -127.7814
39.795911 85.531 -128.1875
40.084289 85.596 -128.6013
40.374756 85.660 -129.0202
40.667328 85.722 -129.4411
40.962020 85.784 -129.8601
41.258848 85.844 -130.2736
41.557827 85.904 -130.6782
41.858972 85.961 -131.0711
42.162299 86.017 -131.4511
42.467824 86.070 -131.8180
42.775564 86.119 -132.1732
43.085533 86.165 -132.5192
43.397749 86.209 -132.8592
43.712227 86.250 -133.1966
44.028983 86.290 -133.5347
44.348036 86.329 -133.8759
44.669400 86.369 -134.2213
44.993093 86.410 -134.5703
45.319131 86.451 -134.9200
45.647532 86.494 -135.2656
45.978313 86.536 -135.6011
46.311491 86.578 -135.9208
46.647083 86.618 -136.2209
46.985107 86.657 -136.5007
47.325581 86.693 -136.7631
47.668521 86.726 -137.0140
48.013947 86.756 -137.2603
48.361876 86.782 -137.5087
48.712326 86.805 -137.7640
49.065315 86.825 -138.0289
49.420863 86.842 -138.3041
49.778987 86.858 -138.5894
50.139706 86.874 -138.8844
50.503039 86.890 -139.1885
50.869005 86.907 -139.5009
51.237623 86.924 -139.8201
51.608912 86.942 -140.1440
51.982891 86.959 -140.4695
52.359580 86.974 -140.7935
52.739000 86.988 -141.1128
53.121168 87.000 -141.4251
53.506106 87.010 -141.7291
53.893833 87.019 -142.0248
54.284370 87.026 -142.3130
54.677737 87.033 -142.5950
55.073955 87.041 -142.8714
55.473043 87.050 -143.1416
55.875024 87.060 -143.4036
56.279917 87.071 -143.6547
56.687745 87.086 -143.8925
57.098527 87.102 -144.1163
57.512287 87.121 -144.3275
57.929045 87.141 -144.5308
58.348822 87.164 -144.7340
58.771642 87.190 -144.9471
59.197525 87.218 -145.1815
59.626495 87.249 -145.4472
60.058573 87.282 -145.7503
60.493782 87.317 -146.0910
60.932145 87.355 -146.4639
61.373685 87.395 -146.8589
61.818424 87.436 -147.2643
62.266386 87.479 -147.6693
62.717593 87.524 -148.0657
63.172071 87.569 -148.4481
63.629842 87.616 -148.8141
64.090930 87.663 -149.1636
64.555359 87.711 -149.4978
65.023154 87.759 -149.8193
65.494339 87.808 -150.1308
65.968938 87.856 -150.4350
66.446976 87.905 -150.7345
66.928478 87.952 -151.0315
67.413469 87.999 -151.3277
67.901975 88.045 -151.6251
68.394021 88.090 -151.9251
68.889632 88.134 -152.2294
69.388835 88.176 -152.5392
69.891655 88.217 -152.8556
70.398118 88.256 -153.1792
70.908252 88.293 -153.5102
71.422083 88.328 -153.8483
71.939636 88.361 -154.1921
72.460941 88.391 -154.5399
72.986023 88.419 -154.8897
73.514909 88.444 -155.2391
74.047629 88.468 -155.5863
74.584208 88.490 -155.9299
75.124676 88.509 -156.2690
75.669061 88.526 -156.6033
76.217390 88.541 -156.9327
76.769692 88.554 -157.2575
77.325997 88.565 -157.5788
77.886333 88.573 -157.8978
78.450730 88.580 -158.2158
79.019216 88.586 -158.5341
79.591822 88.590 -158.8533
80.168577 88.593 -159.1733
80.749512 88.596 -159.4934
81.334656 88.598 -159.8126
81.924040 88.599 -160.1296
82.517696 88.600 -160.4436
83.115653 88.601 -160.7537
83.717943 88.601 -161.0601
84.324598 88.602 -161.3632
84.935649 88.602 -161.6642
85.551128 88.602 -161.9644
86.171066 88.602 -162.2649
86.795497 88.602 -162.5664
87.424453 88.601 -162.8693
88.057967 88.600 -163.1732
88.696071 88.599 -163.4781
89.338800 88.597 -163.7835
89.986185 88.595 -164.0891
90.638262 88.592 -164.3944
91.295065 88.588 -164.6989
91.956626 88.585 -165.0022
92.622982 88.580 -165.3042
93.294166 88.576 -165.6048
93.970214 88.571 -165.9043
94.651161 88.566 -166.2028
95.337042 88.562 -166.5006
96.027894 88.557 -166.7974
96.723752 88.553 -167.0929
97.424652 88.548 -167.3869
98.130631 88.544 -167.6788
98.841726 88.540 -167.9686
99.557974 88.537 -168.2562
100.279412 88.533 -168.5418
101.006078 88.531 -168.8255
101.738010 88.529 -169.1079
102.475245 88.527 -169.3897
103.217823 88.526 -169.6720
103.965782 88.526 -169.9566
104.719161 88.526 -170.2453
105.477999 88.528 -170.5397
106.242336 88.530 -170.8401
107.012212 88.533 -171.1450
107.787666 88.537 -171.4519
108.568740 88.541 -171.7578
109.355474 88.546 -172.0603
110.147909 88.552 -172.3580
110.946086 88.558 -172.6506
111.750047 88.565 -172.9387
112.559834 88.572 -173.2235
113.375489 88.580 -173.5065
114.197055 88.589 -173.7887
115.024574 88.597 -174.0709
115.858089 88.606 -174.3529
116.697645 88.614 -174.6339
117.543284 88.622 -174.9129
118.395051 88.629 -175.1885
119.252990 88.636 -175.4600
120.117147 88.643 -175.7269
120.987565 88.648 -175.9890
121.864291 88.653 -176.2466
122.747370 88.657 -176.5002
123.636848 88.660 -176.7503
124.532771 88.662 -176.9974
125.435187 88.664 -177.2420
126.344142 88.666 -177.4846
127.259684 88.666 -177.7259
128.181860 88.666 -177.9660
129.110718 88.665 -178.2051
130.046308 88.663 -178.4432
130.988677 88.661 -178.6804
131.937875 88.657 -178.9170
132.893951 88.652 -179.1534
133.856956 88.645 -179.3899
134.826938 88.638 -179.6267
135.803950 88.629 -179.8638
136.788041 88.619 179.8991
137.779264 88.608 179.6625
138.777669 88.596 179.4267
139.783309 88.582 179.1921
140.796237 88.568 178.9591
141.816504 88.552 178.7280
142.844165 88.536 178.4989
143.879273 88.518 178.2720
144.921881 88.500 178.0476
145.972045 88.481 177.8255
147.029819 88.460 177.6055
148.095257 88.439 177.3870
149.168417 88.417 177.1695
150.249353 88.394 176.9524
151.338121 88.370 176.7355
152.434780 88.346 176.5189
153.539385 88.322 176.3029
154.651995 88.298 176.0880
155.772667 88.273 175.8738
156.901460 88.249 175.6603
158.038432 88.225 175.4471
159.183644 88.201 175.2342
160.337154 88.177 175.0217
161.499023 88.153 174.8103
162.669312 88.129 174.6003
163.848081 88.106 174.3921
165.035392 88.082 174.1855
166.231306 88.059 173.9806
167.435887 88.036 173.7769
168.649196 88.012 173.5740
169.871298 87.989 173.3719
171.102255 87.966 173.1702
172.342133 87.942 172.9690
173.590995 87.919 172.7681
174.848907 87.896 172.5677
176.115934 87.873 172.3682
177.392143 87.850 172.1700
178.677599 87.826 171.9740
179.972371 87.803 171.7806
181.276525 87.778 171.5901
182.590129 87.753 171.4025
183.913252 87.727 171.2171
185.245964 87.700 171.0337
186.588332 87.672 170.8521
187.940428 87.643 170.6721
189.302322 87.613 170.4942
190.674085 87.582 170.3192
192.055788 87.551 170.1480
193.447503 87.519 169.9820
194.849303 87.486 169.8220
196.261262 87.454 169.6685
197.683452 87.421 169.5215
199.115948 87.389 169.3808
200.558824 87.356 169.2458
202.012156 87.324 169.1158
203.476019 87.292 168.9897
204.950490 87.260 168.8671
206.435646 87.229 168.7472
207.931564 87.197 168.6296
209.438322 87.166 168.5138
210.955998 87.134 168.3997
212.484672 87.103 168.2880
214.024424 87.073 168.1798
215.575333 87.044 168.0760
217.137481 87.015 167.9773
218.710948 86.988 167.8842
220.295818 86.963 167.7965
221.892172 86.940 167.7140
223.500094 86.919 167.6361
225.119668 86.899 167.5621
226.750978 86.882 167.4908
228.394109 86.866 167.4212
230.049147 86.853 167.3521
231.716178 86.840 167.2820
233.395289 86.829 167.2094
235.086567 86.818 167.1331
236.790102 86.809 167.0522
238.505980 86.800 166.9664
240.234293 86.793 166.8756
241.975130 86.785 166.7799
243.728581 86.779 166.6794
245.494739 86.772 166.5744
247.273695 86.766 166.4658
249.065542 86.760 166.3549
250.870374 86.754 166.2435
252.688284 86.748 166.1335
254.519367 86.741 166.0263
256.363720 86.733 165.9223
258.221437 86.725 165.8214
260.092616 86.717 165.7231
261.977354 86.708 165.6263
263.875750 86.699 165.5306
265.787903 86.690 165.4352
267.713911 86.681 165.3399
269.653877 86.672 165.2447
271.607900 86.662 165.1497
273.576083 86.652 165.0554
275.558528 86.641 164.9622
277.555338 86.630 164.8709
279.566619 86.619 164.7825
281.592474 86.608 164.6979
283.633009 86.598 164.6180
285.688331 86.587 164.5428
287.758546 86.578 164.4722
289.843763 86.569 164.4049
291.944090 86.561 164.3399
294.059638 86.553 164.2757
296.190515 86.546 164.2115
298.336833 86.540 164.1472
300.498705 86.535 164.0831
302.676243 86.530 164.0203
304.869559 86.526 163.9592
307.078770 86.522 163.9006
309.303989 86.519 163.8448
311.545334 86.516 163.7917
313.802919 86.514 163.7415
316.076865 86.512 163.6943
318.367288 86.510 163.6503
320.674309 86.507 163.6095
322.998047 86.504 163.5719
325.338624 86.501 163.5373
327.696162 86.498 163.5052
330.070783 86.493 163.4753
332.462612 86.488 163.4471
334.871773 86.482 163.4208
337.298392 86.476 163.3965
339.742595 86.468 163.3745
342.204510 86.459 163.3549
344.684265 86.449 163.3377
347.181989 86.437 163.3224
349.697813 86.425 163.3084
352.231868 86.411 163.2950
354.784285 86.396 163.2814
357.355198 86.380 163.2670
359.944741 86.363 163.2512
362.553049 86.344 163.2335
365.180258 86.325 163.2141
367.826505 86.305 163.1934
370.491927 86.284 163.1722
373.176665 86.263 163.1517
375.880856 86.242 163.1328
378.604644 86.221 163.1161
381.348169 86.200 163.1019
384.111575 86.179 163.0899
386.895006 86.158 163.0797
389.698607 86.137 163.0708
392.522524 86.117 163.0625
395.366904 86.095 163.0545
398.231895 86.074 163.0465
401.117648 86.051 163.0385
404.024312 86.028 163.0309
406.952038 86.003 163.0244
409.900981 85.978 163.0193
412.871292 85.951 163.0159
415.863128 85.923 163.0142
418.876643 85.894 163.0143
421.911996 85.864 163.0161
424.969344 85.833 163.0194
428.048847 85.801 163.0241
431.150666 85.767 163.0299
434.274961 85.733 163.0366
437.421897 85.696 163.0439
440.591636 85.659 163.0519
443.784345 85.620 163.0606
447.000189 85.581 163.0706
450.239337 85.540 163.0824
453.501956 85.498 163.0970
456.788219 85.457 163.1153
460.098294 85.415 163.1376
463.432356 85.373 163.1639
466.790578 85.332 163.1939
470.173135 85.292 163.2267
473.580203 85.253 163.2614
477.011961 85.214 163.2969
480.468586 85.177 163.3327
483.950259 85.140 163.3684
487.457163 85.105 163.4037
490.989478 85.071 163.4387
494.547390 85.038 163.4734
498.131084 85.006 163.5079
501.740748 84.976 163.5422
505.376568 84.947 163.5765
509.038735 84.919 163.6105
512.727439 84.892 163.6441
516.442874 84.867 163.6772
520.185232 84.844 163.7095
523.954708 84.822 163.7411
527.751500 84.802 163.7719
531.575805 84.784 163.8022
535.427822 84.768 163.8320
539.307753 84.754 163.8616
543.215800 84.741 163.8911
547.152165 84.731 163.9209
551.117055 84.722 163.9511
555.110677 84.715 163.9823
559.133237 84.710 164.0148
563.184947 84.706 164.0491
567.266018 84.704 164.0860
571.376661 84.702 164.1260
575.517092 84.702 164.1700
579.687526 84.702 164.2183
583.888181 84.702 164.2711
588.119275 84.702 164.3278
592.381030 84.703 164.3873
596.673667 84.703 164.4485
600.997410 84.704 164.5100
605.352485 84.704 164.5712
609.739119 84.704 164.6320
614.157540 84.703 164.6928
618.607979 84.702 164.7547
623.090667 84.701 164.8186
627.605839 84.698 164.8854
632.153730 84.695 164.9551
636.734576 84.691 165.0277
641.348617 84.687 165.1025
645.996094 84.682 165.1789
650.677248 84.676 165.2560
655.392323 84.669 165.3329
660.141566 84.662 165.4084
664.925224 84.653 165.4816
669.743546 84.644 165.5513
674.596784 84.634 165.6170
679.485191 84.623 165.6783
684.409020 84.611 165.7354
689.368530 84.597 165.7888
694.363979 84.582 165.8393
699.395626 84.564 165.8878
704.463736 84.545 165.9355
709.568570 84.524 165.9835
714.710396 84.500 166.0331
719.889483 84.475 166.0860
725.106099 84.446 166.1441
730.360516 84.416 166.2093
735.653010 84.384 166.2834
740.983855 84.350 166.3676
746.353329 84.314 166.4626
751.761713 84.278 166.5681
757.209288 84.241 166.6828
762.696339 84.205 166.8049
768.223151 84.168 166.9318
773.790013 84.132 167.0602
779.397214 84.098 167.1866
785.045047 84.064 167.3075
790.733808 84.031 167.4196
796.463791 83.999 167.5198
802.235296 83.967 167.6061
808.048623 83.936 167.6767
813.904077 83.905 167.7308
819.801961 83.874 167.7685
825.742584 83.842 167.7908
831.726255 83.808 167.7997
837.753287 83.773 167.7981
843.823992 83.736 167.7892
849.938689 83.697 167.7773
856.097695 83.655 167.7665
862.301332 83.610 167.7622
868.549922 83.561 167.7700
874.843793 83.510 167.7959
881.183272 83.456 167.8469
887.568689 83.401 167.9300
894.000378 83.343 168.0519
900.478673 83.286 168.2185
907.003913 83.229 168.4337
913.576437 83.176 168.6986
920.196588 83.127 169.0114
926.864712 83.084 169.3663
933.581156 83.049 169.7550
940.346270 83.023 170.1667
947.160407 83.007 170.5901
954.023921 83.000 171.0136
960.937172 83.002 171.4273
967.900519 83.013 171.8228
974.914325 83.032 172.1938
981.978956 83.057 172.5367
989.094780 83.088 172.8496
996.262169 83.124 173.1328
1003.481495 83.163 173.3876
1010.753136 83.206 173.6163
1018.077470 83.252 173.8218
1025.454879 83.300 174.0067
1032.885748 83.350 174.1736
1040.370463 83.401 174.3247
1047.909417 83.453 174.4620
1055.503000 83.507 174.5872
1063.151610 83.561 174.7021
1070.855645 83.615 174.8085
1078.615506 83.670 174.9081
1086.431599 83.724 175.0020
1094.304330 83.779 175.0909
1102.234110 83.834 175.1754
1110.221353 83.890 175.2559
1118.266475 83.945 175.3325
1126.369895 84.000 175.4052
1134.532035 84.054 175.4740
1142.753322 84.109 175.5385
1151.034184 84.164 175.5981
1159.375052 84.218 175.6524
1167.776361 84.272 175.7010
1176.238550 84.326 175.7435
1184.762060 84.380 175.7797
1193.347334 84.433 175.8098
1201.994821 84.485 175.8336
1210.704971 84.538 175.8513
1219.478238 84.589 175.8630
1228.315080 84.640 175.8690
1237.215957 84.690 175.8701
1246.181334 84.739 175.8672
1255.211678 84.787 175.8615
1264.307459 84.835 175.8540
1273.469152 84.882 175.8458
1282.697235 84.927 175.8376
1291.992188 84.973 175.8304
1301.354495 85.018 175.8246
1310.784647 85.062 175.8207
1320.283132 85.106 175.8191
1329.850448 85.149 175.8194
1339.487093 85.193 175.8215
1349.193569 85.236 175.8253
1358.970381 85.278 175.8305
1368.818041 85.321 175.8372
1378.737061 85.363 175.8454
1388.727958 85.405 175.8554
1398.791253 85.448 175.8677
1408.927471 85.491 175.8826
1419.137140 85.535 175.9007
1429.420793 85.580 175.9224
1439.778965 85.626 175.9478
1450.212197 85.674 175.9772
1460.721033 85.723 176.0104
1471.306019 85.773 176.0469
1481.967709 85.824 176.0862
1492.706658 85.876 176.1278
1503.523426 85.928 176.1716
1514.418576 85.980 176.2177
1525.392678 86.031 176.2667
1536.446302 86.081 176.3195
1547.580025 86.129 176.3773
1558.794428 86.174 176.4412
1570.090095 86.217 176.5125
1581.467615 86.258 176.5919
1592.927581 86.295 176.6797
1604.470591 86.329 176.7765
1616.097246 86.359 176.8823
1627.808153 86.386 176.9978
1639.603922 86.410 177.1239
1651.485168 86.429 177.2618
1663.452510 86.446 177.4126
1675.506573 86.459 177.5774
1687.647984 86.470 177.7567
1699.877377 86.478 177.9507
1712.195390 86.485 178.1595
1724.602663 86.490 178.3829
1737.099845 86.494 178.6209
1749.687587 86.498 178.8733
1762.366544 86.502 179.1400
1775.137379 86.506 179.4208
1788.000756 86.511 179.7152
1800.957346 86.516 -179.9779
1814.007826 86.523 -179.6602
1827.152874 86.532 -179.3344
1840.393177 86.542 -179.0035
1853.729425 86.553 -178.6709
1867.162312 86.566 -178.3397
1880.692540 86.581 -178.0128
1894.320813 86.596 -177.6932
1908.047843 86.612 -177.3829
1921.874344 86.627 -177.0840
1935.801038 86.643 -176.7973
1949.828650 86.657 -176.5230
1963.957912 86.671 -176.2606
1978.189561 86.684 -176.0092
1992.524338 86.696 -175.7682
2006.962991 86.707 -175.5378
2021.506272 86.718 -175.3188
2036.154940 86.728 -175.1126
2050.909758 86.739 -174.9217
2065.771495 86.750 -174.7484
2080.740927 86.761 -174.5954
2095.818833 86.773 -174.4647
2111.006001 86.785 -174.3577
2126.303220 86.797 -174.2751
2141.711290 86.809 -174.2174
2157.231013 86.822 -174.1845
2172.863198 86.833 -174.1763
2188.608660 86.844 -174.1921
2204.468221 86.855 -174.2309
2220.442706 86.864 -174.2907
2236.532950 86.871 -174.3683
2252.739789 86.877 -174.4599
2269.064070 86.881 -174.5615
2285.506644 86.883 -174.6689
2302.068367 86.885 -174.7791
2318.750104 86.885 -174.8897
2335.552723 86.886 -174.9992
2352.477101 86.886 -175.1066
2369.524119 86.888 -175.2120
2386.694668 86.891 -175.3160
2403.989641 86.896 -175.4198
2421.409941 86.903 -175.5250
2438.956476 86.912 -175.6337
2456.630160 86.924 -175.7475
2474.431915 86.939 -175.8679
2492.362668 86.956 -175.9958
2510.423356 86.975 -176.1311
2528.614918 86.997 -176.2729
2546.938304 87.020 -176.4193
2565.394469 87.045 -176.5681
2583.984375 87.072 -176.7164
2602.708991 87.101 -176.8619
2621.569293 87.133 -177.0023
2640.566265 87.167 -177.1362
2659.700897 87.204 -177.2624
2678.974186 87.244 -177.3810
2698.387137 87.288 -177.4926
2717.940763 87.336 -177.5987
2737.636082 87.388 -177.7017
2757.474121 87.443 -177.8044
2777.455915 87.503 -177.9097
2797.582506 87.566 -178.0208
2817.854942 87.632 -178.1397
2838.274281 87.700 -178.2681
2858.841586 87.770 -178.4070
2879.557931 87.842 -178.5567
2900.424394 87.914 -178.7175
2921.442065 87.986 -178.8898
2942.612039 88.057 -179.0739
2963.935418 88.128 -179.2704
2985.413316 88.196 -179.4794
3007.046852 88.262 -179.7013
3028.837153 88.325 -179.9359
3050.785356 88.383 179.8171
3072.892604 88.437 179.5580
3095.160050 88.486 179.2874
3117.588856 88.529 179.0058
3140.180190 88.565 178.7141
3162.935230 88.594 178.4132
3185.855163 88.615 178.1041
3208.941182 88.629 177.7875
3232.194493 88.635 177.4641
3255.616307 88.632 177.1343
3279.207844 88.621 176.7990
3302.970336 88.601 176.4594
3326.905021 88.572 176.1171
3351.013146 88.533 175.7748
3375.295969 88.486 175.4354
3399.754755 88.430 175.1021
3424.390779 88.365 174.7778
3449.205326 88.292 174.4659
3474.199690 88.211 174.1689
3499.375173 88.124 173.8895
3524.733088 88.030 173.6303
3550.274757 87.931 173.3936
3576.001511 87.828 173.1813
3601.914692 87.721 172.9952
3628.015651 87.613 172.8366
3654.305748 87.502 172.7063
3680.786354 87.392 172.6048
3707.458849 87.282 172.5322
3734.324624 87.174 172.4885
3761.385080 87.068 172.4735
3788.641627 86.966 172.4874
3816.095686 86.867 172.5303
3843.748688 86.773 172.6030
3871.602076 86.683 172.7065
3899.657300 86.599 172.8423
3927.915825 86.521 173.0121
3956.379122 86.448 173.2176
3985.048676 86.382 173.4608
4013.925981 86.323 173.7431
4043.012544 86.271 174.0660
4072.309879 86.227 174.4303
4101.819515 86.191 174.8356
4131.542990 86.164 175.2802
4161.481854 86.147 175.7611
4191.637667 86.139 176.2733
4222.012001 86.141 176.8105
4252.606441 86.153 177.3645
4283.422580 86.175 177.9253
4314.462026 86.207 178.4817
4345.726396 86.248 179.0215
4377.217321 86.297 179.5323
4408.936442 86.353 -179.9980
4440.885413 86.415 -179.5808
4473.065899 86.481 -179.2257
4505.479579 86.550 -178.9406
4538.128141 86.619 -178.7311
4571.013288 86.688 -178.6005
4604.136735 86.753 -178.5497
4637.500207 86.814 -178.5775
4671.105446 86.870 -178.6808
4704.954201 86.918 -178.8547
4739.048239 86.959 -179.0927
4773.389336 86.991 -179.3873
4807.979283 87.014 -179.7301
4842.819883 87.027 179.8879
4877.912952 87.031 179.4755
4913.260320 87.025 179.0414
4948.863830 87.011 178.5937
4984.725337 86.988 178.1400
5020.846712 86.958 177.6870
5057.229836 86.920 177.2406
5093.876609 86.875 176.8065
5130.788938 86.824 176.3900
5167.968750 86.767 175.9964
5205.417982 86.704 175.6320
5243.138586 86.636 175.3041
5281.132530 86.562 175.0210
5319.401793 86.483 174.7926
5357.948371 86.400 174.6298
5396.774274 86.313 174.5444
5435.881525 86.224 174.5480
5475.272163 86.135 174.6516
5514.948243 86.048 174.8640
5554.911831 85.965 175.1914
5595.165012 85.890 175.6361
5635.709884 85.826 176.1958
5676.548561 85.775 176.8634
5717.683172 85.740 177.6264
5759.115861 85.724 178.4671
5800.848789 85.726 179.3637
5842.884130 85.749 -179.7086
5885.224077 85.791 -178.7761
5927.870837 85.852 -177.8640
5970.826633 85.929 -176.9957
6014.093704 86.019 -176.1912
6057.674306 86.120 -175.4665
6101.570711 86.228 -174.8330
6145.785208 86.339 -174.2978
6190.320101 86.451 -173.8634
6235.177712 86.560 -173.5284
6280.360380 86.663 -173.2868
6325.870460 86.757 -173.1282
6371.710325 86.839 -173.0382
6417.882365 86.909 -172.9985
6464.388986 86.964 -172.9866
6511.232613 87.005 -172.9774
6558.415689 87.032 -172.9428
6605.940673 87.046 -172.8538
6653.810042 87.053 -172.6818
6702.026292 87.055 -172.4015
6750.591937 87.060 -171.9942
6799.509509 87.075 -171.4521
6848.781558 87.108 -170.7829
6898.410653 87.168 -170.0129
6948.399380 87.262 -169.1892
6998.750346 87.395 -168.3778
7049.466176 87.568 -167.6579
7100.549514 87.780 -167.1130
7152.003023 88.024 -166.8206
7203.829385 88.291 -166.8430
7256.031302 88.570 -167.2222
7308.611496 88.849 -167.9775
7361.572708 89.119 -169.1081
7414.917698 89.368 -170.5965
7468.649249 89.589 -172.4138
7522.770160 89.774 -174.5236
7577.283253 89.918 -176.8857
7632.191371 90.017 -179.4579
7687.497376 90.066 177.8027
7743.204151 90.064 174.9399
7799.314600 90.007 171.9985
7855.831649 89.894 169.0262
7912.758244 89.722 166.0737
7970.097352 89.490 163.1962
8027.851962 89.198 160.4536
8086.025087 88.846 157.9111
8144.619758 88.436 155.6384
8203.639030 87.970 153.7092
8263.085980 87.453 152.2000
8322.963708 86.892 151.1870
8383.275334 86.296 150.7427
8444.024002 85.674 150.9283
8505.212881 85.042 151.7837
8566.845160 84.415 153.3134
8628.924051 83.812 155.4707
8691.452792 83.254 158.1472
8754.434642 82.759 161.1746
8817.872884 82.343 164.3441
8881.770826 82.015 167.4409
8946.131799 81.775 170.2803
9010.959157 81.618 172.7313
9076.256282 81.531 174.7227
9142.026576 81.497 176.2343
9208.273470 81.501 177.2811
9275.000415 81.527 177.8990
9342.210891 81.562 178.1318
9409.908403 81.595 178.0249
9478.096478 81.619 177.6208
9546.778672 81.626 176.9581
9615.958566 81.610 176.0714
9685.639765 81.567 174.9933
9755.825904 81.494 173.7557
9826.520640 81.385 172.3911
9897.727659 81.238 170.9340
9969.450674 81.051 169.4213
10041.693423 80.821 167.8918
10114.459673 80.547 166.3864
10187.753217 80.228 164.9462
10261.577877 79.866 163.6131
10335.937500 79.460 162.4286
10410.835964 79.013 161.4341
10486.277173 78.526 160.6714
10562.265060 78.003 160.1832
10638.803587 77.447 160.0150
10715.896743 76.861 160.2163
10793.548548 76.250 160.8428
10871.763050 75.620 161.9575
10950.544327 74.979 163.6306
11029.896485 74.335 165.9362
11109.823662 73.702 168.9422
11190.330024 73.094 172.6908
11271.419768 72.529 177.1671
11353.097122 72.029 -177.7371
11435.366344 71.611 -172.2464
11518.231722 71.292 -166.6874
11601.697577 71.076 -161.4218
11685.768261 70.960 -156.7596
11770.448155 70.928 -152.8945
11855.741674 70.956 -149.8895
11941.653265 71.019 -147.7022
12028.187408 71.092 -146.2246
12115.348612 71.157 -145.3181
12203.141422 71.199 -144.8397
12291.570415 71.212 -144.6593
12380.640201 71.195 -144.6707
12470.355424 71.149 -144.7969
12560.720760 71.080 -144.9923
12651.740920 70.992 -145.2389
12743.420650 70.890 -145.5405
12835.764729 70.777 -145.9129
12928.777972 70.651 -146.3740
13022.465227 70.511 -146.9342
13116.831378 70.351 -147.5901
13211.881345 70.165 -148.3201
13307.620084 69.948 -149.0833
13404.052584 69.695 -149.8196
13501.183875 69.402 -150.4517
13599.019019 69.068 -150.8868
13697.563116 68.696 -151.0203
13796.821305 68.292 -150.7420
13896.798760 67.867 -149.9472
13997.500692 67.438 -148.5547
14098.932352 67.026 -146.5316
14201.099028 66.658 -143.9211
14304.006046 66.363 -140.8599
14407.658770 66.165 -137.5711
14512.062604 66.084 -134.3250
14617.222992 66.126 -131.3808
14723.145416 66.290 -128.9388
14829.835397 66.564 -127.1206
14937.298497 66.931 -125.9785
15045.540320 67.374 -125.5191
15154.566507 67.875 -125.7268
15264.382743 68.420 -126.5807
15374.994752 68.994 -128.0645
15486.408302 69.586 -130.1693
15598.629201 70.183 -132.8928
15711.663298 70.772 -136.2369
15825.516487 71.343 -140.2040
15940.194703 71.885 -144.7941
16055.703925 72.386 -150.0018
16172.050174 72.838 -155.8142
16289.239516 73.231 -162.2102
16407.278061 73.560 -169.1600
16526.171961 73.819 -176.6274
16645.927415 74.007 175.4287
16766.550667 74.123 167.0492
16888.048005 74.169 158.2725
17010.425762 74.149 149.1310
17133.690320 74.070 139.6496
17257.848103 73.941 129.8439
17382.905584 73.771 119.7198
17508.869284 73.577 109.2714
17635.745768 73.375 98.4814
17763.541652 73.185 87.3237
17892.263597 73.028 75.7719
18021.918315 72.924 63.8258
18152.512564 72.887 51.5794
18284.053153 72.924 39.4218
18416.546939 73.035 28.8184
18550.000830 73.208 27.8286
18684.421783 73.430 104.2158
18819.816805 73.680 129.7570
18956.192956 73.940 122.1140
19093.557344 74.193 110.9546
19231.917131 74.424 99.9317
19371.279531 74.624 90.1061
19511.651807 74.786 81.9198
19653.041280 74.906 75.6054
19795.455318 74.986 71.3115
19938.901348 75.025 69.1382
