* Measurement data measured by REW V5.31.3
* Source: EXCL: Headset (USB-C to 3.5mm Headphone Jack Adapter), MICROPHONE (Master Volume), 0, volume: 0.750
* Format: 256k Log Swept Sine, 1 sweep at -12.0 dBFS with no timing reference
* Dated: Apr 7, 2025 12:08:59 PM
* REW Settings:
*  C-weighting compensation: Off
*  Target level: 75.0 dB
* Note: ; 
* Measurement: HD6XX (Forward) L3
* Smoothing: 1/6 octave
* Frequency Step: 96 ppo
* Start Frequency: 20.0 Hz
*
* Freq(Hz) SPL(dB) Phase(degrees)
20.187378 78.629 -97.0806
20.333664 78.670 -97.1682
20.481010 78.726 -97.2840
20.629424 78.795 -97.4231
20.778913 78.876 -97.5804
20.929486 78.966 -97.7516
21.081150 79.064 -97.9330
21.233912 79.168 -98.1217
21.387782 79.276 -98.3157
21.542767 79.388 -98.5136
21.698874 79.500 -98.7144
21.856113 79.613 -98.9170
22.014492 79.724 -99.1210
22.174018 79.832 -99.3256
22.334700 79.938 -99.5306
22.496546 80.039 -99.7359
22.659566 80.136 -99.9417
22.823766 80.228 -100.1484
22.989157 80.314 -100.3569
23.155745 80.394 -100.5681
23.323542 80.467 -100.7826
23.492554 80.534 -101.0009
23.662790 80.593 -101.2230
23.834261 80.644 -101.4485
24.006973 80.688 -101.6762
24.180938 80.725 -101.9051
24.356163 80.755 -102.1339
24.532658 80.779 -102.3624
24.710431 80.798 -102.5910
24.889493 80.813 -102.8219
25.069853 80.826 -103.0591
25.251519 80.839 -103.3080
25.434502 80.853 -103.5752
25.618811 80.868 -103.8680
25.804456 80.885 -104.1928
25.991445 80.905 -104.5547
26.179790 80.927 -104.9558
26.369500 80.951 -105.3949
26.560584 80.976 -105.8670
26.753053 81.001 -106.3634
26.946917 81.026 -106.8727
27.142185 81.051 -107.3814
27.338869 81.074 -107.8759
27.536977 81.097 -108.3433
27.736522 81.120 -108.7736
27.937512 81.143 -109.1604
28.139959 81.169 -109.5016
28.343872 81.196 -109.7998
28.549264 81.228 -110.0615
28.756143 81.263 -110.2966
28.964522 81.302 -110.5171
29.174411 81.346 -110.7356
29.385821 81.394 -110.9640
29.598763 81.445 -111.2122
29.813248 81.500 -111.4879
30.029287 81.558 -111.7953
30.246891 81.620 -112.1358
30.466073 81.684 -112.5075
30.686842 81.751 -112.9060
30.909212 81.821 -113.3248
31.133193 81.893 -113.7564
31.358797 81.967 -114.1924
31.586035 82.044 -114.6251
31.814921 82.122 -115.0479
32.045465 82.202 -115.4559
32.277680 82.284 -115.8470
32.511577 82.366 -116.2212
32.747169 82.450 -116.5811
32.984469 82.535 -116.9306
33.223488 82.620 -117.2750
33.464239 82.706 -117.6190
33.706735 82.792 -117.9666
33.950987 82.879 -118.3199
34.197010 82.967 -118.6793
34.444816 83.056 -119.0432
34.694417 83.148 -119.4089
34.945827 83.241 -119.7728
35.199059 83.337 -120.1321
35.454126 83.436 -120.4845
35.711041 83.538 -120.8290
35.969818 83.641 -121.1659
36.230470 83.746 -121.4963
36.493011 83.851 -121.8215
36.757455 83.954 -122.1427
37.023814 84.055 -122.4603
37.292104 84.152 -122.7740
37.562338 84.244 -123.0828
37.834530 84.331 -123.3852
38.108695 84.413 -123.6798
38.384846 84.490 -123.9658
38.662999 84.561 -124.2433
38.943167 84.628 -124.5137
39.225365 84.691 -124.7797
39.509608 84.751 -125.0452
39.795911 84.808 -125.3151
40.084289 84.864 -125.5947
40.374756 84.918 -125.8895
40.667328 84.971 -126.2042
40.962020 85.025 -126.5418
41.258848 85.079 -126.9032
41.557827 85.135 -127.2863
41.858972 85.191 -127.6859
42.162299 85.248 -128.0936
42.467824 85.305 -128.4984
42.775564 85.362 -128.8883
43.085533 85.418 -129.2518
43.397749 85.473 -129.5796
43.712227 85.526 -129.8666
44.028983 85.577 -130.1122
44.348036 85.626 -130.3213
44.669400 85.674 -130.5024
44.993093 85.718 -130.6666
45.319131 85.761 -130.8250
45.647532 85.800 -130.9872
45.978313 85.837 -131.1601
46.311491 85.871 -131.3470
46.647083 85.901 -131.5484
46.985107 85.929 -131.7628
47.325581 85.955 -131.9879
47.668521 85.980 -132.2215
48.013947 86.003 -132.4619
48.361876 86.026 -132.7089
48.712326 86.048 -132.9625
49.065315 86.070 -133.2238
49.420863 86.093 -133.4934
49.778987 86.116 -133.7717
50.139706 86.138 -134.0579
50.503039 86.160 -134.3503
50.869005 86.182 -134.6459
51.237623 86.203 -134.9412
51.608912 86.223 -135.2325
51.982891 86.243 -135.5175
52.359580 86.263 -135.7953
52.739000 86.283 -136.0667
53.121168 86.303 -136.3336
53.506106 86.323 -136.5980
53.893833 86.344 -136.8617
54.284370 86.365 -137.1251
54.677737 86.386 -137.3882
55.073955 86.408 -137.6500
55.473043 86.430 -137.9094
55.875024 86.451 -138.1653
56.279917 86.472 -138.4171
56.687745 86.493 -138.6650
57.098527 86.513 -138.9104
57.512287 86.532 -139.1559
57.929045 86.551 -139.4051
58.348822 86.570 -139.6618
58.771642 86.592 -139.9296
59.197525 86.618 -140.2115
59.626495 86.650 -140.5096
60.058573 86.689 -140.8245
60.493782 86.736 -141.1550
60.932145 86.789 -141.4976
61.373685 86.849 -141.8475
61.818424 86.912 -142.1993
62.266386 86.978 -142.5491
62.717593 87.046 -142.8951
63.172071 87.113 -143.2370
63.629842 87.181 -143.5754
64.090930 87.248 -143.9107
64.555359 87.314 -144.2431
65.023154 87.379 -144.5724
65.494339 87.444 -144.8985
65.968938 87.508 -145.2218
66.446976 87.570 -145.5430
66.928478 87.630 -145.8628
67.413469 87.688 -146.1819
67.901975 87.744 -146.5005
68.394021 87.798 -146.8181
68.889632 87.849 -147.1339
69.388835 87.898 -147.4471
69.891655 87.944 -147.7572
70.398118 87.988 -148.0638
70.908252 88.030 -148.3676
71.422083 88.069 -148.6696
71.939636 88.107 -148.9715
72.460941 88.142 -149.2750
72.986023 88.174 -149.5813
73.514909 88.204 -149.8910
74.047629 88.232 -150.2039
74.584208 88.257 -150.5195
75.124676 88.280 -150.8368
75.669061 88.301 -151.1551
76.217390 88.320 -151.4736
76.769692 88.338 -151.7916
77.325997 88.354 -152.1087
77.886333 88.368 -152.4246
78.450730 88.381 -152.7392
79.019216 88.392 -153.0530
79.591822 88.403 -153.3665
80.168577 88.412 -153.6805
80.749512 88.420 -153.9957
81.334656 88.427 -154.3126
81.924040 88.433 -154.6313
82.517696 88.439 -154.9519
83.115653 88.443 -155.2740
83.717943 88.448 -155.5968
84.324598 88.452 -155.9196
84.935649 88.456 -156.2413
85.551128 88.459 -156.5611
86.171066 88.463 -156.8785
86.795497 88.467 -157.1934
87.424453 88.470 -157.5063
88.057967 88.474 -157.8177
88.696071 88.478 -158.1286
89.338800 88.482 -158.4394
89.986185 88.486 -158.7504
90.638262 88.490 -159.0618
91.295065 88.493 -159.3734
91.956626 88.496 -159.6851
92.622982 88.499 -159.9963
93.294166 88.500 -160.3068
93.970214 88.501 -160.6160
94.651161 88.501 -160.9231
95.337042 88.501 -161.2275
96.027894 88.500 -161.5284
96.723752 88.498 -161.8254
97.424652 88.497 -162.1182
98.130631 88.495 -162.4069
98.841726 88.494 -162.6919
99.557974 88.494 -162.9740
100.279412 88.494 -163.2542
101.006078 88.495 -163.5339
101.738010 88.497 -163.8140
102.475245 88.500 -164.0955
103.217823 88.504 -164.3792
103.965782 88.510 -164.6654
104.719161 88.516 -164.9547
105.477999 88.523 -165.2469
106.242336 88.532 -165.5414
107.012212 88.541 -165.8372
107.787666 88.551 -166.1331
108.568740 88.562 -166.4283
109.355474 88.573 -166.7225
110.147909 88.585 -167.0154
110.946086 88.598 -167.3068
111.750047 88.611 -167.5964
112.559834 88.624 -167.8833
113.375489 88.637 -168.1669
114.197055 88.650 -168.4463
115.024574 88.663 -168.7212
115.858089 88.676 -168.9915
116.697645 88.688 -169.2577
117.543284 88.699 -169.5208
118.395051 88.710 -169.7825
119.252990 88.720 -170.0449
120.117147 88.729 -170.3099
120.987565 88.738 -170.5787
121.864291 88.747 -170.8517
122.747370 88.754 -171.1282
123.636848 88.761 -171.4072
124.532771 88.768 -171.6874
125.435187 88.773 -171.9672
126.344142 88.777 -172.2454
127.259684 88.780 -172.5207
128.181860 88.783 -172.7923
129.110718 88.784 -173.0596
130.046308 88.784 -173.3226
130.988677 88.784 -173.5807
131.937875 88.783 -173.8337
132.893951 88.780 -174.0811
133.856956 88.777 -174.3224
134.826938 88.773 -174.5576
135.803950 88.768 -174.7873
136.788041 88.762 -175.0125
137.779264 88.754 -175.2347
138.777669 88.745 -175.4554
139.783309 88.736 -175.6756
140.796237 88.724 -175.8963
141.816504 88.712 -176.1181
142.844165 88.699 -176.3412
143.879273 88.684 -176.5657
144.921881 88.669 -176.7913
145.972045 88.653 -177.0174
147.029819 88.635 -177.2430
148.095257 88.617 -177.4673
149.168417 88.599 -177.6893
150.249353 88.579 -177.9086
151.338121 88.560 -178.1247
152.434780 88.540 -178.3378
153.539385 88.520 -178.5480
154.651995 88.500 -178.7559
155.772667 88.480 -178.9619
156.901460 88.461 -179.1664
158.038432 88.442 -179.3698
159.183644 88.424 -179.5727
160.337154 88.406 -179.7755
161.499023 88.388 -179.9786
162.669312 88.371 179.8174
163.848081 88.353 179.6125
165.035392 88.336 179.4071
166.231306 88.319 179.2017
167.435887 88.302 178.9973
168.649196 88.286 178.7948
169.871298 88.269 178.5946
171.102255 88.253 178.3971
172.342133 88.237 178.2024
173.590995 88.220 178.0104
174.848907 88.204 177.8211
176.115934 88.188 177.6345
177.392143 88.171 177.4503
178.677599 88.155 177.2681
179.972371 88.138 177.0872
181.276525 88.120 176.9073
182.590129 88.102 176.7278
183.913252 88.084 176.5486
185.245964 88.065 176.3701
186.588332 88.045 176.1923
187.940428 88.025 176.0160
189.302322 88.004 175.8416
190.674085 87.982 175.6693
192.055788 87.960 175.4993
193.447503 87.938 175.3312
194.849303 87.916 175.1644
196.261262 87.894 174.9982
197.683452 87.870 174.8321
199.115948 87.847 174.6660
200.558824 87.822 174.5001
202.012156 87.796 174.3349
203.476019 87.769 174.1709
204.950490 87.742 174.0085
206.435646 87.714 173.8477
207.931564 87.687 173.6884
209.438322 87.660 173.5305
210.955998 87.633 173.3739
212.484672 87.607 173.2185
214.024424 87.582 173.0646
215.575333 87.558 172.9122
217.137481 87.535 172.7618
218.710948 87.513 172.6139
220.295818 87.492 172.4688
221.892172 87.473 172.3272
223.500094 87.454 172.1895
225.119668 87.437 172.0558
226.750978 87.421 171.9263
228.394109 87.406 171.8007
230.049147 87.392 171.6790
231.716178 87.380 171.5608
233.395289 87.368 171.4461
235.086567 87.358 171.3348
236.790102 87.349 171.2265
238.505980 87.340 171.1207
240.234293 87.333 171.0164
241.975130 87.327 170.9128
243.728581 87.321 170.8094
245.494739 87.316 170.7057
247.273695 87.312 170.6011
249.065542 87.308 170.4953
250.870374 87.303 170.3879
252.688284 87.299 170.2789
254.519367 87.294 170.1684
256.363720 87.289 170.0568
258.221437 87.283 169.9445
260.092616 87.278 169.8321
261.977354 87.272 169.7201
263.875750 87.265 169.6091
265.787903 87.259 169.4993
267.713911 87.253 169.3911
269.653877 87.246 169.2845
271.607900 87.240 169.1796
273.576083 87.234 169.0764
275.558528 87.228 168.9747
277.555338 87.223 168.8744
279.566619 87.217 168.7755
281.592474 87.212 168.6781
283.633009 87.206 168.5825
285.688331 87.200 168.4889
287.758546 87.194 168.3978
289.843763 87.189 168.3096
291.944090 87.183 168.2245
294.059638 87.178 168.1427
296.190515 87.173 168.0645
298.336833 87.169 167.9901
300.498705 87.166 167.9195
302.676243 87.163 167.8524
304.869559 87.161 167.7885
307.078770 87.159 167.7274
309.303989 87.157 167.6687
311.545334 87.155 167.6120
313.802919 87.153 167.5569
316.076865 87.152 167.5032
318.367288 87.150 167.4509
320.674309 87.149 167.4003
322.998047 87.147 167.3519
325.338624 87.145 167.3060
327.696162 87.143 167.2632
330.070783 87.140 167.2232
332.462612 87.138 167.1860
334.871773 87.135 167.1511
337.298392 87.131 167.1182
339.742595 87.127 167.0872
342.204510 87.122 167.0583
344.684265 87.116 167.0316
347.181989 87.109 167.0071
349.697813 87.100 166.9844
352.231868 87.090 166.9628
354.784285 87.079 166.9410
357.355198 87.066 166.9178
359.944741 87.053 166.8923
362.553049 87.038 166.8635
365.180258 87.022 166.8312
367.826505 87.006 166.7960
370.491927 86.990 166.7588
373.176665 86.974 166.7210
375.880856 86.957 166.6837
378.604644 86.941 166.6476
381.348169 86.925 166.6131
384.111575 86.909 166.5804
386.895006 86.893 166.5492
389.698607 86.877 166.5197
392.522524 86.860 166.4919
395.366904 86.842 166.4665
398.231895 86.823 166.4442
401.117648 86.804 166.4256
404.024312 86.784 166.4111
406.952038 86.763 166.4006
409.900981 86.740 166.3932
412.871292 86.717 166.3878
415.863128 86.692 166.3835
418.876643 86.667 166.3796
421.911996 86.640 166.3762
424.969344 86.612 166.3735
428.048847 86.582 166.3721
431.150666 86.552 166.3725
434.274961 86.520 166.3750
437.421897 86.487 166.3794
440.591636 86.452 166.3852
443.784345 86.417 166.3919
447.000189 86.381 166.3994
450.239337 86.344 166.4081
453.501956 86.306 166.4184
456.788219 86.269 166.4310
460.098294 86.231 166.4463
463.432356 86.193 166.4641
466.790578 86.156 166.4836
470.173135 86.119 166.5040
473.580203 86.083 166.5240
477.011961 86.048 166.5431
480.468586 86.015 166.5609
483.950259 85.982 166.5778
487.457163 85.952 166.5942
490.989478 85.922 166.6107
494.547390 85.895 166.6280
498.131084 85.868 166.6464
501.740748 85.844 166.6663
505.376568 85.821 166.6874
509.038735 85.799 166.7094
512.727439 85.779 166.7315
516.442874 85.761 166.7527
520.185232 85.744 166.7722
523.954708 85.730 166.7895
527.751500 85.717 166.8041
531.575805 85.706 166.8161
535.427822 85.696 166.8253
539.307753 85.689 166.8320
543.215800 85.682 166.8368
547.152165 85.677 166.8404
551.117055 85.673 166.8439
555.110677 85.670 166.8483
559.133237 85.669 166.8542
563.184947 85.668 166.8628
567.266018 85.668 166.8746
571.376661 85.669 166.8906
575.517092 85.671 166.9113
579.687526 85.674 166.9374
583.888181 85.676 166.9696
588.119275 85.680 167.0083
592.381030 85.683 167.0537
596.673667 85.687 167.1054
600.997410 85.691 167.1628
605.352485 85.695 167.2247
609.739119 85.700 167.2895
614.157540 85.704 167.3557
618.607979 85.708 167.4215
623.090667 85.712 167.4856
627.605839 85.715 167.5467
632.153730 85.718 167.6041
636.734576 85.720 167.6575
641.348617 85.721 167.7071
645.996094 85.721 167.7535
650.677248 85.720 167.7974
655.392323 85.719 167.8396
660.141566 85.716 167.8806
664.925224 85.712 167.9203
669.743546 85.708 167.9585
674.596784 85.702 167.9947
679.485191 85.696 168.0285
684.409020 85.689 168.0599
689.368530 85.681 168.0893
694.363979 85.671 168.1175
699.395626 85.659 168.1457
704.463736 85.646 168.1753
709.568570 85.632 168.2075
714.710396 85.616 168.2433
719.889483 85.599 168.2829
725.106099 85.582 168.3259
730.360516 85.563 168.3712
735.653010 85.543 168.4175
740.983855 85.522 168.4633
746.353329 85.501 168.5073
751.761713 85.479 168.5478
757.209288 85.455 168.5837
762.696339 85.431 168.6140
768.223151 85.406 168.6380
773.790013 85.379 168.6555
779.397214 85.352 168.6666
785.045047 85.324 168.6718
790.733808 85.294 168.6714
796.463791 85.264 168.6660
802.235296 85.233 168.6555
808.048623 85.202 168.6399
813.904077 85.170 168.6190
819.801961 85.137 168.5926
825.742584 85.103 168.5609
831.726255 85.069 168.5246
837.753287 85.033 168.4851
843.823992 84.995 168.4449
849.938689 84.955 168.4076
856.097695 84.913 168.3778
862.301332 84.869 168.3613
868.549922 84.823 168.3645
874.843793 84.774 168.3938
881.183272 84.725 168.4549
887.568689 84.676 168.5521
894.000378 84.628 168.6873
900.478673 84.583 168.8600
907.003913 84.542 169.0672
913.576437 84.506 169.3035
920.196588 84.477 169.5616
926.864712 84.455 169.8328
933.581156 84.441 170.1082
940.346270 84.435 170.3789
947.160407 84.436 170.6375
954.023921 84.444 170.8780
960.937172 84.458 171.0966
967.900519 84.477 171.2914
974.914325 84.500 171.4626
981.978956 84.527 171.6117
989.094780 84.557 171.7408
996.262169 84.590 171.8523
1003.481495 84.625 171.9485
1010.753136 84.662 172.0311
1018.077470 84.701 172.1009
1025.454879 84.743 172.1584
1032.885748 84.787 172.2033
1040.370463 84.832 172.2354
1047.909417 84.879 172.2542
1055.503000 84.927 172.2601
1063.151610 84.976 172.2536
1070.855645 85.025 172.2364
1078.615506 85.075 172.2104
1086.431599 85.124 172.1778
1094.304330 85.172 172.1404
1102.234110 85.220 172.0996
1110.221353 85.268 172.0564
1118.266475 85.315 172.0112
1126.369895 85.361 171.9637
1134.532035 85.407 171.9135
1142.753322 85.451 171.8596
1151.034184 85.495 171.8014
1159.375052 85.538 171.7388
1167.776361 85.580 171.6724
1176.238550 85.620 171.6031
1184.762060 85.659 171.5323
1193.347334 85.696 171.4612
1201.994821 85.732 171.3910
1210.704971 85.767 171.3222
1219.478238 85.802 171.2555
1228.315080 85.835 171.1908
1237.215957 85.868 171.1283
1246.181334 85.901 171.0682
1255.211678 85.933 171.0108
1264.307459 85.965 170.9567
1273.469152 85.997 170.9064
1282.697235 86.029 170.8605
1291.992188 86.061 170.8192
1301.354495 86.093 170.7828
1310.784647 86.125 170.7509
1320.283132 86.158 170.7231
1329.850448 86.190 170.6989
1339.487093 86.224 170.6771
1349.193569 86.257 170.6566
1358.970381 86.292 170.6361
1368.818041 86.327 170.6143
1378.737061 86.363 170.5898
1388.727958 86.400 170.5617
1398.791253 86.438 170.5290
1408.927471 86.476 170.4905
1419.137140 86.515 170.4450
1429.420793 86.555 170.3916
1439.778965 86.595 170.3305
1450.212197 86.635 170.2632
1460.721033 86.674 170.1926
1471.306019 86.712 170.1228
1481.967709 86.749 170.0584
1492.706658 86.784 170.0038
1503.523426 86.818 169.9634
1514.418576 86.850 169.9405
1525.392678 86.882 169.9378
1536.446302 86.913 169.9567
1547.580025 86.943 169.9966
1558.794428 86.972 170.0554
1570.090095 87.002 170.1295
1581.467615 87.031 170.2143
1592.927581 87.060 170.3052
1604.470591 87.087 170.3981
1616.097246 87.113 170.4896
1627.808153 87.137 170.5766
1639.603922 87.159 170.6571
1651.485168 87.177 170.7299
1663.452510 87.192 170.7951
1675.506573 87.202 170.8544
1687.647984 87.208 170.9108
1699.877377 87.209 170.9685
1712.195390 87.205 171.0329
1724.602663 87.196 171.1097
1737.099845 87.184 171.2046
1749.687587 87.168 171.3226
1762.366544 87.150 171.4674
1775.137379 87.131 171.6405
1788.000756 87.111 171.8403
1800.957346 87.093 172.0627
1814.007826 87.077 172.3018
1827.152874 87.062 172.5511
1840.393177 87.049 172.8046
1853.729425 87.038 173.0566
1867.162312 87.028 173.3027
1880.692540 87.018 173.5387
1894.320813 87.008 173.7612
1908.047843 86.998 173.9681
1921.874344 86.985 174.1588
1935.801038 86.970 174.3348
1949.828650 86.951 174.4993
1963.957912 86.929 174.6562
1978.189561 86.902 174.8096
1992.524338 86.872 174.9634
2006.962991 86.837 175.1209
2021.506272 86.800 175.2853
2036.154940 86.759 175.4596
2050.909758 86.715 175.6468
2065.771495 86.670 175.8488
2080.740927 86.624 176.0658
2095.818833 86.579 176.2960
2111.006001 86.534 176.5360
2126.303220 86.491 176.7818
2141.711290 86.450 177.0293
2157.231013 86.412 177.2747
2172.863198 86.376 177.5145
2188.608660 86.342 177.7461
2204.468221 86.310 177.9679
2220.442706 86.280 178.1796
2236.532950 86.252 178.3824
2252.739789 86.225 178.5782
2269.064070 86.200 178.7689
2285.506644 86.176 178.9554
2302.068367 86.154 179.1387
2318.750104 86.134 179.3192
2335.552723 86.116 179.4974
2352.477101 86.100 179.6738
2369.524119 86.087 179.8483
2386.694668 86.077 -179.9795
2403.989641 86.070 -179.8100
2421.409941 86.067 -179.6435
2438.956476 86.067 -179.4807
2456.630160 86.071 -179.3225
2474.431915 86.079 -179.1708
2492.362668 86.092 -179.0280
2510.423356 86.108 -178.8963
2528.614918 86.129 -178.7769
2546.938304 86.153 -178.6701
2565.394469 86.179 -178.5749
2583.984375 86.209 -178.4888
2602.708991 86.240 -178.4077
2621.569293 86.273 -178.3271
2640.566265 86.309 -178.2423
2659.700897 86.348 -178.1498
2678.974186 86.390 -178.0478
2698.387137 86.435 -177.9365
2717.940763 86.486 -177.8180
2737.636082 86.540 -177.6956
2757.474121 86.600 -177.5728
2777.455915 86.663 -177.4528
2797.582506 86.731 -177.3380
2817.854942 86.802 -177.2306
2838.274281 86.876 -177.1322
2858.841586 86.952 -177.0441
2879.557931 87.030 -176.9670
2900.424394 87.108 -176.9006
2921.442065 87.187 -176.8435
2942.612039 87.265 -176.7941
2963.935418 87.343 -176.7509
2985.413316 87.419 -176.7130
3007.046852 87.494 -176.6803
3028.837153 87.567 -176.6534
3050.785356 87.637 -176.6339
3072.892604 87.705 -176.6230
3095.160050 87.768 -176.6220
3117.588856 87.827 -176.6303
3140.180190 87.880 -176.6465
3162.935230 87.927 -176.6677
3185.855163 87.968 -176.6914
3208.941182 88.004 -176.7155
3232.194493 88.033 -176.7393
3255.616307 88.057 -176.7639
3279.207844 88.075 -176.7916
3302.970336 88.088 -176.8253
3326.905021 88.095 -176.8678
3351.013146 88.096 -176.9204
3375.295969 88.091 -176.9831
3399.754755 88.080 -177.0540
3424.390779 88.062 -177.1297
3449.205326 88.038 -177.2063
3474.199690 88.008 -177.2795
3499.375173 87.973 -177.3462
3524.733088 87.935 -177.4046
3550.274757 87.893 -177.4542
3576.001511 87.850 -177.4954
3601.914692 87.806 -177.5283
3628.015651 87.761 -177.5526
3654.305748 87.716 -177.5668
3680.786354 87.671 -177.5686
3707.458849 87.629 -177.5556
3734.324624 87.589 -177.5256
3761.385080 87.553 -177.4780
3788.641627 87.522 -177.4128
3816.095686 87.497 -177.3314
3843.748688 87.478 -177.2354
3871.602076 87.466 -177.1266
3899.657300 87.461 -177.0060
3927.915825 87.463 -176.8740
3956.379122 87.472 -176.7298
3985.048676 87.489 -176.5718
4013.925981 87.513 -176.3977
4043.012544 87.545 -176.2056
4072.309879 87.584 -175.9942
4101.819515 87.632 -175.7634
4131.542990 87.688 -175.5137
4161.481854 87.753 -175.2468
4191.637667 87.827 -174.9653
4222.012001 87.911 -174.6734
4252.606441 88.006 -174.3775
4283.422580 88.111 -174.0865
4314.462026 88.228 -173.8122
4345.726396 88.356 -173.5690
4377.217321 88.496 -173.3736
4408.936442 88.646 -173.2444
4440.885413 88.805 -173.2009
4473.065899 88.973 -173.2626
4505.479579 89.145 -173.4468
4538.128141 89.320 -173.7675
4571.013288 89.494 -174.2341
4604.136735 89.664 -174.8512
4637.500207 89.828 -175.6191
4671.105446 89.982 -176.5352
4704.954201 90.125 -177.5940
4739.048239 90.255 -178.7885
4773.389336 90.368 179.8905
4807.979283 90.465 178.4534
4842.819883 90.542 176.9116
4877.912952 90.599 175.2773
4913.260320 90.635 173.5634
4948.863830 90.648 171.7830
4984.725337 90.639 169.9501
5020.846712 90.604 168.0797
5057.229836 90.544 166.1884
5093.876609 90.457 164.2946
5130.788938 90.343 162.4193
5167.968750 90.201 160.5861
5205.417982 90.030 158.8213
5243.138586 89.831 157.1536
5281.132530 89.605 155.6134
5319.401793 89.353 154.2319
5357.948371 89.078 153.0403
5396.774274 88.783 152.0686
5435.881525 88.474 151.3431
5475.272163 88.157 150.8847
5514.948243 87.838 150.7050
5554.911831 87.525 150.8049
5595.165012 87.227 151.1718
5635.709884 86.950 151.7798
5676.548561 86.703 152.5903
5717.683172 86.490 153.5541
5759.115861 86.315 154.6150
5800.848789 86.178 155.7140
5842.884130 86.078 156.7941
5885.224077 86.012 157.8043
5927.870837 85.974 158.7030
5970.826633 85.958 159.4599
6014.093704 85.956 160.0562
6057.674306 85.962 160.4837
6101.570711 85.968 160.7443
6145.785208 85.968 160.8480
6190.320101 85.956 160.8124
6235.177712 85.927 160.6617
6280.360380 85.876 160.4253
6325.870460 85.800 160.1376
6371.710325 85.697 159.8366
6417.882365 85.566 159.5631
6464.388986 85.406 159.3596
6511.232613 85.218 159.2693
6558.415689 85.005 159.3347
6605.940673 84.770 159.5964
6653.810042 84.518 160.0914
6702.026292 84.255 160.8506
6750.591937 83.989 161.8965
6799.509509 83.727 163.2394
6848.781558 83.480 164.8732
6898.410653 83.257 166.7719
6948.399380 83.067 168.8861
6998.750346 82.919 171.1438
7049.466176 82.819 173.4537
7100.549514 82.769 175.7134
7152.003023 82.770 177.8204
7203.829385 82.815 179.6829
7256.031302 82.899 -178.7711
7308.611496 83.010 -177.5902
7361.572708 83.137 -176.7986
7414.917698 83.270 -176.3992
7468.649249 83.396 -176.3775
7522.770160 83.507 -176.7063
7577.283253 83.592 -177.3488
7632.191371 83.645 -178.2610
7687.497376 83.658 -179.3925
7743.204151 83.626 179.3137
7799.314600 83.544 177.9234
7855.831649 83.409 176.5147
7912.758244 83.219 175.1834
7970.097352 82.973 174.0511
8027.851962 82.675 173.2771
8086.025087 82.329 173.0751
8144.619758 81.948 173.7354
8203.639030 81.550 175.6468
8263.085980 81.162 179.2975
8322.963708 80.818 -174.8142
8383.275334 80.558 -166.4819
8444.024002 80.415 -156.3083
8505.212881 80.410 -145.8673
8566.845160 80.545 -136.8599
8628.924051 80.801 -130.1133
8691.452792 81.148 -125.5591
8754.434642 81.554 -122.7454
8817.872884 81.991 -121.1953
8881.770826 82.438 -120.5287
8946.131799 82.882 -120.4720
9010.959157 83.316 -120.8373
9076.256282 83.738 -121.5000
9142.026576 84.146 -122.3808
9208.273470 84.542 -123.4325
9275.000415 84.927 -124.6312
9342.210891 85.301 -125.9686
9409.908403 85.666 -127.4478
9478.096478 86.020 -129.0785
9546.778672 86.363 -130.8737
9615.958566 86.693 -132.8473
9685.639765 87.005 -135.0113
9755.825904 87.297 -137.3744
9826.520640 87.563 -139.9400
9897.727659 87.798 -142.7054
9969.450674 87.997 -145.6607
10041.693423 88.154 -148.7885
10114.459673 88.266 -152.0634
10187.753217 88.326 -155.4528
10261.577877 88.333 -158.9177
10335.937500 88.285 -162.4142
10410.835964 88.179 -165.8958
10486.277173 88.018 -169.3160
10562.265060 87.804 -172.6307
10638.803587 87.541 -175.8013
10715.896743 87.235 -178.7965
10793.548548 86.891 178.4058
10871.763050 86.518 175.8166
10950.544327 86.124 173.4347
11029.896485 85.718 171.2453
11109.823662 85.311 169.2203
11190.330024 84.911 167.3181
11271.419768 84.525 165.4862
11353.097122 84.162 163.6646
11435.366344 83.822 161.7912
11518.231722 83.507 159.8078
11601.697577 83.212 157.6671
11685.768261 82.930 155.3377
11770.448155 82.651 152.8082
11855.741674 82.364 150.0868
11941.653265 82.061 147.1981
12028.187408 81.735 144.1761
12115.348612 81.383 141.0548
12203.141422 81.006 137.8587
12291.570415 80.609 134.5958
12380.640201 80.201 131.2546
12470.355424 79.788 127.8049
12560.720760 79.380 124.2029
12651.740920 78.985 120.3973
12743.420650 78.605 116.3369
12835.764729 78.246 111.9757
12928.777972 77.906 107.2756
13022.465227 77.586 102.2076
13116.831378 77.285 96.7499
13211.881345 76.999 90.8882
13307.620084 76.726 84.6159
13404.052584 76.463 77.9375
13501.183875 76.205 70.8721
13599.019019 75.946 63.4568
13697.563116 75.682 55.7491
13796.821305 75.410 47.8258
13896.798760 75.128 39.7790
13997.500692 74.838 31.7093
14098.932352 74.546 23.7169
14201.099028 74.259 15.8923
14304.006046 73.991 8.3080
14407.658770 73.757 1.0122
14512.062604 73.573 -5.9739
14617.222992 73.457 -12.6569
14723.145416 73.422 -19.0686
14829.835397 73.477 -25.2612
14937.298497 73.623 -31.3014
15045.540320 73.855 -37.2629
15154.566507 74.162 -43.2203
15264.382743 74.528 -49.2430
15374.994752 74.936 -55.3913
15486.408302 75.371 -61.7153
15598.629201 75.818 -68.2551
15711.663298 76.266 -75.0424
15825.516487 76.702 -82.1025
15940.194703 77.117 -89.4552
16055.703925 77.501 -97.1150
16172.050174 77.845 -105.0897
16289.239516 78.140 -113.3795
16407.278061 78.378 -121.9758
16526.171961 78.551 -130.8604
16645.927415 78.654 -140.0046
16766.550667 78.680 -149.3717
16888.048005 78.626 -158.9170
17010.425762 78.489 -168.5900
17133.690320 78.268 -178.3360
17257.848103 77.962 171.9021
17382.905584 77.572 162.1849
17508.869284 77.099 152.5743
17635.745768 76.544 143.1332
17763.541652 75.910 133.9252
17892.263597 75.199 125.0112
18021.918315 74.416 116.4478
18152.512564 73.563 108.2816
18284.053153 72.647 100.5440
18416.546939 71.672 93.2455
18550.000830 70.647 86.3691
18684.421783 69.581 79.8707
18819.816805 68.485 73.6827
18956.192956 67.375 67.7302
19093.557344 66.274 61.9618
19231.917131 65.208 56.3892
19371.279531 64.214 51.1229
19511.651807 63.336 46.3777
19653.041280 62.621 42.4396
19795.455318 62.114 39.6058
19938.901348 61.851 38.1203
