* Measurement data measured by REW V5.31.3
* Source: EXCL: Headset (USB-C to 3.5mm Headphone Jack Adapter), MICROPHONE (Master Volume), 0, volume: 0.750
* Format: 256k Log Swept Sine, 1 sweep at -12.0 dBFS with no timing reference
* Dated: Apr 7, 2025 5:23:18 PM
* REW Settings:
*  C-weighting compensation: Off
*  Target level: 75.0 dB
* Note: ; 
* Measurement: HD 6XX (Soulwit) L1
* Smoothing: 1/6 octave
* Frequency Step: 96 ppo
* Start Frequency: 20.0 Hz
*
* Freq(Hz) SPL(dB) Phase(degrees)
20.187378 74.787 -102.9415
20.333664 74.821 -102.9346
20.481010 74.868 -102.9317
20.629424 74.925 -102.9408
20.778913 74.992 -102.9710
20.929486 75.068 -103.0316
21.081150 75.151 -103.1310
21.233912 75.240 -103.2768
21.387782 75.334 -103.4748
21.542767 75.433 -103.7294
21.698874 75.536 -104.0432
21.856113 75.642 -104.4170
22.014492 75.751 -104.8501
22.174018 75.862 -105.3400
22.334700 75.973 -105.8825
22.496546 76.085 -106.4713
22.659566 76.195 -107.0979
22.823766 76.301 -107.7518
22.989157 76.403 -108.4199
23.155745 76.499 -109.0872
23.323542 76.587 -109.7371
23.492554 76.666 -110.3523
23.662790 76.736 -110.9161
23.834261 76.797 -111.4134
24.006973 76.850 -111.8328
24.180938 76.896 -112.1678
24.356163 76.938 -112.4186
24.532658 76.977 -112.5925
24.710431 77.016 -112.7042
24.889493 77.055 -112.7749
25.069853 77.097 -112.8303
25.251519 77.139 -112.8981
25.434502 77.183 -113.0043
25.618811 77.225 -113.1707
25.804456 77.265 -113.4121
25.991445 77.298 -113.7350
26.179790 77.323 -114.1372
26.369500 77.339 -114.6085
26.560584 77.345 -115.1321
26.753053 77.342 -115.6871
26.946917 77.332 -116.2509
27.142185 77.316 -116.8011
27.338869 77.299 -117.3188
27.536977 77.285 -117.7890
27.736522 77.276 -118.2029
27.937512 77.276 -118.5569
28.139959 77.288 -118.8530
28.343872 77.311 -119.0967
28.549264 77.345 -119.2960
28.756143 77.389 -119.4597
28.964522 77.442 -119.5964
29.174411 77.499 -119.7138
29.385821 77.559 -119.8184
29.598763 77.619 -119.9159
29.813248 77.677 -120.0116
30.029287 77.732 -120.1101
30.246891 77.781 -120.2163
30.466073 77.826 -120.3346
30.686842 77.865 -120.4693
30.909212 77.900 -120.6244
31.133193 77.931 -120.8033
31.358797 77.962 -121.0095
31.586035 77.993 -121.2459
31.814921 78.027 -121.5150
32.045465 78.066 -121.8188
32.277680 78.112 -122.1580
32.511577 78.166 -122.5314
32.747169 78.230 -122.9358
32.984469 78.301 -123.3653
33.223488 78.382 -123.8122
33.464239 78.470 -124.2673
33.706735 78.564 -124.7213
33.950987 78.663 -125.1661
34.197010 78.766 -125.5955
34.444816 78.872 -126.0058
34.694417 78.977 -126.3957
34.945827 79.083 -126.7653
35.199059 79.186 -127.1154
35.454126 79.286 -127.4467
35.711041 79.383 -127.7593
35.969818 79.476 -128.0535
36.230470 79.567 -128.3300
36.493011 79.655 -128.5912
36.757455 79.744 -128.8411
37.023814 79.831 -129.0859
37.292104 79.919 -129.3320
37.562338 80.006 -129.5852
37.834530 80.091 -129.8488
38.108695 80.173 -130.1229
38.384846 80.251 -130.4040
38.662999 80.324 -130.6869
38.943167 80.393 -130.9658
39.225365 80.459 -131.2370
39.509608 80.522 -131.5001
39.795911 80.586 -131.7583
40.084289 80.652 -132.0181
40.374756 80.719 -132.2869
40.667328 80.790 -132.5715
40.962020 80.863 -132.8753
41.258848 80.939 -133.1978
41.557827 81.015 -133.5346
41.858972 81.093 -133.8782
42.162299 81.170 -134.2198
42.467824 81.246 -134.5514
42.775564 81.320 -134.8669
43.085533 81.393 -135.1632
43.397749 81.461 -135.4408
43.712227 81.526 -135.7032
44.028983 81.584 -135.9561
44.348036 81.636 -136.2072
44.669400 81.680 -136.4649
44.993093 81.717 -136.7376
45.319131 81.744 -137.0329
45.647532 81.765 -137.3566
45.978313 81.778 -137.7118
46.311491 81.786 -138.0980
46.647083 81.790 -138.5109
46.985107 81.793 -138.9427
47.325581 81.796 -139.3829
47.668521 81.801 -139.8199
48.013947 81.809 -140.2430
48.361876 81.821 -140.6434
48.712326 81.835 -141.0162
49.065315 81.853 -141.3602
49.420863 81.872 -141.6779
49.778987 81.892 -141.9751
50.139706 81.913 -142.2594
50.503039 81.935 -142.5391
50.869005 81.958 -142.8214
51.237623 81.982 -143.1112
51.608912 82.008 -143.4105
51.982891 82.036 -143.7190
52.359580 82.066 -144.0342
52.739000 82.097 -144.3534
53.121168 82.130 -144.6745
53.506106 82.163 -144.9966
53.893833 82.197 -145.3212
54.284370 82.230 -145.6522
54.677737 82.263 -145.9964
55.073955 82.296 -146.3638
55.473043 82.330 -146.7659
55.875024 82.366 -147.2145
56.279917 82.405 -147.7185
56.687745 82.447 -148.2814
57.098527 82.493 -148.8994
57.512287 82.544 -149.5603
57.929045 82.599 -150.2443
58.348822 82.656 -150.9237
58.771642 82.711 -151.5649
59.197525 82.762 -152.1315
59.626495 82.805 -152.5903
60.058573 82.839 -152.9182
60.493782 82.863 -153.1089
60.932145 82.882 -153.1760
61.373685 82.896 -153.1491
61.818424 82.909 -153.0667
62.266386 82.923 -152.9669
62.717593 82.940 -152.8800
63.172071 82.962 -152.8260
63.629842 82.988 -152.8158
64.090930 83.018 -152.8529
64.555359 83.053 -152.9366
65.023154 83.090 -153.0633
65.494339 83.129 -153.2283
65.968938 83.170 -153.4264
66.446976 83.212 -153.6524
66.928478 83.255 -153.9017
67.413469 83.299 -154.1708
67.901975 83.344 -154.4569
68.394021 83.389 -154.7585
68.889632 83.434 -155.0747
69.388835 83.478 -155.4048
69.891655 83.522 -155.7480
70.398118 83.564 -156.1035
70.908252 83.606 -156.4701
71.422083 83.646 -156.8462
71.939636 83.683 -157.2294
72.460941 83.719 -157.6170
72.986023 83.751 -158.0056
73.514909 83.781 -158.3923
74.047629 83.808 -158.7746
74.584208 83.832 -159.1511
75.124676 83.854 -159.5214
75.669061 83.872 -159.8855
76.217390 83.888 -160.2438
76.769692 83.901 -160.5966
77.325997 83.911 -160.9444
77.886333 83.918 -161.2875
78.450730 83.923 -161.6265
79.019216 83.925 -161.9622
79.591822 83.927 -162.2951
80.168577 83.927 -162.6259
80.749512 83.926 -162.9553
81.334656 83.925 -163.2837
81.924040 83.923 -163.6113
82.517696 83.922 -163.9382
83.115653 83.920 -164.2643
83.717943 83.919 -164.5887
84.324598 83.918 -164.9108
84.935649 83.918 -165.2297
85.551128 83.917 -165.5447
86.171066 83.916 -165.8558
86.795497 83.915 -166.1632
87.424453 83.914 -166.4678
88.057967 83.912 -166.7706
88.696071 83.911 -167.0731
89.338800 83.909 -167.3763
89.986185 83.907 -167.6812
90.638262 83.905 -167.9884
91.295065 83.903 -168.2976
91.956626 83.901 -168.6085
92.622982 83.898 -168.9204
93.294166 83.895 -169.2325
93.970214 83.892 -169.5442
94.651161 83.888 -169.8555
95.337042 83.884 -170.1664
96.027894 83.880 -170.4776
96.723752 83.877 -170.7893
97.424652 83.873 -171.1019
98.130631 83.870 -171.4157
98.841726 83.867 -171.7308
99.557974 83.864 -172.0470
100.279412 83.862 -172.3640
101.006078 83.860 -172.6810
101.738010 83.858 -172.9972
102.475245 83.857 -173.3116
103.217823 83.857 -173.6231
103.965782 83.858 -173.9308
104.719161 83.860 -174.2341
105.477999 83.863 -174.5328
106.242336 83.867 -174.8271
107.012212 83.872 -175.1172
107.787666 83.879 -175.4038
108.568740 83.887 -175.6877
109.355474 83.897 -175.9700
110.147909 83.907 -176.2515
110.946086 83.917 -176.5328
111.750047 83.928 -176.8142
112.559834 83.939 -177.0957
113.375489 83.949 -177.3772
114.197055 83.959 -177.6583
115.024574 83.967 -177.9393
115.858089 83.975 -178.2205
116.697645 83.982 -178.5029
117.543284 83.988 -178.7874
118.395051 83.993 -179.0750
119.252990 83.997 -179.3662
120.117147 84.001 -179.6611
120.987565 84.005 -179.9592
121.864291 84.008 179.7409
122.747370 84.012 179.4405
123.636848 84.015 179.1410
124.532771 84.019 178.8436
125.435187 84.022 178.5493
126.344142 84.025 178.2589
127.259684 84.027 177.9734
128.181860 84.029 177.6932
129.110718 84.031 177.4187
130.046308 84.031 177.1499
130.988677 84.031 176.8865
131.937875 84.029 176.6281
132.893951 84.026 176.3743
133.856956 84.022 176.1252
134.826938 84.015 175.8813
135.803950 84.008 175.6430
136.788041 83.999 175.4105
137.779264 83.989 175.1835
138.777669 83.978 174.9608
139.783309 83.966 174.7410
140.796237 83.954 174.5224
141.816504 83.940 174.3035
142.844165 83.926 174.0832
143.879273 83.911 173.8607
144.921881 83.895 173.6363
145.972045 83.877 173.4105
147.029819 83.859 173.1841
148.095257 83.840 172.9582
149.168417 83.820 172.7332
150.249353 83.799 172.5095
151.338121 83.778 172.2874
152.434780 83.757 172.0669
153.539385 83.735 171.8479
154.651995 83.714 171.6298
155.772667 83.693 171.4114
156.901460 83.672 171.1911
158.038432 83.653 170.9672
159.183644 83.634 170.7385
160.337154 83.615 170.5049
161.499023 83.596 170.2677
162.669312 83.578 170.0284
163.848081 83.559 169.7894
165.035392 83.540 169.5526
166.231306 83.520 169.3198
167.435887 83.500 169.0920
168.649196 83.480 168.8699
169.871298 83.458 168.6534
171.102255 83.436 168.4426
172.342133 83.414 168.2369
173.590995 83.391 168.0360
174.848907 83.367 167.8389
176.115934 83.343 167.6447
177.392143 83.320 167.4519
178.677599 83.298 167.2592
179.972371 83.277 167.0650
181.276525 83.257 166.8682
182.590129 83.238 166.6681
183.913252 83.220 166.4644
185.245964 83.202 166.2571
186.588332 83.185 166.0469
187.940428 83.167 165.8341
189.302322 83.148 165.6196
190.674085 83.128 165.4044
192.055788 83.108 165.1893
193.447503 83.087 164.9756
194.849303 83.064 164.7644
196.261262 83.041 164.5570
197.683452 83.017 164.3552
199.115948 82.992 164.1608
200.558824 82.966 163.9755
202.012156 82.939 163.8002
203.476019 82.912 163.6349
204.950490 82.884 163.4785
206.435646 82.857 163.3289
207.931564 82.830 163.1837
209.438322 82.804 163.0408
210.955998 82.779 162.8983
212.484672 82.754 162.7552
214.024424 82.731 162.6112
215.575333 82.709 162.4662
217.137481 82.689 162.3205
218.710948 82.670 162.1748
220.295818 82.652 162.0295
221.892172 82.635 161.8854
223.500094 82.619 161.7432
225.119668 82.603 161.6033
226.750978 82.588 161.4662
228.394109 82.573 161.3317
230.049147 82.559 161.1992
231.716178 82.545 161.0676
233.395289 82.532 160.9353
235.086567 82.519 160.8009
236.790102 82.507 160.6631
238.505980 82.496 160.5212
240.234293 82.487 160.3753
241.975130 82.478 160.2268
243.728581 82.471 160.0777
245.494739 82.465 159.9305
247.273695 82.460 159.7875
249.065542 82.456 159.6502
250.870374 82.452 159.5196
252.688284 82.449 159.3951
254.519367 82.446 159.2755
256.363720 82.443 159.1583
258.221437 82.440 159.0412
260.092616 82.436 158.9217
261.977354 82.432 158.7980
263.875750 82.427 158.6695
265.787903 82.420 158.5367
267.713911 82.413 158.4015
269.653877 82.406 158.2666
271.607900 82.398 158.1345
273.576083 82.390 158.0070
275.558528 82.382 157.8852
277.555338 82.375 157.7696
279.566619 82.369 157.6600
281.592474 82.363 157.5555
283.633009 82.357 157.4546
285.688331 82.353 157.3555
287.758546 82.348 157.2562
289.843763 82.345 157.1550
291.944090 82.342 157.0510
294.059638 82.339 156.9442
296.190515 82.337 156.8352
298.336833 82.336 156.7253
300.498705 82.335 156.6161
302.676243 82.335 156.5096
304.869559 82.336 156.4073
307.078770 82.337 156.3101
309.303989 82.339 156.2182
311.545334 82.340 156.1309
313.802919 82.343 156.0469
316.076865 82.345 155.9648
318.367288 82.348 155.8837
320.674309 82.350 155.8029
322.998047 82.352 155.7223
325.338624 82.353 155.6417
327.696162 82.354 155.5607
330.070783 82.354 155.4791
332.462612 82.353 155.3963
334.871773 82.351 155.3120
337.298392 82.348 155.2265
339.742595 82.343 155.1406
342.204510 82.337 155.0554
344.684265 82.329 154.9721
347.181989 82.321 154.8916
349.697813 82.311 154.8144
352.231868 82.301 154.7404
354.784285 82.289 154.6697
357.355198 82.277 154.6021
359.944741 82.264 154.5377
362.553049 82.251 154.4763
365.180258 82.237 154.4175
367.826505 82.223 154.3607
370.491927 82.208 154.3048
373.176665 82.194 154.2488
375.880856 82.179 154.1916
378.604644 82.164 154.1323
381.348169 82.150 154.0703
384.111575 82.135 154.0060
386.895006 82.120 153.9399
389.698607 82.105 153.8734
392.522524 82.089 153.8076
395.366904 82.073 153.7437
398.231895 82.056 153.6823
401.117648 82.038 153.6236
404.024312 82.019 153.5675
406.952038 81.999 153.5138
409.900981 81.979 153.4623
412.871292 81.957 153.4127
415.863128 81.934 153.3649
418.876643 81.910 153.3185
421.911996 81.886 153.2731
424.969344 81.861 153.2284
428.048847 81.834 153.1840
431.150666 81.807 153.1401
434.274961 81.779 153.0967
437.421897 81.750 153.0539
440.591636 81.720 153.0117
443.784345 81.689 152.9698
447.000189 81.657 152.9283
450.239337 81.624 152.8875
453.501956 81.591 152.8481
456.788219 81.557 152.8109
460.098294 81.524 152.7761
463.432356 81.490 152.7441
466.790578 81.457 152.7147
470.173135 81.425 152.6876
473.580203 81.393 152.6624
477.011961 81.362 152.6392
480.468586 81.332 152.6178
483.950259 81.303 152.5985
487.457163 81.275 152.5813
490.989478 81.248 152.5660
494.547390 81.223 152.5524
498.131084 81.199 152.5402
501.740748 81.177 152.5293
505.376568 81.157 152.5194
509.038735 81.138 152.5101
512.727439 81.121 152.5006
516.442874 81.107 152.4899
520.185232 81.094 152.4764
523.954708 81.084 152.4583
527.751500 81.076 152.4340
531.575805 81.069 152.4023
535.427822 81.064 152.3626
539.307753 81.061 152.3150
543.215800 81.059 152.2600
547.152165 81.059 152.1989
551.117055 81.059 152.1333
555.110677 81.061 152.0649
559.133237 81.064 151.9956
563.184947 81.069 151.9272
567.266018 81.074 151.8615
571.376661 81.080 151.7997
575.517092 81.086 151.7433
579.687526 81.093 151.6932
583.888181 81.101 151.6502
588.119275 81.108 151.6147
592.381030 81.115 151.5865
596.673667 81.122 151.5651
600.997410 81.129 151.5494
605.352485 81.136 151.5379
609.739119 81.143 151.5294
614.157540 81.150 151.5223
618.607979 81.156 151.5156
623.090667 81.163 151.5086
627.605839 81.169 151.5008
632.153730 81.174 151.4923
636.734576 81.179 151.4836
641.348617 81.183 151.4750
645.996094 81.187 151.4669
650.677248 81.189 151.4590
655.392323 81.191 151.4509
660.141566 81.192 151.4418
664.925224 81.192 151.4308
669.743546 81.191 151.4166
674.596784 81.190 151.3982
679.485191 81.187 151.3745
684.409020 81.183 151.3448
689.368530 81.178 151.3086
694.363979 81.171 151.2656
699.395626 81.163 151.2162
704.463736 81.152 151.1612
709.568570 81.140 151.1023
714.710396 81.126 151.0419
719.889483 81.109 150.9828
725.106099 81.091 150.9279
730.360516 81.071 150.8799
735.653010 81.051 150.8405
740.983855 81.029 150.8109
746.353329 81.007 150.7911
751.761713 80.985 150.7798
757.209288 80.963 150.7750
762.696339 80.942 150.7734
768.223151 80.921 150.7712
773.790013 80.900 150.7643
779.397214 80.881 150.7488
785.045047 80.861 150.7217
790.733808 80.841 150.6810
796.463791 80.821 150.6254
802.235296 80.800 150.5549
808.048623 80.778 150.4704
813.904077 80.755 150.3736
819.801961 80.730 150.2670
825.742584 80.703 150.1538
831.726255 80.674 150.0375
837.753287 80.641 149.9221
843.823992 80.606 149.8118
849.938689 80.569 149.7111
856.097695 80.529 149.6249
862.301332 80.487 149.5584
868.549922 80.444 149.5168
874.843793 80.400 149.5045
881.183272 80.357 149.5246
887.568689 80.317 149.5787
894.000378 80.279 149.6660
900.478673 80.245 149.7840
907.003913 80.217 149.9281
913.576437 80.194 150.0926
920.196588 80.179 150.2708
926.864712 80.170 150.4554
933.581156 80.168 150.6389
940.346270 80.173 150.8138
947.160407 80.185 150.9731
954.023921 80.204 151.1115
960.937172 80.227 151.2247
967.900519 80.256 151.3109
974.914325 80.288 151.3697
981.978956 80.323 151.4028
989.094780 80.362 151.4125
996.262169 80.402 151.4021
1003.481495 80.445 151.3748
1010.753136 80.489 151.3334
1018.077470 80.535 151.2802
1025.454879 80.584 151.2167
1032.885748 80.633 151.1439
1040.370463 80.685 151.0616
1047.909417 80.738 150.9696
1055.503000 80.792 150.8672
1063.151610 80.847 150.7539
1070.855645 80.903 150.6295
1078.615506 80.959 150.4944
1086.431599 81.015 150.3494
1094.304330 81.070 150.1956
1102.234110 81.124 150.0348
1110.221353 81.177 149.8683
1118.266475 81.229 149.6979
1126.369895 81.279 149.5252
1134.532035 81.328 149.3512
1142.753322 81.376 149.1765
1151.034184 81.423 149.0012
1159.375052 81.469 148.8254
1167.776361 81.514 148.6490
1176.238550 81.558 148.4726
1184.762060 81.601 148.2969
1193.347334 81.643 148.1234
1201.994821 81.684 147.9535
1210.704971 81.724 147.7887
1219.478238 81.764 147.6295
1228.315080 81.805 147.4758
1237.215957 81.846 147.3260
1246.181334 81.888 147.1778
1255.211678 81.931 147.0281
1264.307459 81.975 146.8740
1273.469152 82.020 146.7131
1282.697235 82.065 146.5440
1291.992188 82.110 146.3658
1301.354495 82.154 146.1784
1310.784647 82.198 145.9826
1320.283132 82.242 145.7791
1329.850448 82.284 145.5690
1339.487093 82.325 145.3532
1349.193569 82.365 145.1326
1358.970381 82.404 144.9081
1368.818041 82.442 144.6807
1378.737061 82.479 144.4516
1388.727958 82.514 144.2227
1398.791253 82.549 143.9956
1408.927471 82.584 143.7720
1419.137140 82.618 143.5526
1429.420793 82.653 143.3372
1439.778965 82.688 143.1246
1450.212197 82.723 142.9137
1460.721033 82.759 142.7036
1471.306019 82.795 142.4946
1481.967709 82.830 142.2876
1492.706658 82.865 142.0841
1503.523426 82.899 141.8854
1514.418576 82.932 141.6920
1525.392678 82.963 141.5041
1536.446302 82.993 141.3221
1547.580025 83.019 141.1468
1558.794428 83.043 140.9794
1570.090095 83.063 140.8218
1581.467615 83.080 140.6763
1592.927581 83.092 140.5450
1604.470591 83.101 140.4296
1616.097246 83.105 140.3312
1627.808153 83.106 140.2503
1639.603922 83.102 140.1866
1651.485168 83.095 140.1396
1663.452510 83.085 140.1089
1675.506573 83.071 140.0942
1687.647984 83.054 140.0952
1699.877377 83.035 140.1118
1712.195390 83.014 140.1436
1724.602663 82.990 140.1907
1737.099845 82.965 140.2529
1749.687587 82.938 140.3303
1762.366544 82.910 140.4232
1775.137379 82.881 140.5327
1788.000756 82.851 140.6591
1800.957346 82.821 140.8029
1814.007826 82.790 140.9636
1827.152874 82.760 141.1400
1840.393177 82.729 141.3301
1853.729425 82.699 141.5312
1867.162312 82.669 141.7400
1880.692540 82.640 141.9534
1894.320813 82.609 142.1691
1908.047843 82.578 142.3859
1921.874344 82.546 142.6035
1935.801038 82.512 142.8227
1949.828650 82.477 143.0439
1963.957912 82.439 143.2677
1978.189561 82.399 143.4947
1992.524338 82.358 143.7263
2006.962991 82.314 143.9648
2021.506272 82.268 144.2130
2036.154940 82.221 144.4730
2050.909758 82.174 144.7459
2065.771495 82.126 145.0319
2080.740927 82.078 145.3299
2095.818833 82.032 145.6387
2111.006001 81.988 145.9562
2126.303220 81.946 146.2799
2141.711290 81.908 146.6066
2157.231013 81.873 146.9326
2172.863198 81.841 147.2541
2188.608660 81.814 147.5675
2204.468221 81.790 147.8696
2220.442706 81.770 148.1574
2236.532950 81.754 148.4290
2252.739789 81.740 148.6840
2269.064070 81.728 148.9235
2285.506644 81.718 149.1508
2302.068367 81.709 149.3701
2318.750104 81.702 149.5864
2335.552723 81.697 149.8036
2352.477101 81.696 150.0240
2369.524119 81.698 150.2473
2386.694668 81.705 150.4703
2403.989641 81.718 150.6875
2421.409941 81.736 150.8916
2438.956476 81.761 151.0753
2456.630160 81.790 151.2321
2474.431915 81.824 151.3586
2492.362668 81.861 151.4548
2510.423356 81.899 151.5242
2528.614918 81.939 151.5731
2546.938304 81.980 151.6089
2565.394469 82.022 151.6392
2583.984375 82.065 151.6702
2602.708991 82.111 151.7064
2621.569293 82.159 151.7500
2640.566265 82.211 151.8014
2659.700897 82.267 151.8589
2678.974186 82.328 151.9199
2698.387137 82.393 151.9813
2717.940763 82.463 152.0397
2737.636082 82.538 152.0916
2757.474121 82.617 152.1340
2777.455915 82.699 152.1639
2797.582506 82.784 152.1793
2817.854942 82.872 152.1791
2838.274281 82.961 152.1632
2858.841586 83.051 152.1322
2879.557931 83.141 152.0875
2900.424394 83.231 152.0309
2921.442065 83.320 151.9644
2942.612039 83.408 151.8896
2963.935418 83.495 151.8070
2985.413316 83.579 151.7165
3007.046852 83.661 151.6171
3028.837153 83.739 151.5080
3050.785356 83.814 151.3888
3072.892604 83.884 151.2603
3095.160050 83.948 151.1247
3117.588856 84.006 150.9849
3140.180190 84.057 150.8438
3162.935230 84.101 150.7041
3185.855163 84.139 150.5676
3208.941182 84.169 150.4353
3232.194493 84.193 150.3073
3255.616307 84.210 150.1826
3279.207844 84.221 150.0604
3302.970336 84.225 149.9392
3326.905021 84.223 149.8182
3351.013146 84.213 149.6970
3375.295969 84.197 149.5765
3399.754755 84.174 149.4584
3424.390779 84.144 149.3457
3449.205326 84.108 149.2419
3474.199690 84.065 149.1510
3499.375173 84.018 149.0760
3524.733088 83.967 149.0190
3550.274757 83.913 148.9803
3576.001511 83.858 148.9592
3601.914692 83.801 148.9543
3628.015651 83.745 148.9647
3654.305748 83.689 148.9903
3680.786354 83.634 149.0321
3707.458849 83.581 149.0923
3734.324624 83.530 149.1736
3761.385080 83.482 149.2784
3788.641627 83.438 149.4089
3816.095686 83.400 149.5661
3843.748688 83.367 149.7504
3871.602076 83.341 149.9618
3899.657300 83.323 150.1997
3927.915825 83.313 150.4635
3956.379122 83.312 150.7531
3985.048676 83.319 151.0685
4013.925981 83.336 151.4098
4043.012544 83.362 151.7767
4072.309879 83.398 152.1682
4101.819515 83.445 152.5814
4131.542990 83.503 153.0119
4161.481854 83.572 153.4536
4191.637667 83.652 153.8989
4222.012001 83.742 154.3390
4252.606441 83.843 154.7645
4283.422580 83.953 155.1653
4314.462026 84.073 155.5311
4345.726396 84.200 155.8514
4377.217321 84.333 156.1152
4408.936442 84.472 156.3117
4440.885413 84.615 156.4307
4473.065899 84.760 156.4630
4505.479579 84.905 156.4013
4538.128141 85.049 156.2407
4571.013288 85.189 155.9789
4604.136735 85.323 155.6163
4637.500207 85.451 155.1554
4671.105446 85.571 154.6001
4704.954201 85.681 153.9548
4739.048239 85.782 153.2241
4773.389336 85.872 152.4127
4807.979283 85.951 151.5258
4842.819883 86.017 150.5699
4877.912952 86.070 149.5522
4913.260320 86.109 148.4809
4948.863830 86.134 147.3643
4984.725337 86.144 146.2111
5020.846712 86.139 145.0305
5057.229836 86.118 143.8326
5093.876609 86.080 142.6299
5130.788938 86.025 141.4368
5167.968750 85.952 140.2706
5205.417982 85.861 139.1503
5243.138586 85.752 138.0961
5281.132530 85.628 137.1282
5319.401793 85.490 136.2658
5357.948371 85.340 135.5261
5396.774274 85.182 134.9237
5435.881525 85.019 134.4686
5475.272163 84.856 134.1652
5514.948243 84.697 134.0112
5554.911831 84.545 133.9965
5595.165012 84.406 134.1046
5635.709884 84.280 134.3132
5676.548561 84.170 134.5969
5717.683172 84.077 134.9288
5759.115861 84.000 135.2832
5800.848789 83.936 135.6370
5842.884130 83.883 135.9715
5885.224077 83.838 136.2734
5927.870837 83.797 136.5353
5970.826633 83.758 136.7558
6014.093704 83.716 136.9385
6057.674306 83.669 137.0916
6101.570711 83.614 137.2264
6145.785208 83.549 137.3568
6190.320101 83.474 137.4983
6235.177712 83.387 137.6674
6280.360380 83.288 137.8809
6325.870460 83.178 138.1548
6371.710325 83.057 138.5041
6417.882365 82.926 138.9423
6464.388986 82.788 139.4806
6511.232613 82.644 140.1277
6558.415689 82.497 140.8895
6605.940673 82.349 141.7681
6653.810042 82.204 142.7619
6702.026292 82.064 143.8651
6750.591937 81.933 145.0666
6799.509509 81.814 146.3502
6848.781558 81.709 147.6937
6898.410653 81.622 149.0692
6948.399380 81.553 150.4440
6998.750346 81.505 151.7816
7049.466176 81.477 153.0436
7100.549514 81.467 154.1925
7152.003023 81.474 155.1938
7203.829385 81.493 156.0189
7256.031302 81.521 156.6457
7308.611496 81.552 157.0600
7361.572708 81.581 157.2548
7414.917698 81.603 157.2301
7468.649249 81.611 156.9925
7522.770160 81.599 156.5546
7577.283253 81.563 155.9357
7632.191371 81.496 155.1619
7687.497376 81.393 154.2673
7743.204151 81.248 153.2963
7799.314600 81.058 152.3049
7855.831649 80.818 151.3647
7912.758244 80.525 150.5674
7970.097352 80.179 150.0302
8027.851962 79.782 149.9048
8086.025087 79.339 150.3882
8144.619758 78.860 151.7359
8203.639030 78.364 154.2704
8263.085980 77.873 158.3694
8322.963708 77.423 164.3872
8383.275334 77.048 172.4480
8444.024002 76.787 -177.8731
8505.212881 76.664 -167.6702
8566.845160 76.689 -158.2559
8628.924051 76.851 -150.4768
8691.452792 77.124 -144.5119
8754.434642 77.477 -140.1307
8817.872884 77.881 -136.9834
8881.770826 78.313 -134.7468
8946.131799 78.757 -133.1678
9010.959157 79.203 -132.0621
9076.256282 79.646 -131.3019
9142.026576 80.084 -130.8029
9208.273470 80.517 -130.5131
9275.000415 80.945 -130.4051
9342.210891 81.370 -130.4695
9409.908403 81.792 -130.7099
9478.096478 82.210 -131.1383
9546.778672 82.622 -131.7719
9615.958566 83.027 -132.6296
9685.639765 83.419 -133.7287
9755.825904 83.796 -135.0830
9826.520640 84.150 -136.7007
9897.727659 84.475 -138.5823
9969.450674 84.767 -140.7201
10041.693423 85.017 -143.0974
10114.459673 85.221 -145.6880
10187.753217 85.372 -148.4573
10261.577877 85.467 -151.3634
10335.937500 85.504 -154.3584
10410.835964 85.479 -157.3913
10486.277173 85.394 -160.4106
10562.265060 85.250 -163.3665
10638.803587 85.050 -166.2144
10715.896743 84.799 -168.9157
10793.548548 84.501 -171.4400
10871.763050 84.162 -173.7657
10950.544327 83.788 -175.8795
11029.896485 83.385 -177.7768
11109.823662 82.959 -179.4596
11190.330024 82.515 179.0645
11271.419768 82.057 177.7854
11353.097122 81.590 176.6929
11435.366344 81.115 175.7794
11518.231722 80.635 175.0424
11601.697577 80.153 174.4840
11685.768261 79.672 174.1092
11770.448155 79.197 173.9196
11855.741674 78.735 173.9062
11941.653265 78.297 174.0408
12028.187408 77.894 174.2695
12115.348612 77.539 174.5111
12203.141422 77.245 174.6617
12291.570415 77.020 174.6033
12380.640201 76.869 174.2156
12470.355424 76.791 173.3870
12560.720760 76.778 172.0217
12651.740920 76.817 170.0441
12743.420650 76.892 167.3992
12835.764729 76.986 164.0502
12928.777972 77.083 159.9751
13022.465227 77.168 155.1625
13116.831378 77.227 149.6064
13211.881345 77.254 143.3010
13307.620084 77.241 136.2370
13404.052584 77.187 128.4008
13501.183875 77.091 119.7770
13599.019019 76.955 110.3588
13697.563116 76.780 100.1645
13796.821305 76.573 89.2608
13896.798760 76.338 77.7852
13997.500692 76.084 65.9565
14098.932352 75.817 54.0566
14201.099028 75.548 42.3857
14304.006046 75.283 31.2035
14407.658770 75.031 20.6882
14512.062604 74.798 10.9255
14617.222992 74.586 1.9238
14723.145416 74.395 -6.3597
14829.835397 74.225 -13.9927
14937.298497 74.070 -21.0494
15045.540320 73.925 -27.5985
15154.566507 73.785 -33.6974
15264.382743 73.646 -39.3913
15374.994752 73.507 -44.7152
15486.408302 73.371 -49.7000
15598.629201 73.245 -54.3790
15711.663298 73.139 -58.7970
15825.516487 73.066 -63.0156
15940.194703 73.035 -67.1162
16055.703925 73.053 -71.1956
16172.050174 73.120 -75.3567
16289.239516 73.229 -79.6953
16407.278061 73.366 -84.2897
16526.171961 73.518 -89.1942
16645.927415 73.667 -94.4393
16766.550667 73.801 -100.0363
16888.048005 73.908 -105.9812
17010.425762 73.979 -112.2611
17133.690320 74.007 -118.8572
17257.848103 73.987 -125.7478
17382.905584 73.914 -132.9091
17508.869284 73.785 -140.3162
17635.745768 73.596 -147.9418
17763.541652 73.342 -155.7562
17892.263597 73.021 -163.7280
18021.918315 72.631 -171.8267
18152.512564 72.170 179.9727
18284.053153 71.640 171.6820
18416.546939 71.045 163.2935
18550.000830 70.392 154.7713
18684.421783 69.690 146.0531
18819.816805 68.954 137.0586
18956.192956 68.200 127.7167
19093.557344 67.449 118.0204
19231.917131 66.726 108.1055
19371.279531 66.059 98.3309
19511.651807 65.479 89.2895
19653.041280 65.012 81.7040
19795.455318 64.686 76.2467
19938.901348 64.518 73.3986
