* Measurement data measured by REW V5.31.3
* Source: EXCL: Headset (USB-C to 3.5mm Headphone Jack Adapter), MICROPHONE (Master Volume), 0, volume: 0.750
* Format: 256k Log Swept Sine, 1 sweep at -12.0 dBFS with no timing reference
* Dated: Apr 1, 2025 10:25:23 PM
* REW Settings:
*  C-weighting compensation: Off
*  Target level: 75.0 dB
* Note: ; 
* Measurement: HD6XX (Soulwit) L3
* Smoothing: 1/6 octave
* Frequency Step: 96 ppo
* Start Frequency: 20.0 Hz
*
* Freq(Hz) SPL(dB) Phase(degrees)
20.033247 82.232 -96.8069
20.178416 82.311 -97.1459
20.324637 82.391 -97.4825
20.471918 82.475 -97.8185
20.620266 82.561 -98.1558
20.769689 82.650 -98.4960
20.920195 82.741 -98.8401
21.071791 82.834 -99.1885
21.224486 82.928 -99.5398
21.378287 83.022 -99.8921
21.533203 83.116 -100.2420
21.689242 83.209 -100.5858
21.846411 83.302 -100.9191
22.004719 83.393 -101.2382
22.164174 83.482 -101.5399
22.324785 83.571 -101.8223
22.486559 83.658 -102.0852
22.649506 83.745 -102.3303
22.813634 83.830 -102.5610
22.978951 83.914 -102.7825
23.145466 83.997 -103.0010
23.313188 84.078 -103.2230
23.482124 84.156 -103.4550
23.652286 84.231 -103.7023
23.823680 84.301 -103.9687
23.996316 84.367 -104.2557
24.170203 84.426 -104.5631
24.345351 84.480 -104.8882
24.521767 84.527 -105.2273
24.699462 84.568 -105.5753
24.878444 84.604 -105.9270
25.058724 84.635 -106.2781
25.240310 84.663 -106.6252
25.423211 84.689 -106.9669
25.607438 84.715 -107.3033
25.793000 84.741 -107.6368
25.979907 84.768 -107.9708
26.168168 84.797 -108.3096
26.357794 84.829 -108.6574
26.548793 84.862 -109.0178
26.741176 84.897 -109.3926
26.934954 84.933 -109.7822
27.130136 84.969 -110.1852
27.326732 85.005 -110.5989
27.524753 85.041 -111.0196
27.724208 85.076 -111.4435
27.925110 85.111 -111.8676
28.127466 85.147 -112.2892
28.331290 85.183 -112.7074
28.536590 85.220 -113.1219
28.743378 85.257 -113.5334
28.951664 85.296 -113.9424
29.161460 85.335 -114.3492
29.372776 85.375 -114.7533
29.585623 85.415 -115.1530
29.800013 85.456 -115.5457
30.015956 85.498 -115.9286
30.233464 85.541 -116.2990
30.452548 85.587 -116.6550
30.673220 85.635 -116.9963
30.895490 85.687 -117.3240
31.119372 85.744 -117.6408
31.344876 85.806 -117.9507
31.572014 85.873 -118.2576
31.800797 85.946 -118.5652
32.031239 86.023 -118.8762
32.263351 86.104 -119.1918
32.497144 86.188 -119.5117
32.732632 86.276 -119.8349
32.969826 86.366 -120.1595
33.208739 86.459 -120.4843
33.449383 86.553 -120.8082
33.691771 86.650 -121.1312
33.935916 86.748 -121.4539
34.181829 86.847 -121.7772
34.429525 86.947 -122.1018
34.679015 87.046 -122.4282
34.930314 87.145 -122.7557
35.183433 87.243 -123.0833
35.438387 87.339 -123.4091
35.695188 87.434 -123.7318
35.953850 87.527 -124.0500
36.214387 87.618 -124.3635
36.476811 87.709 -124.6732
36.741137 87.798 -124.9803
37.007378 87.886 -125.2873
37.275549 87.972 -125.5963
37.545663 88.058 -125.9092
37.817734 88.141 -126.2277
38.091777 88.223 -126.5525
38.367806 88.302 -126.8838
38.645835 88.379 -127.2216
38.925879 88.454 -127.5656
39.207952 88.527 -127.9156
39.492069 88.598 -128.2715
39.778244 88.666 -128.6326
40.066494 88.732 -128.9982
40.356832 88.795 -129.3665
40.649275 88.856 -129.7352
40.943836 88.914 -130.1013
41.240532 88.970 -130.4612
41.539378 89.024 -130.8117
41.840389 89.076 -131.1501
42.143582 89.127 -131.4747
42.448972 89.178 -131.7851
42.756574 89.229 -132.0817
43.066406 89.279 -132.3655
43.378483 89.330 -132.6380
43.692822 89.381 -132.9001
44.009438 89.432 -133.1532
44.328348 89.483 -133.3983
44.649570 89.534 -133.6372
44.973119 89.585 -133.8724
45.299013 89.635 -134.1072
45.627268 89.686 -134.3452
45.957902 89.736 -134.5904
46.290932 89.785 -134.8458
46.626375 89.833 -135.1135
46.964249 89.878 -135.3948
47.304571 89.921 -135.6897
47.647360 89.962 -135.9980
47.992632 90.000 -136.3189
48.340407 90.035 -136.6519
48.690701 90.068 -136.9963
49.043534 90.098 -137.3515
49.398924 90.127 -137.7165
49.756889 90.153 -138.0900
50.117447 90.177 -138.4703
50.480619 90.200 -138.8555
50.846423 90.220 -139.2430
51.214877 90.240 -139.6307
51.586001 90.258 -140.0164
51.959814 90.275 -140.3984
52.336336 90.291 -140.7751
52.715587 90.306 -141.1453
53.097586 90.320 -141.5076
53.482353 90.333 -141.8604
53.869908 90.344 -142.2024
54.260272 90.355 -142.5330
54.653464 90.364 -142.8519
55.049506 90.373 -143.1601
55.448417 90.380 -143.4587
55.850219 90.388 -143.7493
56.254933 90.395 -144.0331
56.662579 90.402 -144.3110
57.073180 90.409 -144.5835
57.486755 90.417 -144.8505
57.903328 90.427 -145.1118
58.322919 90.441 -145.3676
58.745551 90.459 -145.6196
59.171246 90.483 -145.8724
59.600025 90.514 -146.1330
60.031911 90.552 -146.4101
60.466927 90.597 -146.7114
60.905096 90.648 -147.0416
61.346439 90.704 -147.4003
61.790981 90.762 -147.7831
62.238744 90.823 -148.1828
62.689751 90.884 -148.5912
63.144027 90.947 -149.0009
63.601595 91.009 -149.4056
64.062478 91.071 -149.8011
64.526701 91.133 -150.1847
64.994288 91.194 -150.5554
65.465264 91.254 -150.9140
65.939652 91.314 -151.2624
66.417478 91.371 -151.6031
66.898766 91.427 -151.9391
67.383542 91.481 -152.2727
67.871831 91.532 -152.6060
68.363659 91.580 -152.9401
68.859050 91.626 -153.2758
69.358031 91.669 -153.6132
69.860628 91.710 -153.9520
70.366867 91.749 -154.2922
70.876774 91.786 -154.6334
71.390376 91.821 -154.9754
71.907700 91.855 -155.3182
72.428773 91.887 -155.6618
72.953622 91.917 -156.0059
73.482274 91.945 -156.3502
74.014757 91.972 -156.6943
74.551098 91.996 -157.0374
75.091326 92.017 -157.3788
75.635469 92.036 -157.7181
76.183555 92.053 -158.0552
76.735612 92.067 -158.3901
77.291670 92.079 -158.7233
77.851757 92.089 -159.0552
78.415903 92.098 -159.3865
78.984137 92.105 -159.7180
79.556489 92.112 -160.0502
80.132988 92.117 -160.3839
80.713665 92.123 -160.7195
81.298549 92.128 -161.0569
81.887672 92.133 -161.3961
82.481064 92.137 -161.7363
83.078756 92.142 -162.0768
83.680778 92.146 -162.4168
84.287164 92.149 -162.7558
84.897943 92.153 -163.0934
85.513149 92.156 -163.4296
86.132812 92.158 -163.7643
86.756966 92.160 -164.0978
87.385643 92.161 -164.4301
88.018875 92.162 -164.7614
88.656696 92.162 -165.0917
89.299139 92.162 -165.4213
89.946238 92.161 -165.7499
90.598025 92.160 -166.0778
91.254536 92.158 -166.4047
91.915804 92.157 -166.7307
92.581864 92.155 -167.0559
93.252750 92.153 -167.3806
93.928498 92.151 -167.7048
94.609143 92.150 -168.0286
95.294719 92.148 -168.3522
95.985264 92.147 -168.6755
96.680813 92.146 -168.9986
97.381402 92.144 -169.3214
98.087068 92.143 -169.6440
98.797847 92.142 -169.9664
99.513777 92.141 -170.2881
100.234895 92.140 -170.6087
100.961238 92.139 -170.9276
101.692845 92.138 -171.2441
102.429753 92.137 -171.5577
103.172002 92.136 -171.8681
103.919628 92.136 -172.1750
104.672673 92.136 -172.4790
105.431174 92.137 -172.7804
106.195172 92.139 -173.0800
106.964706 92.143 -173.3789
107.739816 92.148 -173.6781
108.520543 92.154 -173.9786
109.306928 92.161 -174.2809
110.099011 92.170 -174.5851
110.896834 92.180 -174.8909
111.700438 92.191 -175.1975
112.509866 92.202 -175.5038
113.325158 92.214 -175.8088
114.146359 92.226 -176.1113
114.973511 92.238 -176.4108
115.806656 92.249 -176.7069
116.645839 92.260 -176.9999
117.491103 92.271 -177.2903
118.342492 92.282 -177.5790
119.200050 92.292 -177.8665
120.063823 92.302 -178.1531
120.933855 92.311 -178.4390
121.810191 92.319 -178.7235
122.692878 92.327 -179.0062
123.581962 92.333 -179.2861
124.477487 92.339 -179.5623
125.379503 92.344 -179.8342
126.288054 92.349 179.8986
127.203189 92.352 179.6364
128.124956 92.354 179.3785
129.053402 92.355 179.1244
129.988577 92.356 178.8729
130.930527 92.355 178.6232
131.879304 92.354 178.3739
132.834956 92.352 178.1241
133.797533 92.349 177.8730
134.767085 92.346 177.6199
135.743663 92.341 177.3644
136.727317 92.335 177.1066
137.718100 92.328 176.8469
138.716062 92.319 176.5853
139.721255 92.310 176.3223
140.733733 92.299 176.0580
141.753548 92.287 175.7928
142.780753 92.274 175.5272
143.815401 92.261 175.2616
144.857546 92.246 174.9970
145.907244 92.231 174.7344
146.964548 92.215 174.4746
148.029514 92.199 174.2186
149.102197 92.182 173.9670
150.182652 92.165 173.7200
151.270938 92.148 173.4775
152.367109 92.130 173.2390
153.471224 92.112 173.0039
154.583340 92.095 172.7715
155.703515 92.077 172.5414
156.831807 92.059 172.3127
157.968274 92.041 172.0851
159.112978 92.024 171.8583
160.265976 92.006 171.6321
161.427329 91.988 171.4066
162.597098 91.971 171.1815
163.775344 91.953 170.9569
164.962128 91.936 170.7328
166.157511 91.918 170.5092
167.361557 91.901 170.2860
168.574328 91.883 170.0635
169.795887 91.866 169.8418
171.026298 91.849 169.6212
172.265625 91.832 169.4019
173.513933 91.815 169.1837
174.771286 91.798 168.9664
176.037751 91.781 168.7493
177.313393 91.764 168.5316
178.598279 91.747 168.3122
179.892476 91.730 168.0905
181.196051 91.712 167.8660
182.509072 91.694 167.6392
183.831608 91.675 167.4111
185.163728 91.655 167.1830
186.505500 91.634 166.9564
187.856996 91.612 166.7325
189.218285 91.589 166.5118
190.589439 91.566 166.2946
191.970529 91.541 166.0806
193.361626 91.516 165.8690
194.762804 91.490 165.6593
196.174136 91.464 165.4508
197.595694 91.438 165.2433
199.027554 91.412 165.0372
200.469790 91.386 164.8329
201.922477 91.361 164.6314
203.385690 91.336 164.4335
204.859507 91.312 164.2398
206.344003 91.288 164.0508
207.839257 91.266 163.8663
209.345346 91.244 163.6861
210.862348 91.223 163.5095
212.390344 91.202 163.3359
213.929412 91.183 163.1650
215.479633 91.163 162.9968
217.041087 91.144 162.8314
218.613856 91.126 162.6687
220.198022 91.108 162.5088
221.793668 91.091 162.3515
223.400876 91.074 162.1966
225.019731 91.058 162.0439
226.650317 91.043 161.8934
228.292718 91.029 161.7443
229.947022 91.015 161.5961
231.613312 91.003 161.4481
233.291678 90.991 161.2993
234.982206 90.980 161.1492
236.684984 90.970 160.9974
238.400101 90.962 160.8442
240.127646 90.954 160.6896
241.867710 90.947 160.5342
243.620383 90.942 160.3784
245.385757 90.937 160.2222
247.163923 90.933 160.0656
248.954975 90.929 159.9087
250.759005 90.926 159.7511
252.576108 90.924 159.5928
254.406379 90.921 159.4336
256.249912 90.918 159.2737
258.106805 90.914 159.1138
259.977153 90.910 158.9546
261.861055 90.905 158.7974
263.758608 90.899 158.6435
265.669911 90.892 158.4938
267.595065 90.885 158.3488
269.534169 90.878 158.2084
271.487325 90.871 158.0723
273.454634 90.865 157.9400
275.436199 90.859 157.8112
277.432123 90.853 157.6852
279.442511 90.847 157.5616
281.467467 90.843 157.4400
283.507096 90.839 157.3197
285.561505 90.835 157.2007
287.630801 90.832 157.0830
289.715093 90.830 156.9669
291.814488 90.828 156.8525
293.929096 90.826 156.7401
296.059027 90.824 156.6296
298.204393 90.823 156.5211
300.365305 90.821 156.4141
302.541876 90.820 156.3084
304.734219 90.819 156.2038
306.942449 90.818 156.0999
309.166680 90.818 155.9965
311.407029 90.818 155.8936
313.663613 90.818 155.7914
315.936549 90.819 155.6903
318.225955 90.821 155.5907
320.531952 90.822 155.4930
322.854659 90.824 155.3976
325.194197 90.826 155.3047
327.550688 90.828 155.2143
329.924255 90.829 155.1262
332.315022 90.830 155.0401
334.723114 90.831 154.9556
337.148655 90.830 154.8722
339.591774 90.829 154.7894
342.052596 90.827 154.7068
344.531250 90.823 154.6245
347.027865 90.818 154.5423
349.542572 90.812 154.4606
352.075502 90.805 154.3792
354.626786 90.797 154.2983
357.196558 90.787 154.2177
359.784951 90.776 154.1373
362.392101 90.764 154.0573
365.018144 90.752 153.9775
367.663216 90.738 153.8983
370.327455 90.725 153.8196
373.011000 90.711 153.7418
375.713992 90.696 153.6652
378.436570 90.682 153.5900
381.178878 90.668 153.5165
383.941057 90.653 153.4448
386.723252 90.639 153.3748
389.525608 90.624 153.3064
392.348271 90.610 153.2394
395.191389 90.595 153.1735
398.055108 90.580 153.1086
400.939580 90.564 153.0446
403.844953 90.548 152.9811
406.771380 90.531 152.9181
409.719013 90.513 152.8553
412.688006 90.495 152.7926
415.678514 90.475 152.7296
418.690692 90.454 152.6661
421.724697 90.432 152.6021
424.780688 90.408 152.5377
427.858824 90.383 152.4731
430.959265 90.356 152.4088
434.082174 90.328 152.3453
437.227712 90.299 152.2832
440.396044 90.268 152.2230
443.587336 90.236 152.1650
446.801752 90.204 152.1098
450.039462 90.170 152.0574
453.300634 90.135 152.0077
456.585437 90.100 151.9605
459.894043 90.065 151.9154
463.226625 90.030 151.8719
466.583356 89.995 151.8295
469.964411 89.961 151.7878
473.369967 89.928 151.7466
476.800201 89.895 151.7055
480.255292 89.864 151.6646
483.735420 89.834 151.6237
487.240766 89.805 151.5828
490.771513 89.777 151.5416
494.327846 89.751 151.4999
497.909949 89.726 151.4575
501.518010 89.702 151.4146
505.152216 89.680 151.3710
508.812758 89.659 151.3269
512.499825 89.639 151.2822
516.213610 89.622 151.2366
519.954306 89.606 151.1898
523.722109 89.592 151.1414
527.517216 89.580 151.0912
531.339823 89.570 151.0391
535.190130 89.563 150.9853
539.068339 89.557 150.9302
542.974650 89.552 150.8743
546.909268 89.550 150.8182
550.872398 89.549 150.7625
554.864247 89.550 150.7079
558.885022 89.551 150.6550
562.934933 89.554 150.6046
567.014192 89.559 150.5573
571.123010 89.564 150.5140
575.261603 89.570 150.4755
579.430186 89.577 150.4421
583.628976 89.584 150.4143
587.858192 89.592 150.3923
592.118055 89.600 150.3759
596.408786 89.609 150.3648
600.730610 89.618 150.3583
605.083752 89.626 150.3553
609.468438 89.635 150.3546
613.884897 89.644 150.3546
618.333360 89.653 150.3540
622.814059 89.661 150.3519
627.327226 89.668 150.3478
631.873098 89.674 150.3414
636.451911 89.680 150.3328
641.063904 89.685 150.3223
645.709317 89.688 150.3099
650.388393 89.691 150.2959
655.101375 89.693 150.2802
659.848510 89.694 150.2626
664.630044 89.694 150.2427
669.446228 89.693 150.2202
674.297311 89.691 150.1945
679.183547 89.688 150.1658
684.105191 89.685 150.1340
689.062499 89.680 150.0999
694.055730 89.674 150.0640
699.085144 89.667 150.0270
704.151003 89.659 149.9899
709.253572 89.650 149.9531
714.393116 89.640 149.9171
719.569903 89.628 149.8818
724.784203 89.616 149.8470
730.036288 89.603 149.8120
735.326432 89.588 149.7758
740.654910 89.573 149.7373
746.022001 89.557 149.6956
751.427984 89.540 149.6496
756.873141 89.522 149.5988
762.357756 89.502 149.5431
767.882114 89.481 149.4825
773.446504 89.459 149.4171
779.051217 89.435 149.3469
784.696543 89.411 149.2716
790.382778 89.386 149.1904
796.110217 89.360 149.1025
801.879160 89.333 149.0070
807.689907 89.305 148.9034
813.542761 89.275 148.7917
819.438027 89.244 148.6729
825.376013 89.210 148.5492
831.357028 89.175 148.4241
837.381383 89.136 148.3027
843.449394 89.095 148.1912
849.561376 89.050 148.0968
855.717648 89.003 148.0278
861.918531 88.954 147.9926
868.164348 88.904 147.9986
874.455424 88.854 148.0511
880.792089 88.807 148.1521
887.174671 88.764 148.2993
893.603505 88.727 148.4862
900.078924 88.698 148.7029
906.601267 88.677 148.9371
913.170874 88.665 149.1759
919.788086 88.662 149.4075
926.453250 88.667 149.6221
933.166712 88.680 149.8126
939.928823 88.698 149.9747
946.739934 88.722 150.1062
953.600402 88.751 150.2070
960.510584 88.783 150.2780
967.470839 88.818 150.3213
974.481532 88.856 150.3392
981.543027 88.896 150.3344
988.655692 88.937 150.3088
995.819899 88.981 150.2645
1003.036020 89.025 150.2031
1010.304433 89.071 150.1265
1017.625515 89.118 150.0363
1024.999649 89.166 149.9348
1032.427219 89.215 149.8240
1039.908612 89.264 149.7060
1047.444219 89.313 149.5825
1055.034432 89.364 149.4547
1062.679646 89.414 149.3231
1070.380261 89.466 149.1874
1078.136677 89.517 149.0476
1085.949300 89.569 148.9028
1093.818536 89.620 148.7527
1101.744796 89.672 148.5970
1109.728493 89.723 148.4358
1117.770043 89.773 148.2701
1125.869866 89.822 148.1012
1134.028383 89.870 147.9306
1142.246020 89.916 147.7595
1150.523206 89.962 147.5889
1158.860371 90.007 147.4186
1167.257951 90.051 147.2484
1175.716383 90.095 147.0774
1184.236109 90.138 146.9051
1192.817572 90.180 146.7311
1201.461220 90.221 146.5558
1210.167503 90.261 146.3801
1218.936876 90.300 146.2050
1227.769795 90.339 146.0316
1236.666721 90.377 145.8608
1245.628118 90.415 145.6927
1254.654453 90.453 145.5269
1263.746196 90.492 145.3621
1272.903822 90.531 145.1967
1282.127808 90.570 145.0292
1291.418634 90.609 144.8585
1300.776786 90.647 144.6838
1310.202751 90.686 144.5054
1319.697020 90.724 144.3234
1329.260089 90.761 144.1382
1338.892455 90.798 143.9501
1348.594622 90.834 143.7593
1358.367094 90.870 143.5660
1368.210382 90.905 143.3707
1378.124999 90.939 143.1740
1388.111461 90.972 142.9763
1398.170288 91.006 142.7775
1408.302007 91.039 142.5773
1418.507144 91.072 142.3752
1428.786231 91.104 142.1716
1439.139805 91.136 141.9673
1449.568405 91.167 141.7637
1460.072576 91.198 141.5629
1470.652863 91.227 141.3677
1481.309820 91.255 141.1811
1492.044002 91.282 141.0063
1502.855968 91.307 140.8461
1513.746282 91.331 140.7023
1524.715511 91.355 140.5757
1535.764228 91.376 140.4663
1546.893009 91.397 140.3733
1558.102433 91.416 140.2955
1569.393086 91.432 140.2325
1580.765555 91.446 140.1840
1592.220434 91.457 140.1503
1603.758320 91.465 140.1315
1615.379813 91.470 140.1282
1627.085521 91.472 140.1407
1638.876054 91.470 140.1699
1650.752025 91.466 140.2164
1662.714055 91.458 140.2811
1674.762766 91.448 140.3640
1686.898788 91.436 140.4645
1699.122752 91.422 140.5811
1711.435296 91.408 140.7119
1723.837061 91.392 140.8550
1736.328695 91.375 141.0087
1748.910849 91.358 141.1716
1761.584178 91.340 141.3428
1774.349343 91.322 141.5225
1787.207010 91.302 141.7117
1800.157848 91.282 141.9117
1813.202534 91.261 142.1246
1826.341747 91.240 142.3520
1839.576172 91.218 142.5947
1852.906500 91.197 142.8524
1866.333424 91.176 143.1235
1879.857645 91.156 143.4042
1893.479869 91.137 143.6898
1907.200804 91.120 143.9744
1921.021168 91.103 144.2529
1934.941679 91.085 144.5209
1948.963064 91.068 144.7764
1963.086054 91.048 145.0195
1977.311384 91.026 145.2521
1991.639798 91.002 145.4775
2006.072041 90.975 145.6992
2020.608866 90.945 145.9203
2035.251031 90.912 146.1439
2049.999299 90.878 146.3726
2064.854438 90.841 146.6083
2079.817225 90.804 146.8527
2094.888438 90.766 147.1068
2110.068863 90.728 147.3704
2125.359292 90.692 147.6425
2140.760521 90.656 147.9220
2156.273355 90.623 148.2071
2171.898600 90.592 148.4965
2187.637073 90.564 148.7885
2203.489593 90.539 149.0811
2219.456987 90.518 149.3713
2235.540087 90.500 149.6564
2251.739732 90.487 149.9330
2268.056766 90.476 150.1985
2284.492041 90.470 150.4506
2301.046412 90.466 150.6875
2317.720742 90.465 150.9084
2334.515902 90.467 151.1136
2351.432767 90.471 151.3047
2368.472218 90.477 151.4838
2385.635144 90.485 151.6524
2402.922440 90.496 151.8121
2420.335006 90.508 151.9643
2437.873752 90.524 152.1101
2455.539590 90.541 152.2511
2473.333442 90.562 152.3887
2491.256235 90.586 152.5235
2509.308905 90.614 152.6557
2527.492392 90.646 152.7847
2545.807644 90.681 152.9099
2564.255615 90.721 153.0306
2582.837268 90.764 153.1464
2601.553572 90.811 153.2574
2620.405502 90.861 153.3651
2639.394040 90.915 153.4717
2658.520177 90.972 153.5798
2677.784910 91.033 153.6918
2697.189244 91.097 153.8093
2716.734189 91.166 153.9324
2736.420765 91.240 154.0593
2756.249998 91.319 154.1868
2776.222921 91.403 154.3104
2796.340577 91.492 154.4252
2816.604013 91.584 154.5264
2837.014287 91.681 154.6100
2857.572462 91.779 154.6732
2878.279610 91.879 154.7148
2899.136811 91.980 154.7351
2920.145151 92.080 154.7355
2941.305727 92.178 154.7184
2962.619641 92.275 154.6865
2984.088004 92.369 154.6425
3005.711935 92.460 154.5888
3027.492563 92.548 154.5267
3049.431022 92.632 154.4564
3071.528457 92.712 154.3775
3093.786018 92.788 154.2894
3116.204867 92.858 154.1910
3138.786172 92.923 154.0818
3161.531110 92.982 153.9615
3184.440868 93.033 153.8304
3207.516639 93.077 153.6898
3230.759627 93.112 153.5413
3254.171043 93.140 153.3872
3277.752108 93.158 153.2302
3301.504051 93.168 153.0731
3325.428110 93.169 152.9189
3349.525533 93.162 152.7706
3373.797576 93.147 152.6309
3398.245504 93.124 152.5024
3422.870591 93.095 152.3871
3447.674123 93.059 152.2864
3472.657391 93.018 152.2013
3497.821698 92.971 152.1324
3523.168356 92.921 152.0807
3548.698686 92.868 152.0472
3574.414019 92.812 152.0328
3600.315697 92.754 152.0385
3626.405068 92.696 152.0652
3652.683494 92.638 152.1139
3679.152345 92.581 152.1853
3705.812999 92.526 152.2805
3732.666848 92.474 152.4001
3759.715291 92.426 152.5452
3786.959737 92.382 152.7163
3814.401609 92.345 152.9141
3842.042335 92.314 153.1386
3869.883358 92.290 153.3898
3897.926128 92.275 153.6669
3926.172107 92.268 153.9690
3954.622769 92.271 154.2950
3983.279596 92.283 154.6436
4012.144082 92.306 155.0131
4041.217732 92.339 155.4015
4070.502061 92.382 155.8057
4099.998597 92.436 156.2219
4129.708877 92.500 156.6451
4159.634450 92.576 157.0691
4189.776876 92.661 157.4865
4220.137726 92.756 157.8888
4250.718584 92.861 158.2667
4281.521043 92.973 158.6107
4312.546709 93.093 158.9108
4343.797200 93.219 159.1572
4375.274146 93.350 159.3406
4406.979186 93.484 159.4517
4438.913974 93.620 159.4827
4471.080174 93.756 159.4266
4503.479464 93.890 159.2786
4536.113533 94.020 159.0355
4568.984081 94.145 158.6960
4602.092823 94.263 158.2607
4635.441485 94.372 157.7324
4669.031805 94.472 157.1149
4702.865534 94.560 156.4139
4736.944436 94.637 155.6360
4771.270288 94.700 154.7883
4805.844880 94.750 153.8786
4840.670013 94.787 152.9145
4875.747503 94.809 151.9037
4911.079179 94.816 150.8546
4946.666884 94.808 149.7753
4982.512471 94.786 148.6749
5018.617810 94.747 147.5626
5054.984784 94.693 146.4482
5091.615287 94.624 145.3428
5128.511230 94.538 144.2581
5165.674537 94.436 143.2076
5203.107144 94.317 142.2065
5240.811003 94.183 141.2713
5278.788080 94.034 140.4202
5317.040355 93.871 139.6715
5355.569821 93.696 139.0439
5394.378487 93.511 138.5544
5433.468378 93.319 138.2175
5472.841529 93.124 138.0435
5512.499995 92.930 138.0375
5552.445842 92.741 138.1984
5592.681154 92.562 138.5182
5633.208027 92.396 138.9828
5674.028574 92.246 139.5717
5715.144924 92.115 140.2597
5756.559221 92.004 141.0184
5798.273622 91.913 141.8176
5840.290302 91.842 142.6278
5882.611454 91.788 143.4218
5925.239281 91.748 144.1769
5968.176007 91.720 144.8760
6011.423871 91.698 145.5081
6054.985126 91.681 146.0683
6098.862045 91.663 146.5573
6143.056913 91.642 146.9802
6187.572036 91.615 147.3459
6232.409733 91.579 147.6660
6277.572344 91.533 147.9536
6323.062220 91.476 148.2231
6368.881736 91.406 148.4894
6415.033278 91.322 148.7674
6461.519254 91.226 149.0716
6508.342086 91.117 149.4160
6555.504216 90.996 149.8136
6603.008102 90.864 150.2769
6650.856220 90.722 150.8174
6699.051066 90.571 151.4453
6747.595151 90.415 152.1694
6796.491007 90.256 152.9955
6845.741183 90.097 153.9255
6895.348246 89.941 154.9559
6945.314781 89.792 156.0758
6995.643395 89.655 157.2659
7046.336711 89.533 158.4977
7097.397372 89.428 159.7336
7148.828039 89.344 160.9293
7200.631394 89.281 162.0369
7252.810137 89.237 163.0087
7305.366989 89.210 163.8012
7358.304690 89.196 164.3785
7411.625999 89.188 164.7139
7465.333696 89.180 164.7911
7519.430581 89.165 164.6040
7573.919475 89.135 164.1567
7628.803218 89.084 163.4623
7684.084670 89.003 162.5424
7739.766716 88.886 161.4263
7795.852256 88.727 160.1516
7852.344215 88.521 158.7638
7909.245538 88.262 157.3182
7966.559191 87.947 155.8821
8024.288163 87.574 154.5387
8082.435463 87.142 153.3945
8141.004122 86.654 152.5914
8199.997194 86.114 152.3281
8259.417754 85.534 152.9000
8319.268900 84.930 154.7714
8379.553752 84.329 158.7037
8440.275452 83.764 165.9421
8501.437168 83.280 178.2085
8563.042086 82.921 -163.7206
8625.093419 82.723 -143.4344
8687.594401 82.702 -126.9856
8750.548291 82.846 -116.1809
8813.958371 83.127 -109.5992
8877.827947 83.503 -105.6536
8942.160348 83.939 -103.3096
9006.958928 84.402 -101.9558
9072.227065 84.874 -101.2323
9137.968162 85.339 -100.9227
9204.185647 85.791 -100.8956
9270.882970 86.226 -101.0721
9338.063610 86.643 -101.4064
9405.731068 87.041 -101.8750
9473.888873 87.422 -102.4692
9542.540577 87.784 -103.1901
9611.689759 88.127 -104.0441
9681.340025 88.451 -105.0405
9751.495006 88.754 -106.1885
9822.158359 89.033 -107.4947
9893.333767 89.284 -108.9618
9965.024942 89.505 -110.5870
10037.235620 89.692 -112.3613
10109.969567 89.842 -114.2692
10183.230574 89.950 -116.2888
10257.022461 90.015 -118.3929
10331.349074 90.035 -120.5503
10406.214288 90.009 -122.7269
10481.622007 89.938 -124.8882
10557.576160 89.823 -127.0009
10634.080709 89.665 -129.0353
10711.139642 89.470 -130.9664
10788.756975 89.240 -132.7759
10866.936755 88.981 -134.4522
10945.683059 88.696 -135.9915
11024.999990 88.391 -137.3967
11104.891685 88.069 -138.6768
11185.362308 87.734 -139.8442
11266.416054 87.388 -140.9131
11348.057149 87.032 -141.8952
11430.289849 86.667 -142.7967
11513.118441 86.291 -143.6145
11596.547243 85.904 -144.3344
11680.580605 85.505 -144.9306
11765.222907 85.094 -145.3690
11850.478562 84.675 -145.6135
11936.352015 84.256 -145.6362
12022.847742 83.845 -145.4288
12109.970253 83.459 -145.0131
12197.724089 83.112 -144.4481
12286.113826 82.823 -143.8307
12375.144072 82.604 -143.2876
12464.819467 82.466 -142.9613
12555.144687 82.409 -142.9917
12646.124441 82.427 -143.4995
12737.763472 82.507 -144.5739
12830.066557 82.631 -146.2689
12923.038508 82.777 -148.6033
13016.684172 82.930 -151.5670
13111.008431 83.072 -155.1285
13206.016203 83.194 -159.2435
13301.712440 83.287 -163.8632
13398.102132 83.347 -168.9406
13495.190303 83.373 -174.4340
13592.982015 83.364 179.6921
13691.482366 83.317 173.4704
13790.696491 83.231 166.9335
13890.629563 83.102 160.1180
13991.286791 82.929 153.0667
14092.673422 82.709 145.8284
14194.794743 82.441 138.4556
14297.656077 82.126 131.0012
14401.262787 81.768 123.5143
14505.620274 81.370 116.0365
14610.733978 80.940 108.5999
14716.609379 80.482 101.2274
14823.251997 80.004 93.9324
14930.667392 79.510 86.7224
15038.861162 79.004 79.6010
15147.838950 78.486 72.5722
15257.606435 77.956 65.6445
15368.169341 77.409 58.8346
15479.533431 76.841 52.1703
15591.704511 76.244 45.6934
15704.688430 75.614 39.4612
15818.491076 74.946 33.5502
15933.118383 74.239 28.0624
16048.576327 73.493 23.1388
16164.870926 72.716 18.9862
16282.008245 71.918 15.9301
16399.994388 71.120 14.5145
16518.835508 70.349 15.6839
16638.537799 69.642 21.0007
16759.107503 69.041 32.2727
16880.550905 68.585 48.6277
17002.874335 68.298 63.7795
17126.084171 68.183 72.8076
17250.186837 68.217 76.1552
17375.188802 68.361 75.7401
17501.096582 68.575 72.9645
17627.916743 68.821 68.6565
17755.655894 69.069 63.2934
17884.320696 69.298 57.1550
18013.917856 69.495 50.4072
18144.454131 69.649 43.1485
18275.936325 69.753 35.4366
18408.371293 69.803 27.3046
18541.765940 69.795 18.7750
18676.127219 69.728 9.8693
18811.462136 69.602 0.6253
18947.777745 69.418 -8.8809
19085.081153 69.183 -18.5051
19223.379519 68.906 -28.0014
19362.680051 68.605 -37.0057
19502.990012 68.304 -45.0529
19644.316718 68.032 -51.6394
19786.667534 67.825 -56.3102
19930.049884 67.712 -58.7318
