* Measurement data measured by REW V5.31.3
* Source: EXCL: Headset (USB-C to 3.5mm Headphone Jack Adapter), MICROPHONE (Master Volume), 0, volume: 0.750
* Format: 256k Log Swept Sine, 1 sweep at -12.0 dBFS with no timing reference
* Dated: Apr 1, 2025 10:39:12 PM
* REW Settings:
*  C-weighting compensation: Off
*  Target level: 75.0 dB
* Note: ; 
* Measurement: K361 R9
* Smoothing: 1/6 octave
* Frequency Step: 96 ppo
* Start Frequency: 20.0 Hz
*
* Freq(Hz) SPL(dB) Phase(degrees)
20.187378 92.712 -118.6141
20.333664 92.733 -118.7645
20.481010 92.763 -118.9670
20.629424 92.800 -119.2167
20.778913 92.845 -119.5084
20.929486 92.897 -119.8370
21.081150 92.955 -120.1979
21.233912 93.019 -120.5863
21.387782 93.087 -120.9981
21.542767 93.158 -121.4289
21.698874 93.231 -121.8744
21.856113 93.306 -122.3304
22.014492 93.380 -122.7929
22.174018 93.453 -123.2580
22.334700 93.524 -123.7228
22.496546 93.592 -124.1848
22.659566 93.658 -124.6428
22.823766 93.719 -125.0965
22.989157 93.776 -125.5467
23.155745 93.830 -125.9950
23.323542 93.879 -126.4439
23.492554 93.923 -126.8958
23.662790 93.963 -127.3533
23.834261 93.998 -127.8189
24.006973 94.029 -128.2940
24.180938 94.055 -128.7799
24.356163 94.077 -129.2768
24.532658 94.095 -129.7843
24.710431 94.110 -130.3014
24.889493 94.122 -130.8267
25.069853 94.131 -131.3581
25.251519 94.138 -131.8932
25.434502 94.143 -132.4293
25.618811 94.145 -132.9633
25.804456 94.147 -133.4918
25.991445 94.146 -134.0111
26.179790 94.144 -134.5175
26.369500 94.141 -135.0076
26.560584 94.136 -135.4783
26.753053 94.130 -135.9278
26.946917 94.124 -136.3553
27.142185 94.117 -136.7616
27.338869 94.111 -137.1490
27.536977 94.105 -137.5213
27.736522 94.099 -137.8835
27.937512 94.095 -138.2410
28.139959 94.091 -138.5995
28.343872 94.089 -138.9639
28.549264 94.088 -139.3379
28.756143 94.088 -139.7238
28.964522 94.089 -140.1224
29.174411 94.092 -140.5328
29.385821 94.096 -140.9532
29.598763 94.103 -141.3813
29.813248 94.113 -141.8146
30.029287 94.127 -142.2506
30.246891 94.144 -142.6878
30.466073 94.165 -143.1251
30.686842 94.189 -143.5620
30.909212 94.217 -143.9984
31.133193 94.246 -144.4343
31.358797 94.278 -144.8696
31.586035 94.310 -145.3044
31.814921 94.343 -145.7384
32.045465 94.376 -146.1719
32.277680 94.409 -146.6052
32.511577 94.442 -147.0396
32.747169 94.477 -147.4766
32.984469 94.513 -147.9186
33.223488 94.552 -148.3682
33.464239 94.594 -148.8276
33.706735 94.640 -149.2986
33.950987 94.690 -149.7814
34.197010 94.743 -150.2751
34.444816 94.800 -150.7769
34.694417 94.859 -151.2830
34.945827 94.919 -151.7886
35.199059 94.980 -152.2887
35.454126 95.041 -152.7787
35.711041 95.100 -153.2555
35.969818 95.158 -153.7170
36.230470 95.213 -154.1628
36.493011 95.265 -154.5938
36.757455 95.314 -155.0118
37.023814 95.359 -155.4188
37.292104 95.400 -155.8170
37.562338 95.438 -156.2076
37.834530 95.471 -156.5916
38.108695 95.502 -156.9696
38.384846 95.529 -157.3420
38.662999 95.553 -157.7097
38.943167 95.575 -158.0739
39.225365 95.596 -158.4367
39.509608 95.614 -158.8003
39.795911 95.631 -159.1667
40.084289 95.646 -159.5372
40.374756 95.658 -159.9119
40.667328 95.667 -160.2897
40.962020 95.674 -160.6680
41.258848 95.679 -161.0441
41.557827 95.680 -161.4148
41.858972 95.680 -161.7775
42.162299 95.678 -162.1302
42.467824 95.675 -162.4716
42.775564 95.670 -162.8012
43.085533 95.664 -163.1188
43.397749 95.658 -163.4244
43.712227 95.650 -163.7186
44.028983 95.641 -164.0022
44.348036 95.631 -164.2767
44.669400 95.620 -164.5444
44.993093 95.607 -164.8082
45.319131 95.593 -165.0714
45.647532 95.577 -165.3374
45.978313 95.558 -165.6090
46.311491 95.536 -165.8882
46.647083 95.512 -166.1753
46.985107 95.485 -166.4691
47.325581 95.455 -166.7668
47.668521 95.423 -167.0654
48.013947 95.391 -167.3620
48.361876 95.358 -167.6547
48.712326 95.326 -167.9434
49.065315 95.296 -168.2291
49.420863 95.268 -168.5133
49.778987 95.240 -168.7973
50.139706 95.213 -169.0814
50.503039 95.186 -169.3647
50.869005 95.158 -169.6456
51.237623 95.128 -169.9218
51.608912 95.096 -170.1913
51.982891 95.062 -170.4522
52.359580 95.027 -170.7027
52.739000 94.990 -170.9413
53.121168 94.953 -171.1675
53.506106 94.917 -171.3810
53.893833 94.881 -171.5826
54.284370 94.846 -171.7733
54.677737 94.812 -171.9541
55.073955 94.778 -172.1257
55.473043 94.746 -172.2883
55.875024 94.715 -172.4419
56.279917 94.684 -172.5863
56.687745 94.655 -172.7215
57.098527 94.627 -172.8478
57.512287 94.602 -172.9654
57.929045 94.579 -173.0754
58.348822 94.559 -173.1793
58.771642 94.543 -173.2790
59.197525 94.531 -173.3768
59.626495 94.521 -173.4744
60.058573 94.516 -173.5724
60.493782 94.513 -173.6706
60.932145 94.513 -173.7681
61.373685 94.516 -173.8639
61.818424 94.522 -173.9580
62.266386 94.531 -174.0506
62.717593 94.542 -174.1427
63.172071 94.557 -174.2353
63.629842 94.573 -174.3298
64.090930 94.593 -174.4270
64.555359 94.614 -174.5275
65.023154 94.637 -174.6314
65.494339 94.661 -174.7387
65.968938 94.686 -174.8486
66.446976 94.712 -174.9605
66.928478 94.738 -175.0737
67.413469 94.764 -175.1876
67.901975 94.789 -175.3015
68.394021 94.813 -175.4151
68.889632 94.836 -175.5280
69.388835 94.857 -175.6396
69.891655 94.877 -175.7497
70.398118 94.895 -175.8577
70.908252 94.911 -175.9632
71.422083 94.926 -176.0661
71.939636 94.938 -176.1664
72.460941 94.949 -176.2643
72.986023 94.958 -176.3600
73.514909 94.965 -176.4537
74.047629 94.971 -176.5454
74.584208 94.974 -176.6348
75.124676 94.975 -176.7214
75.669061 94.975 -176.8048
76.217390 94.972 -176.8845
76.769692 94.968 -176.9603
77.325997 94.962 -177.0322
77.886333 94.953 -177.1003
78.450730 94.944 -177.1647
79.019216 94.933 -177.2254
79.591822 94.921 -177.2826
80.168577 94.908 -177.3364
80.749512 94.895 -177.3873
81.334656 94.882 -177.4359
81.924040 94.869 -177.4829
82.517696 94.856 -177.5290
83.115653 94.844 -177.5751
83.717943 94.833 -177.6218
84.324598 94.822 -177.6703
84.935649 94.811 -177.7217
85.551128 94.801 -177.7775
86.171066 94.791 -177.8388
86.795497 94.781 -177.9063
87.424453 94.772 -177.9803
88.057967 94.763 -178.0602
88.696071 94.754 -178.1456
89.338800 94.745 -178.2355
89.986185 94.736 -178.3292
90.638262 94.728 -178.4261
91.295065 94.720 -178.5259
91.956626 94.712 -178.6284
92.622982 94.704 -178.7340
93.294166 94.697 -178.8433
93.970214 94.690 -178.9566
94.651161 94.683 -179.0745
95.337042 94.677 -179.1969
96.027894 94.670 -179.3237
96.723752 94.665 -179.4547
97.424652 94.659 -179.5895
98.130631 94.654 -179.7281
98.841726 94.649 -179.8705
99.557974 94.644 179.9836
100.279412 94.639 179.8344
101.006078 94.634 179.6825
101.738010 94.629 179.5281
102.475245 94.625 179.3715
103.217823 94.621 179.2127
103.965782 94.618 179.0517
104.719161 94.615 178.8887
105.477999 94.613 178.7241
106.242336 94.612 178.5582
107.012212 94.611 178.3918
107.787666 94.612 178.2252
108.568740 94.613 178.0587
109.355474 94.616 177.8926
110.147909 94.619 177.7269
110.946086 94.622 177.5617
111.750047 94.626 177.3968
112.559834 94.630 177.2320
113.375489 94.633 177.0674
114.197055 94.637 176.9032
115.024574 94.640 176.7401
115.858089 94.642 176.5785
116.697645 94.643 176.4194
117.543284 94.643 176.2635
118.395051 94.643 176.1116
119.252990 94.642 175.9643
120.117147 94.639 175.8220
120.987565 94.636 175.6848
121.864291 94.633 175.5528
122.747370 94.628 175.4258
123.636848 94.623 175.3037
124.532771 94.617 175.1863
125.435187 94.610 175.0736
126.344142 94.603 174.9658
127.259684 94.596 174.8632
128.181860 94.588 174.7659
129.110718 94.580 174.6739
130.046308 94.571 174.5866
130.988677 94.562 174.5036
131.937875 94.553 174.4240
132.893951 94.543 174.3470
133.856956 94.532 174.2719
134.826938 94.520 174.1979
135.803950 94.507 174.1246
136.788041 94.494 174.0510
137.779264 94.479 173.9763
138.777669 94.463 173.8999
139.783309 94.445 173.8210
140.796237 94.427 173.7390
141.816504 94.406 173.6536
142.844165 94.384 173.5648
143.879273 94.359 173.4731
144.921881 94.333 173.3794
145.972045 94.305 173.2847
147.029819 94.275 173.1905
148.095257 94.243 173.0983
149.168417 94.210 173.0099
150.249353 94.174 172.9274
151.338121 94.138 172.8529
152.434780 94.100 172.7886
153.539385 94.062 172.7368
154.651995 94.022 172.6992
155.772667 93.982 172.6778
156.901460 93.942 172.6739
158.038432 93.902 172.6885
159.183644 93.863 172.7223
160.337154 93.824 172.7753
161.499023 93.787 172.8474
162.669312 93.751 172.9377
163.848081 93.718 173.0454
165.035392 93.688 173.1691
166.231306 93.661 173.3072
167.435887 93.637 173.4574
168.649196 93.616 173.6170
169.871298 93.599 173.7826
171.102255 93.585 173.9509
172.342133 93.575 174.1183
173.590995 93.567 174.2815
174.848907 93.562 174.4376
176.115934 93.559 174.5842
177.392143 93.557 174.7193
178.677599 93.557 174.8412
179.972371 93.558 174.9483
181.276525 93.560 175.0395
182.590129 93.563 175.1140
183.913252 93.566 175.1714
185.245964 93.569 175.2117
186.588332 93.572 175.2354
187.940428 93.574 175.2430
189.302322 93.576 175.2355
190.674085 93.577 175.2140
192.055788 93.578 175.1800
193.447503 93.577 175.1349
194.849303 93.575 175.0803
196.261262 93.572 175.0169
197.683452 93.568 174.9455
199.115948 93.563 174.8665
200.558824 93.557 174.7802
202.012156 93.550 174.6872
203.476019 93.543 174.5888
204.950490 93.535 174.4864
206.435646 93.527 174.3815
207.931564 93.518 174.2755
209.438322 93.508 174.1692
210.955998 93.498 174.0635
212.484672 93.487 173.9592
214.024424 93.476 173.8570
215.575333 93.464 173.7575
217.137481 93.453 173.6611
218.710948 93.441 173.5682
220.295818 93.428 173.4791
221.892172 93.416 173.3940
223.500094 93.405 173.3132
225.119668 93.393 173.2374
226.750978 93.382 173.1667
228.394109 93.371 173.1019
230.049147 93.360 173.0436
231.716178 93.350 172.9926
233.395289 93.341 172.9498
235.086567 93.332 172.9161
236.790102 93.324 172.8922
238.505980 93.317 172.8788
240.234293 93.311 172.8760
241.975130 93.306 172.8838
243.728581 93.303 172.9014
245.494739 93.301 172.9280
247.273695 93.300 172.9626
249.065542 93.300 173.0038
250.870374 93.301 173.0505
252.688284 93.303 173.1015
254.519367 93.306 173.1557
256.363720 93.309 173.2123
258.221437 93.312 173.2708
260.092616 93.316 173.3311
261.977354 93.321 173.3931
263.875750 93.325 173.4568
265.787903 93.330 173.5223
267.713911 93.335 173.5891
269.653877 93.342 173.6569
271.607900 93.349 173.7252
273.576083 93.357 173.7937
275.558528 93.366 173.8618
277.555338 93.376 173.9290
279.566619 93.388 173.9941
281.592474 93.401 174.0564
283.633009 93.415 174.1145
285.688331 93.431 174.1675
287.758546 93.448 174.2148
289.843763 93.465 174.2557
291.944090 93.484 174.2903
294.059638 93.503 174.3186
296.190515 93.522 174.3412
298.336833 93.541 174.3589
300.498705 93.561 174.3727
302.676243 93.581 174.3837
304.869559 93.600 174.3932
307.078770 93.620 174.4023
309.303989 93.639 174.4117
311.545334 93.659 174.4219
313.802919 93.678 174.4330
316.076865 93.698 174.4451
318.367288 93.717 174.4580
320.674309 93.737 174.4715
322.998047 93.757 174.4855
325.338624 93.776 174.4997
327.696162 93.795 174.5141
330.070783 93.814 174.5282
332.462612 93.833 174.5417
334.871773 93.852 174.5543
337.298392 93.869 174.5654
339.742595 93.886 174.5748
342.204510 93.903 174.5822
344.684265 93.918 174.5870
347.181989 93.933 174.5892
349.697813 93.946 174.5883
352.231868 93.958 174.5843
354.784285 93.969 174.5770
357.355198 93.979 174.5665
359.944741 93.987 174.5529
362.553049 93.993 174.5366
365.180258 93.999 174.5178
367.826505 94.003 174.4969
370.491927 94.007 174.4746
373.176665 94.009 174.4513
375.880856 94.011 174.4274
378.604644 94.012 174.4036
381.348169 94.012 174.3800
384.111575 94.012 174.3571
386.895006 94.011 174.3350
389.698607 94.009 174.3138
392.522524 94.007 174.2936
395.366904 94.005 174.2744
398.231895 94.002 174.2565
401.117648 93.998 174.2397
404.024312 93.994 174.2241
406.952038 93.988 174.2097
409.900981 93.982 174.1965
412.871292 93.974 174.1845
415.863128 93.966 174.1738
418.876643 93.956 174.1646
421.911996 93.944 174.1570
424.969344 93.931 174.1509
428.048847 93.917 174.1465
431.150666 93.901 174.1437
434.274961 93.883 174.1426
437.421897 93.864 174.1433
440.591636 93.843 174.1456
443.784345 93.821 174.1494
447.000189 93.798 174.1549
450.239337 93.774 174.1617
453.501956 93.749 174.1700
456.788219 93.724 174.1796
460.098294 93.699 174.1905
463.432356 93.673 174.2027
466.790578 93.648 174.2162
470.173135 93.623 174.2311
473.580203 93.598 174.2475
477.011961 93.574 174.2653
480.468586 93.552 174.2847
483.950259 93.530 174.3056
487.457163 93.509 174.3280
490.989478 93.489 174.3517
494.547390 93.471 174.3767
498.131084 93.454 174.4025
501.740748 93.438 174.4291
505.376568 93.424 174.4564
509.038735 93.412 174.4842
512.727439 93.402 174.5126
516.442874 93.393 174.5414
520.185232 93.386 174.5709
523.954708 93.381 174.6007
527.751500 93.378 174.6310
531.575805 93.377 174.6616
535.427822 93.378 174.6924
539.307753 93.382 174.7233
543.215800 93.388 174.7543
547.152165 93.396 174.7855
551.117055 93.406 174.8168
555.110677 93.418 174.8485
559.133237 93.432 174.8804
563.184947 93.448 174.9127
567.266018 93.466 174.9453
571.376661 93.486 174.9782
575.517092 93.506 175.0115
579.687526 93.528 175.0450
583.888181 93.550 175.0786
588.119275 93.573 175.1123
592.381030 93.596 175.1459
596.673667 93.618 175.1795
600.997410 93.640 175.2131
605.352485 93.662 175.2467
609.739119 93.683 175.2808
614.157540 93.702 175.3155
618.607979 93.721 175.3513
623.090667 93.738 175.3886
627.605839 93.754 175.4280
632.153730 93.768 175.4698
636.734576 93.782 175.5147
641.348617 93.794 175.5630
645.996094 93.805 175.6154
650.677248 93.815 175.6720
655.392323 93.825 175.7332
660.141566 93.834 175.7990
664.925224 93.844 175.8691
669.743546 93.853 175.9430
674.596784 93.862 176.0196
679.485191 93.873 176.0976
684.409020 93.884 176.1752
689.368530 93.895 176.2505
694.363979 93.908 176.3211
699.395626 93.921 176.3849
704.463736 93.936 176.4396
709.568570 93.950 176.4833
714.710396 93.965 176.5144
719.889483 93.979 176.5316
725.106099 93.993 176.5342
730.360516 94.006 176.5219
735.653010 94.018 176.4948
740.983855 94.029 176.4531
746.353329 94.038 176.3976
751.761713 94.045 176.3292
757.209288 94.049 176.2487
762.696339 94.052 176.1571
768.223151 94.053 176.0556
773.790013 94.051 175.9450
779.397214 94.047 175.8263
785.045047 94.042 175.7006
790.733808 94.035 175.5686
796.463791 94.026 175.4314
802.235296 94.016 175.2897
808.048623 94.004 175.1444
813.904077 93.992 174.9962
819.801961 93.979 174.8456
825.742584 93.966 174.6934
831.726255 93.952 174.5399
837.753287 93.938 174.3857
843.823992 93.924 174.2310
849.938689 93.909 174.0760
856.097695 93.895 173.9208
862.301332 93.881 173.7654
868.549922 93.867 173.6100
874.843793 93.853 173.4542
881.183272 93.839 173.2980
887.568689 93.826 173.1412
894.000378 93.813 172.9837
900.478673 93.801 172.8250
907.003913 93.790 172.6648
913.576437 93.779 172.5027
920.196588 93.769 172.3381
926.864712 93.760 172.1706
933.581156 93.751 171.9993
940.346270 93.744 171.8237
947.160407 93.737 171.6429
954.023921 93.732 171.4564
960.937172 93.727 171.2635
967.900519 93.722 171.0640
974.914325 93.718 170.8577
981.978956 93.714 170.6446
989.094780 93.709 170.4256
996.262169 93.704 170.2017
1003.481495 93.697 169.9750
1010.753136 93.688 169.7482
1018.077470 93.676 169.5253
1025.454879 93.662 169.3115
1032.885748 93.644 169.1134
1040.370463 93.622 168.9393
1047.909417 93.595 168.7992
1055.503000 93.565 168.7045
1063.151610 93.531 168.6680
1070.855645 93.495 168.7030
1078.615506 93.458 168.8225
1086.431599 93.424 169.0378
1094.304330 93.394 169.3563
1102.234110 93.373 169.7798
1110.221353 93.365 170.3022
1118.266475 93.373 170.9077
1126.369895 93.400 171.5713
1134.532035 93.448 172.2598
1142.753322 93.517 172.9359
1151.034184 93.606 173.5621
1159.375052 93.711 174.1066
1167.776361 93.829 174.5457
1176.238550 93.954 174.8663
1184.762060 94.083 175.0656
1193.347334 94.212 175.1489
1201.994821 94.337 175.1277
1210.704971 94.457 175.0168
1219.478238 94.570 174.8321
1228.315080 94.675 174.5894
1237.215957 94.773 174.3032
1246.181334 94.863 173.9859
1255.211678 94.947 173.6479
1264.307459 95.023 173.2975
1273.469152 95.094 172.9411
1282.697235 95.160 172.5835
1291.992188 95.222 172.2281
1301.354495 95.279 171.8771
1310.784647 95.333 171.5320
1320.283132 95.384 171.1937
1329.850448 95.432 170.8625
1339.487093 95.478 170.5385
1349.193569 95.522 170.2215
1358.970381 95.564 169.9112
1368.818041 95.605 169.6073
1378.737061 95.646 169.3094
1388.727958 95.685 169.0173
1398.791253 95.724 168.7305
1408.927471 95.763 168.4488
1419.137140 95.802 168.1719
1429.420793 95.842 167.8997
1439.778965 95.882 167.6318
1450.212197 95.922 167.3681
1460.721033 95.964 167.1085
1471.306019 96.005 166.8527
1481.967709 96.048 166.6005
1492.706658 96.091 166.3519
1503.523426 96.134 166.1065
1514.418576 96.176 165.8642
1525.392678 96.218 165.6245
1536.446302 96.259 165.3871
1547.580025 96.298 165.1514
1558.794428 96.336 164.9169
1570.090095 96.370 164.6829
1581.467615 96.402 164.4489
1592.927581 96.430 164.2144
1604.470591 96.455 163.9791
1616.097246 96.475 163.7430
1627.808153 96.490 163.5063
1639.603922 96.501 163.2698
1651.485168 96.507 163.0348
1663.452510 96.507 162.8028
1675.506573 96.503 162.5759
1687.647984 96.493 162.3565
1699.877377 96.479 162.1471
1712.195390 96.460 161.9503
1724.602663 96.438 161.7684
1737.099845 96.412 161.6034
1749.687587 96.384 161.4564
1762.366544 96.353 161.3277
1775.137379 96.322 161.2167
1788.000756 96.290 161.1214
1800.957346 96.258 161.0385
1814.007826 96.227 160.9636
1827.152874 96.196 160.8912
1840.393177 96.165 160.8155
1853.729425 96.134 160.7310
1867.162312 96.103 160.6332
1880.692540 96.070 160.5198
1894.320813 96.034 160.3901
1908.047843 95.994 160.2453
1921.874344 95.951 160.0878
1935.801038 95.902 159.9211
1949.828650 95.848 159.7488
1963.957912 95.788 159.5747
1978.189561 95.723 159.4022
1992.524338 95.652 159.2343
2006.962991 95.576 159.0734
2021.506272 95.495 158.9215
2036.154940 95.409 158.7801
2050.909758 95.319 158.6503
2065.771495 95.225 158.5330
2080.740927 95.127 158.4288
2095.818833 95.026 158.3386
2111.006001 94.923 158.2629
2126.303220 94.817 158.2024
2141.711290 94.710 158.1580
2157.231013 94.600 158.1306
2172.863198 94.490 158.1213
2188.608660 94.378 158.1316
2204.468221 94.265 158.1628
2220.442706 94.152 158.2166
2236.532950 94.039 158.2947
2252.739789 93.927 158.3989
2269.064070 93.815 158.5311
2285.506644 93.704 158.6929
2302.068367 93.596 158.8860
2318.750104 93.490 159.1118
2335.552723 93.387 159.3712
2352.477101 93.289 159.6646
2369.524119 93.195 159.9913
2386.694668 93.108 160.3502
2403.989641 93.029 160.7385
2421.409941 92.958 161.1522
2438.956476 92.896 161.5856
2456.630160 92.846 162.0316
2474.431915 92.806 162.4818
2492.362668 92.779 162.9264
2510.423356 92.764 163.3550
2528.614918 92.761 163.7574
2546.938304 92.769 164.1234
2565.394469 92.787 164.4445
2583.984375 92.814 164.7139
2602.708991 92.849 164.9269
2621.569293 92.890 165.0811
2640.566265 92.935 165.1762
2659.700897 92.982 165.2143
2678.974186 93.031 165.1984
2698.387137 93.080 165.1329
2717.940763 93.127 165.0228
2737.636082 93.173 164.8731
2757.474121 93.216 164.6891
2777.455915 93.256 164.4754
2797.582506 93.292 164.2368
2817.854942 93.324 163.9774
2838.274281 93.352 163.7009
2858.841586 93.374 163.4109
2879.557931 93.391 163.1108
2900.424394 93.402 162.8038
2921.442065 93.406 162.4935
2942.612039 93.403 162.1840
2963.935418 93.391 161.8800
2985.413316 93.370 161.5874
3007.046852 93.339 161.3133
3028.837153 93.298 161.0662
3050.785356 93.245 160.8560
3072.892604 93.181 160.6937
3095.160050 93.106 160.5904
3117.588856 93.020 160.5570
3140.180190 92.925 160.6026
3162.935230 92.823 160.7337
3185.855163 92.715 160.9530
3208.941182 92.602 161.2588
3232.194493 92.489 161.6445
3255.616307 92.375 162.0997
3279.207844 92.262 162.6104
3302.970336 92.151 163.1608
3326.905021 92.043 163.7353
3351.013146 91.936 164.3196
3375.295969 91.831 164.9026
3399.754755 91.725 165.4771
3424.390779 91.618 166.0400
3449.205326 91.508 166.5927
3474.199690 91.394 167.1408
3499.375173 91.274 167.6938
3524.733088 91.149 168.2649
3550.274757 91.017 168.8705
3576.001511 90.880 169.5302
3601.914692 90.738 170.2657
3628.015651 90.593 171.1007
3654.305748 90.447 172.0599
3680.786354 90.305 173.1673
3707.458849 90.172 174.4444
3734.324624 90.055 175.9071
3761.385080 89.960 177.5621
3788.641627 89.896 179.4023
3816.095686 89.872 -178.5970
3843.748688 89.895 -176.4816
3871.602076 89.971 -174.3177
3899.657300 90.101 -172.1879
3927.915825 90.285 -170.1827
3956.379122 90.515 -168.3895
3985.048676 90.784 -166.8814
4013.925981 91.080 -165.7097
4043.012544 91.390 -164.9001
4072.309879 91.703 -164.4542
4101.819515 92.008 -164.3522
4131.542990 92.297 -164.5592
4161.481854 92.561 -165.0297
4191.637667 92.797 -165.7133
4222.012001 93.001 -166.5586
4252.606441 93.173 -167.5161
4283.422580 93.311 -168.5407
4314.462026 93.418 -169.5926
4345.726396 93.495 -170.6382
4377.217321 93.545 -171.6506
4408.936442 93.570 -172.6085
4440.885413 93.573 -173.4965
4473.065899 93.557 -174.3040
4505.479579 93.524 -175.0239
4538.128141 93.477 -175.6521
4571.013288 93.417 -176.1861
4604.136735 93.346 -176.6238
4637.500207 93.265 -176.9623
4671.105446 93.176 -177.1969
4704.954201 93.081 -177.3207
4739.048239 92.981 -177.3247
4773.389336 92.879 -177.1986
4807.979283 92.779 -176.9326
4842.819883 92.685 -176.5192
4877.912952 92.601 -175.9557
4913.260320 92.534 -175.2467
4948.863830 92.490 -174.4053
4984.725337 92.475 -173.4552
5020.846712 92.494 -172.4301
5057.229836 92.551 -171.3727
5093.876609 92.648 -170.3324
5130.788938 92.785 -169.3614
5167.968750 92.960 -168.5100
5205.417982 93.170 -167.8227
5243.138586 93.408 -167.3339
5281.132530 93.669 -167.0670
5319.401793 93.947 -167.0339
5357.948371 94.237 -167.2374
5396.774274 94.534 -167.6751
5435.881525 94.834 -168.3429
5475.272163 95.134 -169.2383
5514.948243 95.430 -170.3623
5554.911831 95.718 -171.7187
5595.165012 95.992 -173.3117
5635.709884 96.247 -175.1428
5676.548561 96.475 -177.2078
5717.683172 96.670 -179.4944
5759.115861 96.825 178.0189
5800.848789 96.932 175.3627
5842.884130 96.987 172.5766
5885.224077 96.985 169.7082
5927.870837 96.922 166.8120
5970.826633 96.796 163.9475
6014.093704 96.607 161.1786
6057.674306 96.354 158.5711
6101.570711 96.041 156.1927
6145.785208 95.670 154.1116
6190.320101 95.246 152.3965
6235.177712 94.776 151.1158
6280.360380 94.267 150.3353
6325.870460 93.728 150.1141
6371.710325 93.173 150.4968
6417.882365 92.613 151.5029
6464.388986 92.066 153.1159
6511.232613 91.546 155.2750
6558.415689 91.068 157.8767
6605.940673 90.644 160.7889
6653.810042 90.282 163.8741
6702.026292 89.985 167.0153
6750.591937 89.752 170.1313
6799.509509 89.580 173.1798
6848.781558 89.467 176.1451
6898.410653 89.409 179.0211
6948.399380 89.406 -178.2071
6998.750346 89.457 -175.5750
7049.466176 89.559 -173.1403
7100.549514 89.707 -170.9751
7152.003023 89.893 -169.1496
7203.829385 90.106 -167.7166
7256.031302 90.333 -166.7009
7308.611496 90.563 -166.0970
7361.572708 90.785 -165.8749
7414.917698 90.992 -165.9887
7468.649249 91.176 -166.3851
7522.770160 91.336 -167.0105
7577.283253 91.469 -167.8152
7632.191371 91.577 -168.7569
7687.497376 91.660 -169.8013
7743.204151 91.722 -170.9234
7799.314600 91.765 -172.1078
7855.831649 91.792 -173.3486
7912.758244 91.806 -174.6482
7970.097352 91.810 -176.0163
8027.851962 91.803 -177.4674
8086.025087 91.785 -179.0178
8144.619758 91.754 179.3180
8203.639030 91.706 177.5317
8263.085980 91.635 175.6250
8322.963708 91.536 173.6135
8383.275334 91.402 171.5308
8444.024002 91.226 169.4322
8505.212881 91.003 167.3995
8566.845160 90.729 165.5472
8628.924051 90.403 164.0305
8691.452792 90.030 163.0555
8754.434642 89.618 162.8901
8817.872884 89.185 163.8670
8881.770826 88.757 166.3546
8946.131799 88.365 170.6487
9010.959157 88.049 176.7322
9076.256282 87.842 -176.0055
9142.026576 87.765 -168.7352
9208.273470 87.819 -162.6345
9275.000415 87.988 -158.3300
9342.210891 88.239 -155.8618
9409.908403 88.538 -154.9627
9478.096478 88.854 -155.2964
9546.778672 89.162 -156.5647
9615.958566 89.444 -158.5331
9685.639765 89.689 -161.0251
9755.825904 89.888 -163.9088
9826.520640 90.038 -167.0846
9897.727659 90.136 -170.4767
9969.450674 90.184 -174.0266
10041.693423 90.182 -177.6895
10114.459673 90.132 178.5683
10187.753217 90.038 174.7705
10261.577877 89.903 170.9324
10335.937500 89.730 167.0618
10410.835964 89.521 163.1608
10486.277173 89.279 159.2274
10562.265060 89.005 155.2587
10638.803587 88.698 151.2522
10715.896743 88.356 147.2093
10793.548548 87.979 143.1353
10871.763050 87.564 139.0405
10950.544327 87.110 134.9380
11029.896485 86.615 130.8430
11109.823662 86.080 126.7695
11190.330024 85.505 122.7290
11271.419768 84.890 118.7313
11353.097122 84.238 114.7861
11435.366344 83.549 110.9059
11518.231722 82.824 107.1104
11601.697577 82.062 103.4259
11685.768261 81.264 99.8852
11770.448155 80.433 96.5223
11855.741674 79.572 93.3654
11941.653265 78.688 90.4296
12028.187408 77.790 87.7104
12115.348612 76.892 85.1805
12203.141422 76.015 82.7906
12291.570415 75.183 80.4726
12380.640201 74.428 78.1473
12470.355424 73.785 75.7326
12560.720760 73.291 73.1532
12651.740920 72.971 70.3478
12743.420650 72.838 67.2743
12835.764729 72.879 63.9106
12928.777972 73.067 60.2534
13022.465227 73.364 56.3155
13116.831378 73.729 52.1237
13211.881345 74.126 47.7162
13307.620084 74.527 43.1398
13404.052584 74.911 38.4474
13501.183875 75.264 33.6938
13599.019019 75.578 28.9331
13697.563116 75.847 24.2160
13796.821305 76.071 19.5891
13896.798760 76.251 15.0942
13997.500692 76.388 10.7692
14098.932352 76.489 6.6476
14201.099028 76.560 2.7580
14304.006046 76.609 -0.8778
14407.658770 76.650 -4.2472
14512.062604 76.693 -7.3497
14617.222992 76.755 -10.2015
14723.145416 76.849 -12.8392
14829.835397 76.988 -15.3226
14937.298497 77.179 -17.7330
15045.540320 77.425 -20.1663
15154.566507 77.721 -22.7219
15264.382743 78.057 -25.4911
15374.994752 78.419 -28.5480
15486.408302 78.791 -31.9448
15598.629201 79.160 -35.7106
15711.663298 79.514 -39.8531
15825.516487 79.843 -44.3635
15940.194703 80.141 -49.2217
16055.703925 80.404 -54.4030
16172.050174 80.629 -59.8829
16289.239516 80.815 -65.6404
16407.278061 80.959 -71.6572
16526.171961 81.057 -77.9164
16645.927415 81.105 -84.3986
16766.550667 81.098 -91.0787
16888.048005 81.030 -97.9232
17010.425762 80.898 -104.8901
17133.690320 80.700 -111.9309
17257.848103 80.436 -118.9958
17382.905584 80.115 -126.0394
17508.869284 79.745 -133.0276
17635.745768 79.341 -139.9397
17763.541652 78.924 -146.7716
17892.263597 78.518 -153.5396
18021.918315 78.153 -160.2895
18152.512564 77.864 -167.1122
18284.053153 77.683 -174.1613
18416.546939 77.633 178.3398
18550.000830 77.718 170.1135
18684.421783 77.925 160.8842
18819.816805 78.223 150.4762
18956.192956 78.574 138.9448
19093.557344 78.941 126.6921
19231.917131 79.294 114.4577
19371.279531 79.609 103.1230
19511.651807 79.871 93.4449
19653.041280 80.071 85.9189
19795.455318 80.204 80.8070
19938.901348 80.271 78.2286
