* Measurement data measured by REW V5.31.3
* Source: EXCL: Headset (USB-C to 3.5mm Headphone Jack Adapter), MICROPHONE (Master Volume), 0, volume: 0.750
* Format: 256k Log Swept Sine, 1 sweep at -12.0 dBFS with no timing reference
* Dated: Apr 1, 2025 10:46:55 PM
* REW Settings:
*  C-weighting compensation: Off
*  Target level: 75.0 dB
* Note: ; 
* Measurement: K361 R13
* Smoothing: 1/6 octave
* Frequency Step: 96 ppo
* Start Frequency: 20.0 Hz
*
* Freq(Hz) SPL(dB) Phase(degrees)
20.187378 94.012 -128.9814
20.333664 94.032 -129.2213
20.481010 94.059 -129.5405
20.629424 94.093 -129.9264
20.778913 94.135 -130.3650
20.929486 94.184 -130.8421
21.081150 94.241 -131.3442
21.233912 94.304 -131.8595
21.387782 94.374 -132.3783
21.542767 94.451 -132.8935
21.698874 94.532 -133.4001
21.856113 94.618 -133.8959
22.014492 94.706 -134.3802
22.174018 94.796 -134.8539
22.334700 94.886 -135.3188
22.496546 94.974 -135.7767
22.659566 95.058 -136.2297
22.823766 95.137 -136.6789
22.989157 95.210 -137.1254
23.155745 95.277 -137.5693
23.323542 95.336 -138.0106
23.492554 95.387 -138.4490
23.662790 95.431 -138.8846
23.834261 95.468 -139.3177
24.006973 95.499 -139.7493
24.180938 95.524 -140.1807
24.356163 95.544 -140.6138
24.532658 95.560 -141.0505
24.710431 95.572 -141.4924
24.889493 95.580 -141.9406
25.069853 95.584 -142.3953
25.251519 95.586 -142.8560
25.434502 95.584 -143.3214
25.618811 95.579 -143.7896
25.804456 95.571 -144.2587
25.991445 95.561 -144.7272
26.179790 95.549 -145.1939
26.369500 95.536 -145.6589
26.560584 95.522 -146.1227
26.753053 95.508 -146.5866
26.946917 95.495 -147.0523
27.142185 95.481 -147.5209
27.338869 95.468 -147.9928
27.536977 95.454 -148.4674
27.736522 95.440 -148.9428
27.937512 95.426 -149.4159
28.139959 95.411 -149.8831
28.343872 95.396 -150.3411
28.549264 95.382 -150.7870
28.756143 95.368 -151.2195
28.964522 95.356 -151.6394
29.174411 95.346 -152.0490
29.385821 95.339 -152.4529
29.598763 95.336 -152.8562
29.813248 95.336 -153.2646
30.029287 95.340 -153.6831
30.246891 95.348 -154.1151
30.466073 95.358 -154.5622
30.686842 95.372 -155.0240
30.909212 95.389 -155.4985
31.133193 95.410 -155.9823
31.358797 95.433 -156.4717
31.586035 95.460 -156.9631
31.814921 95.490 -157.4537
32.045465 95.524 -157.9417
32.277680 95.561 -158.4262
32.511577 95.602 -158.9071
32.747169 95.646 -159.3850
32.984469 95.693 -159.8604
33.223488 95.741 -160.3338
33.464239 95.790 -160.8052
33.706735 95.841 -161.2745
33.950987 95.891 -161.7417
34.197010 95.942 -162.2066
34.444816 95.994 -162.6696
34.694417 96.046 -163.1313
34.945827 96.097 -163.5928
35.199059 96.149 -164.0556
35.454126 96.201 -164.5212
35.711041 96.252 -164.9908
35.969818 96.302 -165.4654
36.230470 96.351 -165.9453
36.493011 96.398 -166.4301
36.757455 96.442 -166.9186
37.023814 96.484 -167.4090
37.292104 96.523 -167.8990
37.562338 96.558 -168.3864
37.834530 96.591 -168.8689
38.108695 96.620 -169.3447
38.384846 96.646 -169.8126
38.662999 96.669 -170.2723
38.943167 96.688 -170.7241
39.225365 96.705 -171.1686
39.509608 96.718 -171.6068
39.795911 96.727 -172.0398
40.084289 96.734 -172.4684
40.374756 96.737 -172.8933
40.667328 96.737 -173.3148
40.962020 96.735 -173.7334
41.258848 96.730 -174.1490
41.557827 96.722 -174.5617
41.858972 96.713 -174.9710
42.162299 96.702 -175.3760
42.467824 96.689 -175.7758
42.775564 96.674 -176.1693
43.085533 96.657 -176.5557
43.397749 96.638 -176.9348
43.712227 96.617 -177.3070
44.028983 96.594 -177.6731
44.348036 96.569 -178.0338
44.669400 96.542 -178.3893
44.993093 96.512 -178.7385
45.319131 96.480 -179.0793
45.647532 96.446 -179.4083
45.978313 96.410 -179.7217
46.311491 96.373 179.9841
46.647083 96.333 179.7115
46.985107 96.293 179.4614
47.325581 96.252 179.2328
47.668521 96.210 179.0231
48.013947 96.168 178.8286
48.361876 96.126 178.6454
48.712326 96.084 178.4696
49.065315 96.042 178.2978
49.420863 96.000 178.1276
49.778987 95.959 177.9577
50.139706 95.918 177.7875
50.503039 95.877 177.6173
50.869005 95.836 177.4479
51.237623 95.796 177.2807
51.608912 95.755 177.1173
51.982891 95.713 176.9597
52.359580 95.670 176.8099
52.739000 95.626 176.6699
53.121168 95.581 176.5412
53.506106 95.537 176.4253
53.893833 95.492 176.3231
54.284370 95.449 176.2348
54.677737 95.408 176.1600
55.073955 95.369 176.0974
55.473043 95.332 176.0452
55.875024 95.299 176.0006
56.279917 95.269 175.9611
56.687745 95.244 175.9240
57.098527 95.222 175.8875
57.512287 95.204 175.8500
57.929045 95.190 175.8108
58.348822 95.179 175.7697
58.771642 95.172 175.7269
59.197525 95.168 175.6833
59.626495 95.165 175.6397
60.058573 95.164 175.5973
60.493782 95.165 175.5565
60.932145 95.168 175.5166
61.373685 95.174 175.4766
61.818424 95.182 175.4345
62.266386 95.194 175.3887
62.717593 95.209 175.3383
63.172071 95.227 175.2825
63.629842 95.249 175.2216
64.090930 95.274 175.1556
64.555359 95.302 175.0845
65.023154 95.333 175.0083
65.494339 95.365 174.9265
65.968938 95.400 174.8383
66.446976 95.436 174.7429
66.928478 95.473 174.6392
67.413469 95.510 174.5266
67.901975 95.545 174.4050
68.394021 95.580 174.2748
68.889632 95.613 174.1368
69.388835 95.644 173.9922
69.891655 95.672 173.8419
70.398118 95.699 173.6865
70.908252 95.723 173.5264
71.422083 95.745 173.3618
71.939636 95.765 173.1929
72.460941 95.782 173.0200
72.986023 95.797 172.8436
73.514909 95.809 172.6649
74.047629 95.818 172.4848
74.584208 95.824 172.3043
75.124676 95.828 172.1242
75.669061 95.828 171.9454
76.217390 95.827 171.7687
76.769692 95.822 171.5947
77.325997 95.816 171.4244
77.886333 95.807 171.2583
78.450730 95.797 171.0967
79.019216 95.786 170.9396
79.591822 95.773 170.7865
80.168577 95.760 170.6365
80.749512 95.747 170.4888
81.334656 95.733 170.3426
81.924040 95.720 170.1971
82.517696 95.707 170.0516
83.115653 95.693 169.9058
83.717943 95.680 169.7594
84.324598 95.667 169.6126
84.935649 95.654 169.4655
85.551128 95.640 169.3183
86.171066 95.628 169.1711
86.795497 95.615 169.0239
87.424453 95.602 168.8764
88.057967 95.590 168.7283
88.696071 95.579 168.5793
89.338800 95.567 168.4288
89.986185 95.556 168.2764
90.638262 95.546 168.1218
91.295065 95.536 167.9647
91.956626 95.525 167.8052
92.622982 95.516 167.6431
93.294166 95.506 167.4787
93.970214 95.496 167.3121
94.651161 95.486 167.1434
95.337042 95.476 166.9727
96.027894 95.467 166.7999
96.723752 95.457 166.6251
97.424652 95.447 166.4480
98.130631 95.437 166.2686
98.841726 95.427 166.0865
99.557974 95.417 165.9017
100.279412 95.407 165.7138
101.006078 95.397 165.5225
101.738010 95.387 165.3278
102.475245 95.377 165.1295
103.217823 95.368 164.9277
103.965782 95.358 164.7224
104.719161 95.349 164.5141
105.477999 95.341 164.3031
106.242336 95.333 164.0900
107.012212 95.325 163.8752
107.787666 95.319 163.6594
108.568740 95.313 163.4430
109.355474 95.308 163.2266
110.147909 95.303 163.0107
110.946086 95.299 162.7963
111.750047 95.295 162.5843
112.559834 95.291 162.3755
113.375489 95.287 162.1709
114.197055 95.283 161.9709
115.024574 95.278 161.7761
115.858089 95.273 161.5865
116.697645 95.267 161.4024
117.543284 95.260 161.2235
118.395051 95.253 161.0499
119.252990 95.244 160.8816
120.117147 95.235 160.7185
120.987565 95.224 160.5609
121.864291 95.213 160.4091
122.747370 95.201 160.2633
123.636848 95.188 160.1242
124.532771 95.174 159.9921
125.435187 95.160 159.8674
126.344142 95.145 159.7504
127.259684 95.129 159.6410
128.181860 95.113 159.5391
129.110718 95.097 159.4439
130.046308 95.080 159.3545
130.988677 95.063 159.2694
131.937875 95.046 159.1872
132.893951 95.029 159.1062
133.856956 95.012 159.0245
134.826938 94.995 158.9406
135.803950 94.978 158.8528
136.788041 94.960 158.7602
137.779264 94.941 158.6620
138.777669 94.921 158.5580
139.783309 94.900 158.4485
140.796237 94.878 158.3340
141.816504 94.854 158.2156
142.844165 94.828 158.0944
143.879273 94.800 157.9716
144.921881 94.770 157.8487
145.972045 94.738 157.7274
147.029819 94.705 157.6094
148.095257 94.669 157.4969
149.168417 94.632 157.3919
150.249353 94.593 157.2965
151.338121 94.553 157.2126
152.434780 94.511 157.1422
153.539385 94.468 157.0871
154.651995 94.425 157.0488
155.772667 94.381 157.0287
156.901460 94.336 157.0277
158.038432 94.292 157.0466
159.183644 94.249 157.0854
160.337154 94.208 157.1440
161.499023 94.168 157.2214
162.669312 94.130 157.3163
163.848081 94.095 157.4268
165.035392 94.064 157.5504
166.231306 94.037 157.6843
167.435887 94.013 157.8252
168.649196 93.995 157.9694
169.871298 93.980 158.1134
171.102255 93.970 158.2535
172.342133 93.964 158.3863
173.590995 93.963 158.5088
174.848907 93.964 158.6183
176.115934 93.969 158.7127
177.392143 93.976 158.7901
178.677599 93.985 158.8491
179.972371 93.995 158.8887
181.276525 94.006 158.9085
182.590129 94.017 158.9085
183.913252 94.027 158.8892
185.245964 94.035 158.8512
186.588332 94.043 158.7955
187.940428 94.049 158.7232
189.302322 94.052 158.6357
190.674085 94.054 158.5346
192.055788 94.054 158.4216
193.447503 94.053 158.2983
194.849303 94.049 158.1661
196.261262 94.044 158.0267
197.683452 94.038 157.8814
199.115948 94.031 157.7318
200.558824 94.022 157.5789
202.012156 94.012 157.4239
203.476019 94.001 157.2674
204.950490 93.990 157.1096
206.435646 93.977 156.9506
207.931564 93.963 156.7907
209.438322 93.949 156.6302
210.955998 93.933 156.4699
212.484672 93.916 156.3107
214.024424 93.898 156.1537
215.575333 93.880 156.0002
217.137481 93.860 155.8511
218.710948 93.841 155.7075
220.295818 93.821 155.5701
221.892172 93.801 155.4393
223.500094 93.781 155.3156
225.119668 93.762 155.1996
226.750978 93.744 155.0921
228.394109 93.726 154.9941
230.049147 93.709 154.9065
231.716178 93.694 154.8303
233.395289 93.680 154.7660
235.086567 93.667 154.7137
236.790102 93.656 154.6729
238.505980 93.646 154.6425
240.234293 93.639 154.6211
241.975130 93.633 154.6068
243.728581 93.629 154.5975
245.494739 93.627 154.5915
247.273695 93.627 154.5871
249.065542 93.628 154.5830
250.870374 93.630 154.5785
252.688284 93.633 154.5733
254.519367 93.638 154.5677
256.363720 93.642 154.5624
258.221437 93.647 154.5586
260.092616 93.652 154.5576
261.977354 93.657 154.5604
263.875750 93.662 154.5679
265.787903 93.667 154.5807
267.713911 93.673 154.5987
269.653877 93.680 154.6211
271.607900 93.688 154.6469
273.576083 93.698 154.6746
275.558528 93.710 154.7025
277.555338 93.723 154.7289
279.566619 93.738 154.7519
281.592474 93.755 154.7695
283.633009 93.774 154.7800
285.688331 93.794 154.7820
287.758546 93.815 154.7747
289.843763 93.837 154.7577
291.944090 93.860 154.7314
294.059638 93.883 154.6965
296.190515 93.906 154.6542
298.336833 93.929 154.6057
300.498705 93.952 154.5522
302.676243 93.975 154.4952
304.869559 93.998 154.4355
307.078770 94.021 154.3743
309.303989 94.043 154.3123
311.545334 94.065 154.2501
313.802919 94.087 154.1882
316.076865 94.109 154.1270
318.367288 94.130 154.0663
320.674309 94.152 154.0059
322.998047 94.173 153.9454
325.338624 94.194 153.8843
327.696162 94.215 153.8219
330.070783 94.235 153.7577
332.462612 94.255 153.6912
334.871773 94.274 153.6219
337.298392 94.293 153.5495
339.742595 94.311 153.4738
342.204510 94.328 153.3948
344.684265 94.343 153.3125
347.181989 94.358 153.2274
349.697813 94.371 153.1396
352.231868 94.384 153.0495
354.784285 94.394 152.9572
357.355198 94.404 152.8630
359.944741 94.412 152.7668
362.553049 94.420 152.6686
365.180258 94.426 152.5683
367.826505 94.431 152.4659
370.491927 94.436 152.3613
373.176665 94.440 152.2548
375.880856 94.443 152.1463
378.604644 94.446 152.0363
381.348169 94.448 151.9249
384.111575 94.449 151.8126
386.895006 94.450 151.6997
389.698607 94.451 151.5863
392.522524 94.451 151.4727
395.366904 94.450 151.3591
398.231895 94.449 151.2456
401.117648 94.447 151.1322
404.024312 94.443 151.0191
406.952038 94.439 150.9066
409.900981 94.434 150.7946
412.871292 94.427 150.6836
415.863128 94.419 150.5736
418.876643 94.409 150.4647
421.911996 94.398 150.3571
424.969344 94.385 150.2505
428.048847 94.371 150.1451
431.150666 94.354 150.0408
434.274961 94.336 149.9376
437.421897 94.317 149.8354
440.591636 94.296 149.7341
443.784345 94.273 149.6337
447.000189 94.250 149.5345
450.239337 94.225 149.4363
453.501956 94.200 149.3394
456.788219 94.173 149.2440
460.098294 94.147 149.1502
463.432356 94.120 149.0583
466.790578 94.093 148.9684
470.173135 94.067 148.8808
473.580203 94.040 148.7953
477.011961 94.015 148.7120
480.468586 93.990 148.6308
483.950259 93.965 148.5515
487.457163 93.942 148.4741
490.989478 93.920 148.3983
494.547390 93.899 148.3242
498.131084 93.879 148.2518
501.740748 93.861 148.1811
505.376568 93.844 148.1121
509.038735 93.829 148.0450
512.727439 93.816 147.9798
516.442874 93.804 147.9164
520.185232 93.794 147.8549
523.954708 93.787 147.7951
527.751500 93.781 147.7366
531.575805 93.778 147.6793
535.427822 93.778 147.6228
539.307753 93.780 147.5668
543.215800 93.784 147.5109
547.152165 93.790 147.4550
551.117055 93.799 147.3990
555.110677 93.811 147.3427
559.133237 93.824 147.2861
563.184947 93.839 147.2294
567.266018 93.856 147.1725
571.376661 93.874 147.1155
575.517092 93.894 147.0584
579.687526 93.915 147.0014
583.888181 93.936 146.9444
588.119275 93.958 146.8875
592.381030 93.979 146.8308
596.673667 94.001 146.7742
600.997410 94.023 146.7180
605.352485 94.044 146.6620
609.739119 94.064 146.6064
614.157540 94.084 146.5514
618.607979 94.102 146.4971
623.090667 94.120 146.4438
627.605839 94.136 146.3919
632.153730 94.151 146.3417
636.734576 94.165 146.2938
641.348617 94.178 146.2485
645.996094 94.191 146.2062
650.677248 94.202 146.1671
655.392323 94.213 146.1313
660.141566 94.224 146.0986
664.925224 94.235 146.0684
669.743546 94.245 146.0400
674.596784 94.257 146.0121
679.485191 94.268 145.9835
684.409020 94.281 145.9523
689.368530 94.294 145.9168
694.363979 94.307 145.8752
699.395626 94.321 145.8256
704.463736 94.335 145.7667
709.568570 94.350 145.6971
714.710396 94.364 145.6157
719.889483 94.377 145.5219
725.106099 94.390 145.4152
730.360516 94.402 145.2955
735.653010 94.412 145.1628
740.983855 94.421 145.0177
746.353329 94.429 144.8606
751.761713 94.434 144.6921
757.209288 94.437 144.5132
762.696339 94.439 144.3248
768.223151 94.438 144.1275
773.790013 94.435 143.9223
779.397214 94.430 143.7099
785.045047 94.424 143.4912
790.733808 94.415 143.2668
796.463791 94.406 143.0374
802.235296 94.394 142.8035
808.048623 94.382 142.5658
813.904077 94.369 142.3249
819.801961 94.355 142.0812
825.742584 94.341 141.8353
831.726255 94.326 141.5876
837.753287 94.311 141.3384
843.823992 94.296 141.0883
849.938689 94.281 140.8372
856.097695 94.266 140.5854
862.301332 94.252 140.3328
868.549922 94.238 140.0795
874.843793 94.224 139.8253
881.183272 94.211 139.5700
887.568689 94.198 139.3133
894.000378 94.186 139.0549
900.478673 94.174 138.7942
907.003913 94.163 138.5308
913.576437 94.152 138.2640
920.196588 94.142 137.9932
926.864712 94.133 137.7177
933.581156 94.125 137.4368
940.346270 94.117 137.1499
947.160407 94.109 136.8566
954.023921 94.102 136.5566
960.937172 94.096 136.2498
967.900519 94.089 135.9363
974.914325 94.082 135.6168
981.978956 94.074 135.2921
989.094780 94.066 134.9639
996.262169 94.056 134.6341
1003.481495 94.043 134.3058
1010.753136 94.029 133.9831
1018.077470 94.011 133.6711
1025.454879 93.989 133.3764
1032.885748 93.964 133.1071
1040.370463 93.935 132.8726
1047.909417 93.902 132.6838
1055.503000 93.866 132.5527
1063.151610 93.829 132.4916
1070.855645 93.791 132.5125
1078.615506 93.755 132.6257
1086.431599 93.724 132.8380
1094.304330 93.702 133.1510
1102.234110 93.692 133.5591
1110.221353 93.698 134.0483
1118.266475 93.723 134.5956
1126.369895 93.768 135.1708
1134.532035 93.834 135.7386
1142.753322 93.919 136.2635
1151.034184 94.021 136.7139
1159.375052 94.137 137.0656
1167.776361 94.260 137.3039
1176.238550 94.388 137.4238
1184.762060 94.517 137.4286
1193.347334 94.643 137.3279
1201.994821 94.763 137.1351
1210.704971 94.877 136.8654
1219.478238 94.984 136.5341
1228.315080 95.083 136.1556
1237.215957 95.173 135.7429
1246.181334 95.256 135.3067
1255.211678 95.333 134.8561
1264.307459 95.403 134.3983
1273.469152 95.467 133.9388
1282.697235 95.526 133.4818
1291.992188 95.581 133.0303
1301.354495 95.632 132.5866
1310.784647 95.680 132.1519
1320.283132 95.724 131.7272
1329.850448 95.767 131.3129
1339.487093 95.807 130.9090
1349.193569 95.846 130.5154
1358.970381 95.884 130.1318
1368.818041 95.920 129.7576
1378.737061 95.956 129.3923
1388.727958 95.992 129.0351
1398.791253 96.027 128.6854
1408.927471 96.063 128.3424
1419.137140 96.100 128.0055
1429.420793 96.137 127.6740
1439.778965 96.176 127.3472
1450.212197 96.215 127.0247
1460.721033 96.255 126.7059
1471.306019 96.297 126.3903
1481.967709 96.339 126.0773
1492.706658 96.382 125.7664
1503.523426 96.425 125.4570
1514.418576 96.468 125.1484
1525.392678 96.511 124.8400
1536.446302 96.553 124.5309
1547.580025 96.593 124.2204
1558.794428 96.630 123.9079
1570.090095 96.666 123.5926
1581.467615 96.697 123.2742
1592.927581 96.725 122.9525
1604.470591 96.749 122.6277
1616.097246 96.767 122.3005
1627.808153 96.780 121.9721
1639.603922 96.787 121.6442
1651.485168 96.789 121.3189
1663.452510 96.784 120.9991
1675.506573 96.773 120.6877
1687.647984 96.757 120.3880
1699.877377 96.735 120.1032
1712.195390 96.709 119.8362
1724.602663 96.678 119.5896
1737.099845 96.643 119.3654
1749.687587 96.606 119.1646
1762.366544 96.567 118.9873
1775.137379 96.526 118.8325
1788.000756 96.485 118.6977
1800.957346 96.444 118.5794
1814.007826 96.404 118.4729
1827.152874 96.364 118.3725
1840.393177 96.325 118.2726
1853.729425 96.285 118.1682
1867.162312 96.245 118.0558
1880.692540 96.203 117.9335
1894.320813 96.158 117.8012
1908.047843 96.110 117.6603
1921.874344 96.058 117.5132
1935.801038 96.002 117.3629
1949.828650 95.940 117.2125
1963.957912 95.874 117.0651
1978.189561 95.802 116.9232
1992.524338 95.725 116.7895
2006.962991 95.644 116.6656
2021.506272 95.559 116.5533
2036.154940 95.469 116.4538
2050.909758 95.376 116.3682
2065.771495 95.279 116.2972
2080.740927 95.180 116.2416
2095.818833 95.078 116.2018
2111.006001 94.974 116.1785
2126.303220 94.868 116.1719
2141.711290 94.762 116.1826
2157.231013 94.654 116.2110
2172.863198 94.545 116.2580
2188.608660 94.437 116.3242
2204.468221 94.328 116.4107
2220.442706 94.219 116.5186
2236.532950 94.111 116.6492
2252.739789 94.004 116.8041
2269.064070 93.898 116.9848
2285.506644 93.793 117.1930
2302.068367 93.691 117.4302
2318.750104 93.591 117.6977
2335.552723 93.495 117.9966
2352.477101 93.402 118.3272
2369.524119 93.316 118.6894
2386.694668 93.235 119.0818
2403.989641 93.161 119.5019
2421.409941 93.096 119.9457
2438.956476 93.041 120.4080
2456.630160 92.995 120.8817
2474.431915 92.961 121.3586
2492.362668 92.939 121.8294
2510.423356 92.928 122.2840
2528.614918 92.929 122.7127
2546.938304 92.940 123.1061
2565.394469 92.961 123.4563
2583.984375 92.990 123.7573
2602.708991 93.027 124.0053
2621.569293 93.068 124.1987
2640.566265 93.113 124.3383
2659.700897 93.160 124.4265
2678.974186 93.208 124.4672
2698.387137 93.256 124.4652
2717.940763 93.304 124.4257
2737.636082 93.350 124.3536
2757.474121 93.394 124.2538
2777.455915 93.436 124.1301
2797.582506 93.476 123.9859
2817.854942 93.512 123.8239
2838.274281 93.546 123.6458
2858.841586 93.576 123.4529
2879.557931 93.601 123.2465
2900.424394 93.622 123.0275
2921.442065 93.637 122.7974
2942.612039 93.645 122.5584
2963.935418 93.645 122.3140
2985.413316 93.635 122.0691
3007.046852 93.615 121.8306
3028.837153 93.584 121.6074
3050.785356 93.540 121.4103
3072.892604 93.483 121.2516
3095.160050 93.414 121.1445
3117.588856 93.332 121.1019
3140.180190 93.238 121.1358
3162.935230 93.134 121.2556
3185.855163 93.021 121.4675
3208.941182 92.902 121.7733
3232.194493 92.778 122.1702
3255.616307 92.652 122.6508
3279.207844 92.525 123.2040
3302.970336 92.397 123.8162
3326.905021 92.271 124.4729
3351.013146 92.145 125.1607
3375.295969 92.020 125.8687
3399.754755 91.893 126.5891
3424.390779 91.765 127.3182
3449.205326 91.635 128.0566
3474.199690 91.500 128.8091
3499.375173 91.361 129.5847
3524.733088 91.217 130.3962
3550.274757 91.067 131.2602
3576.001511 90.913 132.1961
3601.914692 90.756 133.2266
3628.015651 90.597 134.3758
3654.305748 90.440 135.6691
3680.786354 90.290 137.1311
3707.458849 90.151 138.7833
3734.324624 90.032 140.6407
3761.385080 89.939 142.7075
3788.641627 89.881 144.9722
3816.095686 89.867 147.4027
3843.748688 89.903 149.9436
3871.602076 89.995 152.5167
3899.657300 90.142 155.0270
3927.915825 90.344 157.3738
3956.379122 90.590 159.4634
3985.048676 90.873 161.2220
4013.925981 91.178 162.6030
4043.012544 91.493 163.5899
4072.309879 91.806 164.1935
4101.819515 92.106 164.4465
4131.542990 92.385 164.3960
4161.481854 92.637 164.0971
4191.637667 92.858 163.6074
4222.012001 93.047 162.9822
4252.606441 93.202 162.2724
4283.422580 93.325 161.5226
4314.462026 93.417 160.7703
4345.726396 93.481 160.0460
4377.217321 93.519 159.3738
4408.936442 93.533 158.7717
4440.885413 93.527 158.2532
4473.065899 93.502 157.8275
4505.479579 93.460 157.5010
4538.128141 93.405 157.2783
4571.013288 93.337 157.1624
4604.136735 93.258 157.1565
4637.500207 93.170 157.2648
4671.105446 93.074 157.4933
4704.954201 92.972 157.8503
4739.048239 92.867 158.3463
4773.389336 92.761 158.9930
4807.979283 92.659 159.8018
4842.819883 92.564 160.7815
4877.912952 92.482 161.9352
4913.260320 92.420 163.2578
4948.863830 92.384 164.7335
4984.725337 92.380 166.3347
5020.846712 92.414 168.0215
5057.229836 92.488 169.7432
5093.876609 92.605 171.4421
5130.788938 92.764 173.0582
5167.968750 92.962 174.5349
5205.417982 93.195 175.8243
5243.138586 93.456 176.8912
5281.132530 93.740 177.7147
5319.401793 94.040 178.2867
5357.948371 94.351 178.6089
5396.774274 94.669 178.6880
5435.881525 94.990 178.5311
5475.272163 95.311 178.1414
5514.948243 95.629 177.5170
5554.911831 95.939 176.6512
5595.165012 96.236 175.5361
5635.709884 96.513 174.1665
5676.548561 96.763 172.5444
5717.683172 96.977 170.6813
5759.115861 97.150 168.5999
5800.848789 97.273 166.3340
5842.884130 97.341 163.9273
5885.224077 97.349 161.4320
5927.870837 97.294 158.9068
5970.826633 97.174 156.4151
6014.093704 96.989 154.0226
6057.674306 96.740 151.7966
6101.570711 96.430 149.8042
6145.785208 96.063 148.1122
6190.320101 95.643 146.7871
6235.177712 95.176 145.8946
6280.360380 94.671 145.4980
6325.870460 94.136 145.6553
6371.710325 93.581 146.4118
6417.882365 93.020 147.7919
6464.388986 92.465 149.7888
6511.232613 91.932 152.3574
6558.415689 91.432 155.4156
6605.940673 90.977 158.8560
6653.810042 90.574 162.5677
6702.026292 90.228 166.4585
6750.591937 89.940 170.4688
6799.509509 89.712 174.5711
6848.781558 89.545 178.7548
6898.410653 89.442 -176.9982
6948.399380 89.404 -172.7364
6998.750346 89.434 -168.5526
7049.466176 89.529 -164.5776
7100.549514 89.683 -160.9554
7152.003023 89.885 -157.8103
7203.829385 90.119 -155.2196
7256.031302 90.370 -153.2052
7308.611496 90.623 -151.7399
7361.572708 90.864 -150.7638
7414.917698 91.085 -150.2007
7468.649249 91.278 -149.9711
7522.770160 91.441 -150.0002
7577.283253 91.571 -150.2224
7632.191371 91.671 -150.5838
7687.497376 91.741 -151.0421
7743.204151 91.785 -151.5682
7799.314600 91.806 -152.1455
7855.831649 91.809 -152.7698
7912.758244 91.796 -153.4483
7970.097352 91.770 -154.1975
8027.851962 91.732 -155.0401
8086.025087 91.682 -156.0014
8144.619758 91.618 -157.1044
8203.639030 91.535 -158.3657
8263.085980 91.429 -159.7912
8322.963708 91.292 -161.3726
8383.275334 91.119 -163.0842
8444.024002 90.904 -164.8796
8505.212881 90.641 -166.6865
8566.845160 90.330 -168.3982
8628.924051 89.971 -169.8573
8691.452792 89.570 -170.8261
8754.434642 89.140 -170.9269
8817.872884 88.698 -169.5244
8881.770826 88.274 -165.4979
8946.131799 87.900 -156.9156
9010.959157 87.615 -141.3903
9076.256282 87.447 -120.0642
9142.026576 87.412 -101.0082
9208.273470 87.505 -89.2093
9275.000415 87.702 -83.2312
9342.210891 87.971 -80.7523
9409.908403 88.277 -80.3069
9478.096478 88.591 -81.0814
9546.778672 88.890 -82.6173
9615.958566 89.157 -84.6444
9685.639765 89.382 -86.9940
9755.825904 89.557 -89.5550
9826.520640 89.680 -92.2496
9897.727659 89.748 -95.0208
9969.450674 89.761 -97.8251
10041.693423 89.721 -100.6292
10114.459673 89.630 -103.4079
10187.753217 89.492 -106.1441
10261.577877 89.309 -108.8282
10335.937500 89.086 -111.4574
10410.835964 88.825 -114.0347
10486.277173 88.528 -116.5668
10562.265060 88.197 -119.0614
10638.803587 87.833 -121.5254
10715.896743 87.435 -123.9622
10793.548548 87.003 -126.3715
10871.763050 86.535 -128.7492
10950.544327 86.030 -131.0891
11029.896485 85.490 -133.3859
11109.823662 84.914 -135.6365
11190.330024 84.303 -137.8415
11271.419768 83.659 -140.0024
11353.097122 82.981 -142.1171
11435.366344 82.268 -144.1740
11518.231722 81.520 -146.1470
11601.697577 80.733 -147.9929
11685.768261 79.906 -149.6536
11770.448155 79.039 -151.0610
11855.741674 78.132 -152.1455
11941.653265 77.188 -152.8454
12028.187408 76.213 -153.1154
12115.348612 75.213 -152.9340
12203.141422 74.199 -152.3086
12291.570415 73.187 -151.2790
12380.640201 72.196 -149.9188
12470.355424 71.255 -148.3344
12560.720760 70.402 -146.6586
12651.740920 69.680 -145.0390
12743.420650 69.136 -143.6220
12835.764729 68.811 -142.5367
12928.777972 68.717 -141.8808
13022.465227 68.842 -141.7122
13116.831378 69.145 -142.0453
13211.881345 69.575 -142.8549
13307.620084 70.082 -144.0841
13404.052584 70.625 -145.6569
13501.183875 71.173 -147.4880
13599.019019 71.705 -149.4928
13697.563116 72.209 -151.5922
13796.821305 72.677 -153.7161
13896.798760 73.105 -155.8025
13997.500692 73.494 -157.7951
14098.932352 73.844 -159.6410
14201.099028 74.160 -161.2894
14304.006046 74.449 -162.6916
14407.658770 74.721 -163.8048
14512.062604 74.987 -164.5981
14617.222992 75.262 -165.0619
14723.145416 75.560 -165.2190
14829.835397 75.892 -165.1340
14937.298497 76.266 -164.9145
15045.540320 76.682 -164.7009
15154.566507 77.132 -164.6459
15264.382743 77.604 -164.8902
15374.994752 78.083 -165.5415
15486.408302 78.551 -166.6646
15598.629201 78.994 -168.2796
15711.663298 79.399 -170.3694
15825.516487 79.758 -172.8904
15940.194703 80.065 -175.7856
16055.703925 80.320 -178.9970
16172.050174 80.523 177.5261
16289.239516 80.677 173.8226
16407.278061 80.781 169.9202
16526.171961 80.836 165.8390
16645.927415 80.840 161.5961
16766.550667 80.792 157.2098
16888.048005 80.689 152.7029
17010.425762 80.528 148.1032
17133.690320 80.309 143.4416
17257.848103 80.032 138.7483
17382.905584 79.702 134.0494
17508.869284 79.321 129.3646
17635.745768 78.897 124.7089
17763.541652 78.434 120.0969
17892.263597 77.941 115.5468
18021.918315 77.426 111.0836
18152.512564 76.904 106.7349
18284.053153 76.395 102.5237
18416.546939 75.927 98.4567
18550.000830 75.534 94.5122
18684.421783 75.248 90.6375
18819.816805 75.092 86.7556
18956.192956 75.072 82.7876
19093.557344 75.171 78.6908
19231.917131 75.353 74.5002
19371.279531 75.577 70.3576
19511.651807 75.803 66.5047
19653.041280 75.998 63.2413
19795.455318 76.140 60.8643
19938.901348 76.214 59.6100
