* Measurement data measured by REW V5.31.3
* Source: EXCL: Headset (USB-C to 3.5mm Headphone Jack Adapter), MICROPHONE (Master Volume), 0, volume: 0.750
* Format: 256k Log Swept Sine, 1 sweep at -12.0 dBFS with no timing reference
* Dated: Apr 1, 2025 10:42:12 PM
* REW Settings:
*  C-weighting compensation: Off
*  Target level: 75.0 dB
* Note: ; 
* Measurement: K361 L6
* Smoothing: 1/6 octave
* Frequency Step: 96 ppo
* Start Frequency: 20.0 Hz
*
* Freq(Hz) SPL(dB) Phase(degrees)
20.187378 98.258 -145.1733
20.333664 98.282 -145.2832
20.481010 98.315 -145.4310
20.629424 98.357 -145.6133
20.778913 98.407 -145.8270
20.929486 98.467 -146.0703
21.081150 98.534 -146.3423
21.233912 98.609 -146.6434
21.387782 98.689 -146.9748
21.542767 98.774 -147.3376
21.698874 98.862 -147.7328
21.856113 98.951 -148.1604
22.014492 99.039 -148.6194
22.174018 99.124 -149.1072
22.334700 99.205 -149.6199
22.496546 99.280 -150.1523
22.659566 99.348 -150.6987
22.823766 99.408 -151.2528
22.989157 99.460 -151.8090
23.155745 99.505 -152.3620
23.323542 99.541 -152.9079
23.492554 99.569 -153.4443
23.662790 99.590 -153.9700
23.834261 99.605 -154.4852
24.006973 99.613 -154.9909
24.180938 99.615 -155.4888
24.356163 99.612 -155.9803
24.532658 99.603 -156.4665
24.710431 99.590 -156.9476
24.889493 99.573 -157.4230
25.069853 99.553 -157.8916
25.251519 99.530 -158.3517
25.434502 99.506 -158.8019
25.618811 99.481 -159.2411
25.804456 99.458 -159.6694
25.991445 99.436 -160.0880
26.179790 99.418 -160.4993
26.369500 99.403 -160.9066
26.560584 99.392 -161.3135
26.753053 99.384 -161.7233
26.946917 99.380 -162.1386
27.142185 99.377 -162.5603
27.338869 99.375 -162.9881
27.536977 99.372 -163.4196
27.736522 99.367 -163.8516
27.937512 99.359 -164.2798
28.139959 99.348 -164.7001
28.343872 99.334 -165.1089
28.549264 99.316 -165.5040
28.756143 99.295 -165.8845
28.964522 99.272 -166.2519
29.174411 99.247 -166.6089
29.385821 99.221 -166.9600
29.598763 99.196 -167.3103
29.813248 99.172 -167.6651
30.029287 99.150 -168.0294
30.246891 99.130 -168.4069
30.466073 99.113 -168.7997
30.686842 99.099 -169.2081
30.909212 99.089 -169.6306
31.133193 99.083 -170.0642
31.358797 99.080 -170.5048
31.586035 99.082 -170.9479
31.814921 99.089 -171.3892
32.045465 99.101 -171.8251
32.277680 99.118 -172.2531
32.511577 99.141 -172.6722
32.747169 99.168 -173.0826
32.984469 99.200 -173.4853
33.223488 99.236 -173.8817
33.464239 99.274 -174.2733
33.706735 99.314 -174.6610
33.950987 99.355 -175.0449
34.197010 99.396 -175.4248
34.444816 99.437 -175.7998
34.694417 99.475 -176.1693
34.945827 99.512 -176.5328
35.199059 99.547 -176.8907
35.454126 99.581 -177.2442
35.711041 99.612 -177.5953
35.969818 99.642 -177.9464
36.230470 99.671 -178.3000
36.493011 99.698 -178.6582
36.757455 99.724 -179.0220
37.023814 99.749 -179.3914
37.292104 99.773 -179.7645
37.562338 99.795 179.8617
37.834530 99.817 179.4917
38.108695 99.836 179.1308
38.384846 99.853 178.7841
38.662999 99.868 178.4563
38.943167 99.880 178.1501
39.225365 99.890 177.8664
39.509608 99.896 177.6032
39.795911 99.899 177.3565
40.084289 99.899 177.1201
40.374756 99.896 176.8869
40.667328 99.890 176.6504
40.962020 99.880 176.4053
41.258848 99.868 176.1490
41.557827 99.853 175.8825
41.858972 99.835 175.6097
42.162299 99.816 175.3375
42.467824 99.794 175.0743
42.775564 99.772 174.8285
43.085533 99.748 174.6066
43.397749 99.725 174.4120
43.712227 99.702 174.2446
44.028983 99.679 174.1004
44.348036 99.657 173.9732
44.669400 99.634 173.8558
44.993093 99.610 173.7413
45.319131 99.587 173.6250
45.647532 99.562 173.5039
45.978313 99.537 173.3774
46.311491 99.512 173.2467
46.647083 99.488 173.1140
46.985107 99.464 172.9821
47.325581 99.441 172.8538
47.668521 99.420 172.7318
48.013947 99.400 172.6182
48.361876 99.381 172.5142
48.712326 99.363 172.4199
49.065315 99.346 172.3345
49.420863 99.329 172.2567
49.778987 99.313 172.1842
50.139706 99.298 172.1150
50.503039 99.284 172.0469
50.869005 99.269 171.9783
51.237623 99.254 171.9078
51.608912 99.239 171.8351
51.982891 99.223 171.7599
52.359580 99.207 171.6823
52.739000 99.190 171.6010
53.121168 99.174 171.5137
53.506106 99.158 171.4166
53.893833 99.144 171.3052
54.284370 99.131 171.1759
54.677737 99.118 171.0271
55.073955 99.105 170.8602
55.473043 99.092 170.6791
55.875024 99.079 170.4891
56.279917 99.066 170.2951
56.687745 99.054 170.1003
57.098527 99.042 169.9056
57.512287 99.032 169.7100
57.929045 99.024 169.5107
58.348822 99.019 169.3048
58.771642 99.016 169.0892
59.197525 99.015 168.8617
59.626495 99.018 168.6212
60.058573 99.024 168.3678
60.493782 99.033 168.1035
60.932145 99.045 167.8312
61.373685 99.060 167.5549
61.818424 99.077 167.2787
62.266386 99.096 167.0065
62.717593 99.117 166.7408
63.172071 99.140 166.4833
63.629842 99.164 166.2346
64.090930 99.190 165.9941
64.555359 99.215 165.7605
65.023154 99.241 165.5317
65.494339 99.265 165.3054
65.968938 99.289 165.0792
66.446976 99.310 164.8503
66.928478 99.330 164.6164
67.413469 99.347 164.3755
67.901975 99.362 164.1266
68.394021 99.374 163.8701
68.889632 99.383 163.6072
69.388835 99.390 163.3400
69.891655 99.395 163.0710
70.398118 99.397 162.8027
70.908252 99.396 162.5377
71.422083 99.393 162.2784
71.939636 99.388 162.0275
72.460941 99.380 161.7871
72.986023 99.370 161.5590
73.514909 99.357 161.3442
74.047629 99.342 161.1429
74.584208 99.323 160.9546
75.124676 99.303 160.7783
75.669061 99.279 160.6127
76.217390 99.254 160.4570
76.769692 99.226 160.3107
77.325997 99.197 160.1736
77.886333 99.166 160.0455
78.450730 99.133 159.9260
79.019216 99.100 159.8143
79.591822 99.065 159.7095
80.168577 99.030 159.6107
80.749512 98.996 159.5170
81.334656 98.963 159.4275
81.924040 98.931 159.3417
82.517696 98.900 159.2589
83.115653 98.872 159.1788
83.717943 98.845 159.1008
84.324598 98.821 159.0245
84.935649 98.798 158.9498
85.551128 98.778 158.8766
86.171066 98.760 158.8048
86.795497 98.743 158.7337
87.424453 98.728 158.6623
88.057967 98.715 158.5892
88.696071 98.702 158.5125
89.338800 98.692 158.4299
89.986185 98.682 158.3391
90.638262 98.673 158.2379
91.295065 98.666 158.1246
91.956626 98.659 157.9979
92.622982 98.654 157.8572
93.294166 98.649 157.7024
93.970214 98.645 157.5339
94.651161 98.642 157.3525
95.337042 98.640 157.1588
96.027894 98.638 156.9534
96.723752 98.638 156.7367
97.424652 98.638 156.5084
98.130631 98.638 156.2679
98.841726 98.639 156.0145
99.557974 98.640 155.7470
100.279412 98.640 155.4648
101.006078 98.641 155.1672
101.738010 98.640 154.8542
102.475245 98.640 154.5259
103.217823 98.639 154.1830
103.965782 98.638 153.8263
104.719161 98.636 153.4565
105.477999 98.633 153.0745
106.242336 98.629 152.6807
107.012212 98.624 152.2756
107.787666 98.618 151.8594
108.568740 98.609 151.4329
109.355474 98.599 150.9970
110.147909 98.586 150.5533
110.946086 98.571 150.1037
111.750047 98.554 149.6501
112.559834 98.533 149.1947
113.375489 98.509 148.7397
114.197055 98.483 148.2872
115.024574 98.452 147.8394
115.858089 98.418 147.3984
116.697645 98.380 146.9666
117.543284 98.338 146.5466
118.395051 98.293 146.1409
119.252990 98.243 145.7526
120.117147 98.189 145.3843
120.987565 98.131 145.0390
121.864291 98.070 144.7189
122.747370 98.005 144.4260
123.636848 97.936 144.1616
124.532771 97.864 143.9271
125.435187 97.790 143.7234
126.344142 97.713 143.5516
127.259684 97.634 143.4128
128.181860 97.553 143.3080
129.110718 97.472 143.2377
130.046308 97.391 143.2021
130.988677 97.310 143.2006
131.937875 97.231 143.2318
132.893951 97.153 143.2933
133.856956 97.078 143.3821
134.826938 97.007 143.4942
135.803950 96.938 143.6252
136.788041 96.873 143.7706
137.779264 96.812 143.9260
138.777669 96.755 144.0873
139.783309 96.702 144.2508
140.796237 96.652 144.4131
141.816504 96.606 144.5714
142.844165 96.562 144.7231
143.879273 96.522 144.8661
144.921881 96.484 144.9988
145.972045 96.448 145.1198
147.029819 96.413 145.2281
148.095257 96.380 145.3232
149.168417 96.347 145.4051
150.249353 96.315 145.4743
151.338121 96.284 145.5316
152.434780 96.253 145.5781
153.539385 96.223 145.6146
154.651995 96.193 145.6420
155.772667 96.164 145.6608
156.901460 96.135 145.6714
158.038432 96.106 145.6741
159.183644 96.078 145.6694
160.337154 96.050 145.6577
161.499023 96.022 145.6400
162.669312 95.994 145.6169
163.848081 95.967 145.5896
165.035392 95.939 145.5585
166.231306 95.912 145.5243
167.435887 95.885 145.4872
168.649196 95.857 145.4473
169.871298 95.830 145.4044
171.102255 95.803 145.3580
172.342133 95.775 145.3080
173.590995 95.748 145.2539
174.848907 95.720 145.1958
176.115934 95.691 145.1337
177.392143 95.662 145.0680
178.677599 95.632 144.9989
179.972371 95.601 144.9270
181.276525 95.568 144.8527
182.590129 95.533 144.7764
183.913252 95.497 144.6987
185.245964 95.458 144.6201
186.588332 95.418 144.5414
187.940428 95.377 144.4633
189.302322 95.334 144.3866
190.674085 95.289 144.3124
192.055788 95.243 144.2413
193.447503 95.196 144.1744
194.849303 95.147 144.1122
196.261262 95.098 144.0553
197.683452 95.047 144.0039
199.115948 94.996 143.9581
200.558824 94.944 143.9176
202.012156 94.891 143.8826
203.476019 94.838 143.8531
204.950490 94.784 143.8292
206.435646 94.730 143.8114
207.931564 94.676 143.8005
209.438322 94.621 143.7978
210.955998 94.567 143.8048
212.484672 94.512 143.8232
214.024424 94.457 143.8547
215.575333 94.402 143.9005
217.137481 94.348 143.9612
218.710948 94.296 144.0372
220.295818 94.245 144.1277
221.892172 94.197 144.2316
223.500094 94.151 144.3470
225.119668 94.108 144.4714
226.750978 94.068 144.6023
228.394109 94.032 144.7370
230.049147 93.998 144.8731
231.716178 93.967 145.0090
233.395289 93.938 145.1434
235.086567 93.911 145.2760
236.790102 93.886 145.4070
238.505980 93.862 145.5372
240.234293 93.840 145.6673
241.975130 93.819 145.7981
243.728581 93.799 145.9303
245.494739 93.779 146.0644
247.273695 93.761 146.2005
249.065542 93.743 146.3390
250.870374 93.726 146.4800
252.688284 93.709 146.6241
254.519367 93.692 146.7718
256.363720 93.675 146.9242
258.221437 93.658 147.0826
260.092616 93.641 147.2487
261.977354 93.624 147.4242
263.875750 93.607 147.6109
265.787903 93.591 147.8103
267.713911 93.577 148.0237
269.653877 93.564 148.2512
271.607900 93.554 148.4925
273.576083 93.546 148.7455
275.558528 93.543 149.0069
277.555338 93.543 149.2716
279.566619 93.549 149.5334
281.592474 93.559 149.7856
283.633009 93.573 150.0212
285.688331 93.590 150.2341
287.758546 93.611 150.4196
289.843763 93.634 150.5748
291.944090 93.658 150.6992
294.059638 93.682 150.7939
296.190515 93.706 150.8618
298.336833 93.728 150.9069
300.498705 93.747 150.9338
302.676243 93.765 150.9475
304.869559 93.780 150.9529
307.078770 93.793 150.9540
309.303989 93.804 150.9547
311.545334 93.813 150.9574
313.802919 93.820 150.9643
316.076865 93.827 150.9767
318.367288 93.832 150.9954
320.674309 93.836 151.0209
322.998047 93.840 151.0532
325.338624 93.843 151.0922
327.696162 93.846 151.1375
330.070783 93.848 151.1885
332.462612 93.849 151.2448
334.871773 93.850 151.3057
337.298392 93.851 151.3705
339.742595 93.850 151.4387
342.204510 93.848 151.5100
344.684265 93.845 151.5840
347.181989 93.841 151.6606
349.697813 93.836 151.7397
352.231868 93.831 151.8211
354.784285 93.824 151.9049
357.355198 93.816 151.9909
359.944741 93.807 152.0790
362.553049 93.798 152.1690
365.180258 93.788 152.2608
367.826505 93.778 152.3544
370.491927 93.767 152.4498
373.176665 93.756 152.5468
375.880856 93.746 152.6456
378.604644 93.735 152.7459
381.348169 93.725 152.8478
384.111575 93.714 152.9512
386.895006 93.704 153.0560
389.698607 93.694 153.1620
392.522524 93.684 153.2693
395.366904 93.674 153.3774
398.231895 93.665 153.4861
401.117648 93.655 153.5952
404.024312 93.645 153.7043
406.952038 93.635 153.8135
409.900981 93.624 153.9227
412.871292 93.613 154.0318
415.863128 93.601 154.1410
418.876643 93.588 154.2501
421.911996 93.575 154.3592
424.969344 93.560 154.4683
428.048847 93.545 154.5775
431.150666 93.528 154.6869
434.274961 93.510 154.7965
437.421897 93.492 154.9065
440.591636 93.473 155.0167
443.784345 93.452 155.1270
447.000189 93.432 155.2373
450.239337 93.410 155.3472
453.501956 93.389 155.4566
456.788219 93.367 155.5651
460.098294 93.346 155.6725
463.432356 93.325 155.7789
466.790578 93.304 155.8842
470.173135 93.284 155.9885
473.580203 93.265 156.0919
477.011961 93.248 156.1944
480.468586 93.231 156.2959
483.950259 93.215 156.3963
487.457163 93.201 156.4954
490.989478 93.188 156.5932
494.547390 93.177 156.6894
498.131084 93.167 156.7841
501.740748 93.159 156.8771
505.376568 93.153 156.9684
509.038735 93.149 157.0581
512.727439 93.147 157.1459
516.442874 93.147 157.2316
520.185232 93.149 157.3151
523.954708 93.154 157.3959
527.751500 93.161 157.4738
531.575805 93.171 157.5482
535.427822 93.183 157.6189
539.307753 93.199 157.6856
543.215800 93.217 157.7479
547.152165 93.237 157.8057
551.117055 93.261 157.8587
555.110677 93.286 157.9068
559.133237 93.314 157.9500
563.184947 93.345 157.9880
567.266018 93.377 158.0207
571.376661 93.411 158.0478
575.517092 93.446 158.0689
579.687526 93.482 158.0839
583.888181 93.519 158.0923
588.119275 93.557 158.0941
592.381030 93.594 158.0891
596.673667 93.631 158.0770
600.997410 93.667 158.0581
605.352485 93.702 158.0324
609.739119 93.736 158.0004
614.157540 93.768 157.9623
618.607979 93.799 157.9189
623.090667 93.827 157.8705
627.605839 93.853 157.8177
632.153730 93.877 157.7610
636.734576 93.898 157.7006
641.348617 93.917 157.6370
645.996094 93.934 157.5705
650.677248 93.949 157.5012
655.392323 93.962 157.4296
660.141566 93.973 157.3558
664.925224 93.982 157.2802
669.743546 93.990 157.2031
674.596784 93.996 157.1248
679.485191 94.001 157.0453
684.409020 94.004 156.9650
689.368530 94.006 156.8838
694.363979 94.007 156.8018
699.395626 94.007 156.7190
704.463736 94.005 156.6355
709.568570 94.003 156.5515
714.710396 93.999 156.4668
719.889483 93.993 156.3816
725.106099 93.987 156.2957
730.360516 93.979 156.2090
735.653010 93.969 156.1215
740.983855 93.958 156.0327
746.353329 93.946 155.9424
751.761713 93.932 155.8503
757.209288 93.916 155.7563
762.696339 93.900 155.6600
768.223151 93.882 155.5612
773.790013 93.863 155.4598
779.397214 93.843 155.3555
785.045047 93.822 155.2481
790.733808 93.800 155.1373
796.463791 93.778 155.0227
802.235296 93.755 154.9041
808.048623 93.731 154.7811
813.904077 93.707 154.6533
819.801961 93.683 154.5203
825.742584 93.658 154.3819
831.726255 93.633 154.2377
837.753287 93.608 154.0875
843.823992 93.582 153.9313
849.938689 93.555 153.7688
856.097695 93.528 153.6001
862.301332 93.499 153.4253
868.549922 93.469 153.2446
874.843793 93.438 153.0586
881.183272 93.405 152.8681
887.568689 93.370 152.6745
894.000378 93.333 152.4799
900.478673 93.293 152.2871
907.003913 93.250 152.1001
913.576437 93.204 151.9238
920.196588 93.155 151.7644
926.864712 93.102 151.6292
933.581156 93.045 151.5264
940.346270 92.986 151.4651
947.160407 92.925 151.4548
954.023921 92.863 151.5040
960.937172 92.802 151.6205
967.900519 92.744 151.8091
974.914325 92.692 152.0716
981.978956 92.647 152.4054
989.094780 92.613 152.8036
996.262169 92.591 153.2554
1003.481495 92.583 153.7468
1010.753136 92.590 154.2626
1018.077470 92.613 154.7872
1025.454879 92.650 155.3063
1032.885748 92.702 155.8071
1040.370463 92.767 156.2786
1047.909417 92.844 156.7111
1055.503000 92.932 157.0963
1063.151610 93.028 157.4264
1070.855645 93.131 157.6950
1078.615506 93.239 157.8969
1086.431599 93.349 158.0292
1094.304330 93.461 158.0912
1102.234110 93.571 158.0850
1110.221353 93.678 158.0152
1118.266475 93.782 157.8883
1126.369895 93.880 157.7121
1134.532035 93.973 157.4951
1142.753322 94.060 157.2457
1151.034184 94.140 156.9720
1159.375052 94.215 156.6809
1167.776361 94.285 156.3787
1176.238550 94.350 156.0703
1184.762060 94.410 155.7599
1193.347334 94.467 155.4507
1201.994821 94.520 155.1450
1210.704971 94.569 154.8446
1219.478238 94.616 154.5508
1228.315080 94.661 154.2644
1237.215957 94.704 153.9860
1246.181334 94.744 153.7158
1255.211678 94.784 153.4540
1264.307459 94.821 153.2006
1273.469152 94.857 152.9554
1282.697235 94.892 152.7184
1291.992188 94.926 152.4896
1301.354495 94.959 152.2686
1310.784647 94.991 152.0555
1320.283132 95.023 151.8500
1329.850448 95.053 151.6521
1339.487093 95.084 151.4617
1349.193569 95.114 151.2788
1358.970381 95.144 151.1033
1368.818041 95.174 150.9351
1378.737061 95.204 150.7741
1388.727958 95.235 150.6200
1398.791253 95.267 150.4726
1408.927471 95.300 150.3315
1419.137140 95.335 150.1963
1429.420793 95.371 150.0663
1439.778965 95.409 149.9409
1450.212197 95.449 149.8194
1460.721033 95.490 149.7011
1471.306019 95.534 149.5854
1481.967709 95.579 149.4718
1492.706658 95.626 149.3600
1503.523426 95.673 149.2498
1514.418576 95.721 149.1412
1525.392678 95.769 149.0346
1536.446302 95.817 148.9302
1547.580025 95.864 148.8287
1558.794428 95.909 148.7303
1570.090095 95.952 148.6354
1581.467615 95.993 148.5443
1592.927581 96.032 148.4566
1604.470591 96.068 148.3723
1616.097246 96.100 148.2908
1627.808153 96.130 148.2115
1639.603922 96.156 148.1337
1651.485168 96.179 148.0566
1663.452510 96.199 147.9796
1675.506573 96.215 147.9021
1687.647984 96.229 147.8235
1699.877377 96.240 147.7438
1712.195390 96.248 147.6627
1724.602663 96.254 147.5804
1737.099845 96.257 147.4972
1749.687587 96.259 147.4135
1762.366544 96.259 147.3298
1775.137379 96.257 147.2468
1788.000756 96.253 147.1648
1800.957346 96.249 147.0836
1814.007826 96.243 147.0024
1827.152874 96.236 146.9197
1840.393177 96.229 146.8332
1853.729425 96.220 146.7403
1867.162312 96.209 146.6386
1880.692540 96.195 146.5266
1894.320813 96.179 146.4039
1908.047843 96.158 146.2710
1921.874344 96.133 146.1298
1935.801038 96.104 145.9827
1949.828650 96.069 145.8327
1963.957912 96.029 145.6830
1978.189561 95.984 145.5368
1992.524338 95.933 145.3970
2006.962991 95.878 145.2659
2021.506272 95.818 145.1454
2036.154940 95.755 145.0369
2050.909758 95.688 144.9410
2065.771495 95.618 144.8576
2080.740927 95.547 144.7863
2095.818833 95.474 144.7261
2111.006001 95.400 144.6759
2126.303220 95.325 144.6342
2141.711290 95.250 144.5994
2157.231013 95.176 144.5703
2172.863198 95.102 144.5456
2188.608660 95.028 144.5244
2204.468221 94.955 144.5061
2220.442706 94.883 144.4907
2236.532950 94.811 144.4785
2252.739789 94.739 144.4704
2269.064070 94.668 144.4677
2285.506644 94.596 144.4721
2302.068367 94.526 144.4858
2318.750104 94.455 144.5109
2335.552723 94.386 144.5498
2352.477101 94.317 144.6049
2369.524119 94.250 144.6783
2386.694668 94.185 144.7717
2403.989641 94.124 144.8860
2421.409941 94.065 145.0218
2438.956476 94.012 145.1785
2456.630160 93.963 145.3546
2474.431915 93.921 145.5476
2492.362668 93.886 145.7542
2510.423356 93.858 145.9698
2528.614918 93.839 146.1895
2546.938304 93.828 146.4074
2565.394469 93.825 146.6178
2583.984375 93.831 146.8146
2602.708991 93.845 146.9918
2621.569293 93.866 147.1443
2640.566265 93.895 147.2671
2659.700897 93.929 147.3566
2678.974186 93.968 147.4098
2698.387137 94.011 147.4249
2717.940763 94.056 147.4014
2737.636082 94.103 147.3396
2757.474121 94.151 147.2413
2777.455915 94.197 147.1089
2797.582506 94.242 146.9459
2817.854942 94.284 146.7564
2838.274281 94.323 146.5451
2858.841586 94.357 146.3171
2879.557931 94.386 146.0779
2900.424394 94.410 145.8333
2921.442065 94.427 145.5889
2942.612039 94.437 145.3507
2963.935418 94.441 145.1243
2985.413316 94.438 144.9149
3007.046852 94.427 144.7271
3028.837153 94.410 144.5646
3050.785356 94.385 144.4304
3072.892604 94.353 144.3274
3095.160050 94.313 144.2590
3117.588856 94.264 144.2300
3140.180190 94.208 144.2466
3162.935230 94.144 144.3163
3185.855163 94.072 144.4462
3208.941182 93.995 144.6413
3232.194493 93.913 144.9031
3255.616307 93.828 145.2279
3279.207844 93.743 145.6075
3302.970336 93.659 146.0291
3326.905021 93.577 146.4772
3351.013146 93.497 146.9356
3375.295969 93.420 147.3887
3399.754755 93.344 147.8233
3424.390779 93.268 148.2297
3449.205326 93.192 148.6022
3474.199690 93.112 148.9390
3499.375173 93.028 149.2425
3524.733088 92.939 149.5186
3550.274757 92.842 149.7768
3576.001511 92.737 150.0296
3601.914692 92.624 150.2922
3628.015651 92.502 150.5822
3654.305748 92.372 150.9191
3680.786354 92.234 151.3246
3707.458849 92.091 151.8216
3734.324624 91.943 152.4344
3761.385080 91.795 153.1880
3788.641627 91.650 154.1065
3816.095686 91.515 155.2112
3843.748688 91.395 156.5169
3871.602076 91.298 158.0275
3899.657300 91.233 159.7307
3927.915825 91.206 161.5941
3956.379122 91.225 163.5642
3985.048676 91.293 165.5696
4013.925981 91.409 167.5286
4043.012544 91.571 169.3592
4072.309879 91.772 170.9895
4101.819515 92.003 172.3648
4131.542990 92.253 173.4522
4161.481854 92.512 174.2405
4191.637667 92.770 174.7386
4222.012001 93.020 174.9704
4252.606441 93.256 174.9702
4283.422580 93.472 174.7770
4314.462026 93.667 174.4297
4345.726396 93.839 173.9638
4377.217321 93.989 173.4090
4408.936442 94.115 172.7891
4440.885413 94.220 172.1223
4473.065899 94.302 171.4233
4505.479579 94.363 170.7046
4538.128141 94.402 169.9783
4571.013288 94.418 169.2578
4604.136735 94.411 168.5581
4637.500207 94.382 167.8966
4671.105446 94.330 167.2938
4704.954201 94.256 166.7731
4739.048239 94.162 166.3609
4773.389336 94.049 166.0861
4807.979283 93.921 165.9788
4842.819883 93.782 166.0684
4877.912952 93.638 166.3813
4913.260320 93.498 166.9376
4948.863830 93.369 167.7471
4984.725337 93.262 168.8068
5020.846712 93.187 170.0980
5057.229836 93.153 171.5851
5093.876609 93.168 173.2164
5130.788938 93.240 174.9263
5167.968750 93.370 176.6389
5205.417982 93.559 178.2735
5243.138586 93.803 179.7499
5281.132530 94.095 -179.0066
5319.401793 94.428 -178.0597
5357.948371 94.789 -177.4591
5396.774274 95.167 -177.2386
5435.881525 95.551 -177.4161
5475.272163 95.929 -177.9944
5514.948243 96.290 -178.9636
5554.911831 96.624 179.6982
5595.165012 96.923 178.0222
5635.709884 97.177 176.0491
5676.548561 97.380 173.8273
5717.683172 97.526 171.4123
5759.115861 97.609 168.8672
5800.848789 97.625 166.2620
5842.884130 97.572 163.6738
5885.224077 97.449 161.1866
5927.870837 97.256 158.8906
5970.826633 96.997 156.8804
6014.093704 96.677 155.2529
6057.674306 96.305 154.1030
6101.570711 95.893 153.5168
6145.785208 95.454 153.5631
6190.320101 95.007 154.2798
6235.177712 94.572 155.6595
6280.360380 94.169 157.6364
6325.870460 93.815 160.0840
6371.710325 93.527 162.8286
6417.882365 93.309 165.6776
6464.388986 93.163 168.4559
6511.232613 93.082 171.0313
6558.415689 93.055 173.3254
6605.940673 93.069 175.3082
6653.810042 93.112 176.9846
6702.026292 93.175 178.3799
6750.591937 93.248 179.5268
6799.509509 93.326 -179.5422
6848.781558 93.404 -178.7993
6898.410653 93.478 -178.2220
6948.399380 93.545 -177.7921
6998.750346 93.601 -177.4930
7049.466176 93.645 -177.3071
7100.549514 93.672 -177.2135
7152.003023 93.681 -177.1869
7203.829385 93.670 -177.1983
7256.031302 93.638 -177.2153
7308.611496 93.585 -177.2048
7361.572708 93.514 -177.1341
7414.917698 93.427 -176.9733
7468.649249 93.328 -176.6960
7522.770160 93.221 -176.2816
7577.283253 93.113 -175.7162
7632.191371 93.009 -174.9954
7687.497376 92.916 -174.1264
7743.204151 92.842 -173.1313
7799.314600 92.793 -172.0475
7855.831649 92.774 -170.9275
7912.758244 92.787 -169.8350
7970.097352 92.834 -168.8389
8027.851962 92.910 -168.0049
8086.025087 93.010 -167.3888
8144.619758 93.127 -167.0309
8203.639030 93.252 -166.9539
8263.085980 93.374 -167.1632
8322.963708 93.487 -167.6491
8383.275334 93.580 -168.3898
8444.024002 93.646 -169.3534
8505.212881 93.680 -170.5002
8566.845160 93.674 -171.7829
8628.924051 93.626 -173.1467
8691.452792 93.529 -174.5272
8754.434642 93.382 -175.8492
8817.872884 93.182 -177.0247
8881.770826 92.931 -177.9538
8946.131799 92.633 -178.5284
9010.959157 92.295 -178.6426
9076.256282 91.932 -178.2097
9142.026576 91.560 -177.1857
9208.273470 91.202 -175.5929
9275.000415 90.879 -173.5329
9342.210891 90.612 -171.1798
9409.908403 90.415 -168.7487
9478.096478 90.292 -166.4507
9546.778672 90.243 -164.4548
9615.958566 90.257 -162.8695
9685.639765 90.322 -161.7465
9755.825904 90.422 -161.0958
9826.520640 90.544 -160.9014
9897.727659 90.674 -161.1336
9969.450674 90.801 -161.7564
10041.693423 90.915 -162.7306
10114.459673 91.010 -164.0160
10187.753217 91.078 -165.5728
10261.577877 91.115 -167.3626
10335.937500 91.119 -169.3497
10410.835964 91.089 -171.5028
10486.277173 91.024 -173.7954
10562.265060 90.925 -176.2068
10638.803587 90.791 -178.7214
10715.896743 90.625 178.6713
10793.548548 90.427 175.9778
10871.763050 90.197 173.2020
10950.544327 89.935 170.3460
11029.896485 89.641 167.4124
11109.823662 89.314 164.4054
11190.330024 88.953 161.3311
11271.419768 88.558 158.1968
11353.097122 88.129 155.0093
11435.366344 87.670 151.7702
11518.231722 87.184 148.4725
11601.697577 86.679 145.0958
11685.768261 86.165 141.6019
11770.448155 85.655 137.9319
11855.741674 85.162 134.0038
11941.653265 84.703 129.7128
12028.187408 84.288 124.9362
12115.348612 83.925 119.5412
12203.141422 83.611 113.3983
12291.570415 83.336 106.3969
12380.640201 83.081 98.4637
12470.355424 82.825 89.5832
12560.720760 82.545 79.8201
12651.740920 82.225 69.3400
12743.420650 81.852 58.4201
12835.764729 81.421 47.4297
12928.777972 80.932 36.7726
13022.465227 80.392 26.8068
13116.831378 79.815 17.7753
13211.881345 79.218 9.7816
13307.620084 78.619 2.8091
13404.052584 78.037 -3.2352
13501.183875 77.487 -8.4749
13599.019019 76.977 -13.0288
13697.563116 76.512 -16.9912
13796.821305 76.087 -20.4243
13896.798760 75.699 -23.3605
13997.500692 75.341 -25.8093
14098.932352 75.010 -27.7673
14201.099028 74.709 -29.2306
14304.006046 74.441 -30.2086
14407.658770 74.216 -30.7391
14512.062604 74.047 -30.8997
14617.222992 73.941 -30.8126
14723.145416 73.903 -30.6356
14829.835397 73.929 -30.5383
14937.298497 74.006 -30.6722
15045.540320 74.114 -31.1445
15154.566507 74.234 -32.0052
15264.382743 74.347 -33.2501
15374.994752 74.436 -34.8349
15486.408302 74.495 -36.6940
15598.629201 74.520 -38.7579
15711.663298 74.513 -40.9662
15825.516487 74.482 -43.2751
15940.194703 74.436 -45.6612
16055.703925 74.384 -48.1213
16172.050174 74.336 -50.6695
16289.239516 74.301 -53.3308
16407.278061 74.286 -56.1326
16526.171961 74.293 -59.0950
16645.927415 74.325 -62.2214
16766.550667 74.386 -65.4916
16888.048005 74.479 -68.8553
17010.425762 74.612 -72.2284
17133.690320 74.798 -75.4888
17257.848103 75.050 -78.4771
17382.905584 75.384 -81.0063
17508.869284 75.809 -82.8975
17635.745768 76.326 -84.0527
17763.541652 76.926 -84.5696
17892.263597 77.589 -84.8391
18021.918315 78.288 -85.5155
18152.512564 78.994 -87.3134
18284.053153 79.680 -90.7732
18416.546939 80.319 -96.1695
18550.000830 80.892 -103.5681
18684.421783 81.381 -112.9144
18819.816805 81.776 -124.0707
18956.192956 82.067 -136.7758
19093.557344 82.256 -150.5494
19231.917131 82.348 -164.6182
19371.279531 82.360 -177.9798
19511.651807 82.314 170.3660
19653.041280 82.240 161.1786
19795.455318 82.168 154.8992
19938.901348 82.125 151.7267
