* Measurement data measured by REW V5.31.3
* Source: EXCL: Headset (USB-C to 3.5mm Headphone Jack Adapter), MICROPHONE (Master Volume), 0, volume: 0.750
* Format: 256k Log Swept Sine, 1 sweep at -12.0 dBFS with no timing reference
* Dated: Apr 1, 2025 10:41:11 PM
* REW Settings:
*  C-weighting compensation: Off
*  Target level: 75.0 dB
* Note: ; 
* Measurement: K361 L3
* Smoothing: 1/6 octave
* Frequency Step: 96 ppo
* Start Frequency: 20.0 Hz
*
* Freq(Hz) SPL(dB) Phase(degrees)
20.187378 98.581 -143.2493
20.333664 98.598 -143.4268
20.481010 98.622 -143.6643
20.629424 98.650 -143.9540
20.778913 98.684 -144.2871
20.929486 98.723 -144.6548
21.081150 98.766 -145.0486
21.233912 98.814 -145.4608
21.387782 98.866 -145.8856
21.542767 98.922 -146.3185
21.698874 98.984 -146.7568
21.856113 99.049 -147.1995
22.014492 99.119 -147.6471
22.174018 99.191 -148.1008
22.334700 99.266 -148.5627
22.496546 99.342 -149.0345
22.659566 99.418 -149.5178
22.823766 99.493 -150.0133
22.989157 99.564 -150.5207
23.155745 99.631 -151.0383
23.323542 99.692 -151.5636
23.492554 99.747 -152.0929
23.662790 99.794 -152.6218
23.834261 99.833 -153.1453
24.006973 99.864 -153.6587
24.180938 99.887 -154.1573
24.356163 99.902 -154.6370
24.532658 99.909 -155.0948
24.710431 99.909 -155.5285
24.889493 99.902 -155.9373
25.069853 99.889 -156.3218
25.251519 99.870 -156.6835
25.434502 99.847 -157.0254
25.618811 99.819 -157.3510
25.804456 99.788 -157.6646
25.991445 99.753 -157.9710
26.179790 99.715 -158.2747
26.369500 99.676 -158.5805
26.560584 99.635 -158.8923
26.753053 99.594 -159.2138
26.946917 99.554 -159.5479
27.142185 99.514 -159.8969
27.338869 99.477 -160.2623
27.536977 99.444 -160.6449
27.736522 99.414 -161.0446
27.937512 99.388 -161.4604
28.139959 99.367 -161.8905
28.343872 99.350 -162.3321
28.549264 99.337 -162.7812
28.756143 99.327 -163.2331
28.964522 99.321 -163.6826
29.174411 99.316 -164.1243
29.385821 99.312 -164.5533
29.598763 99.310 -164.9658
29.813248 99.308 -165.3596
30.029287 99.307 -165.7346
30.246891 99.308 -166.0930
30.466073 99.310 -166.4395
30.686842 99.314 -166.7802
30.909212 99.321 -167.1227
31.133193 99.332 -167.4745
31.358797 99.346 -167.8424
31.586035 99.364 -168.2312
31.814921 99.385 -168.6433
32.045465 99.408 -169.0782
32.277680 99.434 -169.5326
32.511577 99.462 -170.0007
32.747169 99.491 -170.4754
32.984469 99.522 -170.9484
33.223488 99.553 -171.4120
33.464239 99.584 -171.8593
33.706735 99.615 -172.2849
33.950987 99.646 -172.6856
34.197010 99.678 -173.0600
34.444816 99.709 -173.4087
34.694417 99.741 -173.7340
34.945827 99.773 -174.0395
35.199059 99.805 -174.3296
35.454126 99.837 -174.6091
35.711041 99.869 -174.8829
35.969818 99.902 -175.1552
36.230470 99.934 -175.4295
36.493011 99.965 -175.7085
36.757455 99.994 -175.9936
37.023814 100.022 -176.2853
37.292104 100.046 -176.5836
37.562338 100.068 -176.8882
37.834530 100.085 -177.1988
38.108695 100.099 -177.5156
38.384846 100.109 -177.8387
38.662999 100.115 -178.1685
38.943167 100.118 -178.5048
39.225365 100.118 -178.8464
39.509608 100.116 -179.1912
39.795911 100.111 -179.5357
40.084289 100.106 -179.8758
40.374756 100.099 179.7931
40.667328 100.092 179.4751
40.962020 100.084 179.1736
41.258848 100.076 178.8907
41.557827 100.066 178.6271
41.858972 100.054 178.3824
42.162299 100.040 178.1555
42.467824 100.023 177.9445
42.775564 100.004 177.7471
43.085533 99.982 177.5611
43.397749 99.958 177.3844
43.712227 99.934 177.2155
44.028983 99.908 177.0536
44.348036 99.883 176.8991
44.669400 99.859 176.7533
44.993093 99.835 176.6183
45.319131 99.813 176.4966
45.647532 99.791 176.3900
45.978313 99.769 176.2990
46.311491 99.749 176.2227
46.647083 99.728 176.1582
46.985107 99.708 176.1017
47.325581 99.688 176.0486
47.668521 99.667 175.9948
48.013947 99.647 175.9372
48.361876 99.626 175.8741
48.712326 99.605 175.8055
49.065315 99.584 175.7322
49.420863 99.563 175.6561
49.778987 99.541 175.5787
50.139706 99.520 175.5014
50.503039 99.500 175.4250
50.869005 99.479 175.3502
51.237623 99.460 175.2775
51.608912 99.440 175.2073
51.982891 99.421 175.1407
52.359580 99.403 175.0782
52.739000 99.386 175.0198
53.121168 99.370 174.9641
53.506106 99.355 174.9083
53.893833 99.343 174.8485
54.284370 99.332 174.7803
54.677737 99.322 174.6997
55.073955 99.315 174.6044
55.473043 99.309 174.4935
55.875024 99.305 174.3680
56.279917 99.302 174.2296
56.687745 99.301 174.0801
57.098527 99.301 173.9208
57.512287 99.304 173.7523
57.929045 99.307 173.5743
58.348822 99.313 173.3863
58.771642 99.321 173.1882
59.197525 99.332 172.9803
59.626495 99.345 172.7635
60.058573 99.361 172.5387
60.493782 99.380 172.3072
60.932145 99.402 172.0701
61.373685 99.427 171.8288
61.818424 99.453 171.5847
62.266386 99.480 171.3388
62.717593 99.508 171.0921
63.172071 99.535 170.8448
63.629842 99.561 170.5968
64.090930 99.586 170.3476
64.555359 99.609 170.0964
65.023154 99.631 169.8426
65.494339 99.649 169.5860
65.968938 99.666 169.3268
66.446976 99.680 169.0658
66.928478 99.691 168.8041
67.413469 99.699 168.5434
67.901975 99.705 168.2849
68.394021 99.708 168.0301
68.889632 99.708 167.7803
69.388835 99.706 167.5371
69.891655 99.702 167.3019
70.398118 99.696 167.0765
70.908252 99.689 166.8626
71.422083 99.679 166.6617
71.939636 99.668 166.4751
72.460941 99.655 166.3035
72.986023 99.640 166.1464
73.514909 99.623 166.0026
74.047629 99.604 165.8703
74.584208 99.584 165.7472
75.124676 99.562 165.6310
75.669061 99.539 165.5203
76.217390 99.515 165.4139
76.769692 99.491 165.3114
77.325997 99.466 165.2129
77.886333 99.441 165.1187
78.450730 99.416 165.0296
79.019216 99.391 164.9460
79.591822 99.367 164.8680
80.168577 99.342 164.7955
80.749512 99.319 164.7277
81.334656 99.296 164.6635
81.924040 99.274 164.6018
82.517696 99.253 164.5416
83.115653 99.233 164.4819
83.717943 99.214 164.4219
84.324598 99.196 164.3610
84.935649 99.179 164.2985
85.551128 99.164 164.2338
86.171066 99.149 164.1666
86.795497 99.135 164.0963
87.424453 99.123 164.0224
88.057967 99.112 163.9437
88.696071 99.101 163.8592
89.338800 99.092 163.7674
89.986185 99.084 163.6671
90.638262 99.077 163.5575
91.295065 99.071 163.4379
91.956626 99.065 163.3083
92.622982 99.061 163.1689
93.294166 99.057 163.0201
93.970214 99.054 162.8621
94.651161 99.051 162.6948
95.337042 99.049 162.5172
96.027894 99.047 162.3278
96.723752 99.045 162.1244
97.424652 99.044 161.9050
98.130631 99.042 161.6683
98.841726 99.040 161.4136
99.557974 99.039 161.1414
100.279412 99.037 160.8525
101.006078 99.034 160.5485
101.738010 99.031 160.2310
102.475245 99.028 159.9017
103.217823 99.024 159.5620
103.965782 99.019 159.2136
104.719161 99.013 158.8574
105.477999 99.006 158.4945
106.242336 98.999 158.1259
107.012212 98.990 157.7524
107.787666 98.981 157.3747
108.568740 98.971 156.9933
109.355474 98.960 156.6085
110.147909 98.948 156.2204
110.946086 98.935 155.8292
111.750047 98.920 155.4351
112.559834 98.903 155.0382
113.375489 98.885 154.6387
114.197055 98.863 154.2369
115.024574 98.839 153.8334
115.858089 98.812 153.4291
116.697645 98.781 153.0254
117.543284 98.746 152.6242
118.395051 98.708 152.2276
119.252990 98.665 151.8379
120.117147 98.618 151.4579
120.987565 98.567 151.0904
121.864291 98.513 150.7385
122.747370 98.454 150.4055
123.636848 98.391 150.0948
124.532771 98.325 149.8098
125.435187 98.256 149.5537
126.344142 98.183 149.3294
127.259684 98.108 149.1393
128.181860 98.031 148.9851
129.110718 97.952 148.8682
130.046308 97.872 148.7890
130.988677 97.792 148.7473
131.937875 97.712 148.7421
132.893951 97.632 148.7716
133.856956 97.554 148.8335
134.826938 97.477 148.9248
135.803950 97.403 149.0420
136.788041 97.332 149.1812
137.779264 97.264 149.3384
138.777669 97.200 149.5090
139.783309 97.139 149.6890
140.796237 97.081 149.8743
141.816504 97.027 150.0613
142.844165 96.976 150.2469
143.879273 96.928 150.4285
144.921881 96.882 150.6036
145.972045 96.838 150.7705
147.029819 96.796 150.9275
148.095257 96.755 151.0737
149.168417 96.716 151.2084
150.249353 96.677 151.3318
151.338121 96.640 151.4440
152.434780 96.604 151.5457
153.539385 96.569 151.6376
154.651995 96.534 151.7207
155.772667 96.500 151.7958
156.901460 96.467 151.8637
158.038432 96.434 151.9255
159.183644 96.401 151.9819
160.337154 96.369 152.0339
161.499023 96.338 152.0820
162.669312 96.307 152.1269
163.848081 96.277 152.1691
165.035392 96.247 152.2088
166.231306 96.219 152.2463
167.435887 96.191 152.2813
168.649196 96.163 152.3134
169.871298 96.136 152.3418
171.102255 96.110 152.3661
172.342133 96.083 152.3860
173.590995 96.057 152.4011
174.848907 96.030 152.4111
176.115934 96.003 152.4162
177.392143 95.975 152.4160
178.677599 95.947 152.4109
179.972371 95.917 152.4009
181.276525 95.886 152.3866
182.590129 95.854 152.3686
183.913252 95.821 152.3478
185.245964 95.786 152.3251
186.588332 95.750 152.3016
187.940428 95.712 152.2784
189.302322 95.673 152.2565
190.674085 95.632 152.2369
192.055788 95.590 152.2207
193.447503 95.546 152.2085
194.849303 95.502 152.2008
196.261262 95.457 152.1978
197.683452 95.411 152.1995
199.115948 95.364 152.2057
200.558824 95.316 152.2166
202.012156 95.268 152.2325
203.476019 95.219 152.2540
204.950490 95.170 152.2823
206.435646 95.121 152.3185
207.931564 95.070 152.3640
209.438322 95.020 152.4203
210.955998 94.970 152.4887
212.484672 94.920 152.5702
214.024424 94.870 152.6659
215.575333 94.822 152.7764
217.137481 94.775 152.9017
218.710948 94.730 153.0415
220.295818 94.686 153.1946
221.892172 94.646 153.3594
223.500094 94.607 153.5339
225.119668 94.572 153.7159
226.750978 94.540 153.9030
228.394109 94.511 154.0928
230.049147 94.485 154.2831
231.716178 94.461 154.4722
233.395289 94.440 154.6588
235.086567 94.421 154.8419
236.790102 94.404 155.0215
238.505980 94.388 155.1978
240.234293 94.372 155.3712
241.975130 94.358 155.5423
243.728581 94.343 155.7113
245.494739 94.329 155.8783
247.273695 94.315 156.0434
249.065542 94.299 156.2069
250.870374 94.284 156.3693
252.688284 94.267 156.5314
254.519367 94.250 156.6946
256.363720 94.232 156.8607
258.221437 94.214 157.0317
260.092616 94.196 157.2101
261.977354 94.178 157.3983
263.875750 94.160 157.5981
265.787903 94.144 157.8115
267.713911 94.129 158.0391
269.653877 94.116 158.2814
271.607900 94.106 158.5377
273.576083 94.100 158.8062
275.558528 94.097 159.0838
277.555338 94.099 159.3660
279.566619 94.106 159.6470
281.592474 94.117 159.9207
283.633009 94.133 160.1802
285.688331 94.153 160.4195
287.758546 94.176 160.6336
289.843763 94.202 160.8189
291.944090 94.230 160.9739
294.059638 94.258 161.0988
296.190515 94.286 161.1956
298.336833 94.314 161.2677
300.498705 94.339 161.3195
302.676243 94.362 161.3557
304.869559 94.383 161.3811
307.078770 94.402 161.4004
309.303989 94.417 161.4174
311.545334 94.431 161.4355
313.802919 94.442 161.4575
316.076865 94.450 161.4854
318.367288 94.457 161.5206
320.674309 94.463 161.5638
322.998047 94.467 161.6152
325.338624 94.471 161.6744
327.696162 94.473 161.7406
330.070783 94.475 161.8128
332.462612 94.477 161.8898
334.871773 94.478 161.9706
337.298392 94.479 162.0542
339.742595 94.479 162.1396
342.204510 94.479 162.2263
344.684265 94.479 162.3137
347.181989 94.477 162.4017
349.697813 94.475 162.4902
352.231868 94.473 162.5792
354.784285 94.469 162.6692
357.355198 94.464 162.7605
359.944741 94.458 162.8537
362.553049 94.451 162.9495
365.180258 94.443 163.0485
367.826505 94.434 163.1511
370.491927 94.424 163.2577
373.176665 94.413 163.3682
375.880856 94.401 163.4825
378.604644 94.389 163.6005
381.348169 94.377 163.7216
384.111575 94.365 163.8454
386.895006 94.352 163.9713
389.698607 94.340 164.0986
392.522524 94.328 164.2269
395.366904 94.317 164.3555
398.231895 94.306 164.4842
401.117648 94.295 164.6127
404.024312 94.284 164.7407
406.952038 94.273 164.8682
409.900981 94.262 164.9950
412.871292 94.250 165.1210
415.863128 94.238 165.2461
418.876643 94.226 165.3701
421.911996 94.212 165.4929
424.969344 94.197 165.6146
428.048847 94.182 165.7352
431.150666 94.165 165.8549
434.274961 94.147 165.9737
437.421897 94.128 166.0919
440.591636 94.107 166.2095
443.784345 94.086 166.3267
447.000189 94.064 166.4434
450.239337 94.041 166.5599
453.501956 94.018 166.6760
456.788219 93.995 166.7918
460.098294 93.971 166.9074
463.432356 93.948 167.0228
466.790578 93.925 167.1381
470.173135 93.902 167.2532
473.580203 93.880 167.3683
477.011961 93.859 167.4834
480.468586 93.839 167.5984
483.950259 93.820 167.7134
487.457163 93.802 167.8282
490.989478 93.785 167.9428
494.547390 93.769 168.0568
498.131084 93.755 168.1700
501.740748 93.743 168.2822
505.376568 93.732 168.3928
509.038735 93.723 168.5017
512.727439 93.716 168.6086
516.442874 93.711 168.7133
520.185232 93.708 168.8157
523.954708 93.707 168.9158
527.751500 93.709 169.0137
531.575805 93.712 169.1094
535.427822 93.718 169.2030
539.307753 93.727 169.2946
543.215800 93.737 169.3842
547.152165 93.750 169.4718
551.117055 93.765 169.5573
555.110677 93.783 169.6404
559.133237 93.802 169.7209
563.184947 93.823 169.7985
567.266018 93.846 169.8728
571.376661 93.871 169.9435
575.517092 93.897 170.0103
579.687526 93.924 170.0730
583.888181 93.952 170.1312
588.119275 93.980 170.1848
592.381030 94.008 170.2338
596.673667 94.037 170.2782
600.997410 94.064 170.3181
605.352485 94.091 170.3537
609.739119 94.117 170.3852
614.157540 94.142 170.4131
618.607979 94.166 170.4377
623.090667 94.188 170.4595
627.605839 94.208 170.4789
632.153730 94.228 170.4960
636.734576 94.245 170.5113
641.348617 94.261 170.5247
645.996094 94.276 170.5362
650.677248 94.290 170.5458
655.392323 94.302 170.5531
660.141566 94.313 170.5579
664.925224 94.322 170.5599
669.743546 94.331 170.5590
674.596784 94.338 170.5549
679.485191 94.345 170.5475
684.409020 94.350 170.5367
689.368530 94.355 170.5223
694.363979 94.358 170.5045
699.395626 94.360 170.4832
704.463736 94.362 170.4583
709.568570 94.361 170.4299
714.710396 94.360 170.3981
719.889483 94.357 170.3630
725.106099 94.352 170.3248
730.360516 94.345 170.2835
735.653010 94.335 170.2393
740.983855 94.324 170.1923
746.353329 94.309 170.1425
751.761713 94.292 170.0899
757.209288 94.273 170.0343
762.696339 94.250 169.9756
768.223151 94.225 169.9138
773.790013 94.197 169.8483
779.397214 94.167 169.7791
785.045047 94.134 169.7059
790.733808 94.099 169.6286
796.463791 94.062 169.5469
802.235296 94.022 169.4609
808.048623 93.982 169.3706
813.904077 93.939 169.2766
819.801961 93.895 169.1794
825.742584 93.849 169.0805
831.726255 93.802 168.9816
837.753287 93.752 168.8853
843.823992 93.701 168.7950
849.938689 93.647 168.7147
856.097695 93.591 168.6495
862.301332 93.532 168.6051
868.549922 93.471 168.5883
874.843793 93.407 168.6060
881.183272 93.342 168.6655
887.568689 93.277 168.7733
894.000378 93.212 168.9348
900.478673 93.150 169.1533
907.003913 93.093 169.4288
913.576437 93.042 169.7578
920.196588 93.000 170.1322
926.864712 92.969 170.5400
933.581156 92.949 170.9658
940.346270 92.941 171.3925
947.160407 92.946 171.8033
954.023921 92.961 172.1833
960.937172 92.986 172.5215
967.900519 93.018 172.8111
974.914325 93.056 173.0499
981.978956 93.098 173.2399
989.094780 93.141 173.3862
996.262169 93.185 173.4960
1003.481495 93.229 173.5781
1010.753136 93.272 173.6411
1018.077470 93.314 173.6937
1025.454879 93.355 173.7433
1032.885748 93.395 173.7962
1040.370463 93.435 173.8571
1047.909417 93.476 173.9291
1055.503000 93.518 174.0136
1063.151610 93.562 174.1102
1070.855645 93.608 174.2175
1078.615506 93.656 174.3326
1086.431599 93.708 174.4519
1094.304330 93.763 174.5711
1102.234110 93.821 174.6858
1110.221353 93.882 174.7914
1118.266475 93.946 174.8838
1126.369895 94.012 174.9592
1134.532035 94.080 175.0144
1142.753322 94.149 175.0470
1151.034184 94.219 175.0553
1159.375052 94.289 175.0385
1167.776361 94.358 174.9967
1176.238550 94.426 174.9311
1184.762060 94.492 174.8435
1193.347334 94.556 174.7365
1201.994821 94.618 174.6133
1210.704971 94.676 174.4771
1219.478238 94.732 174.3312
1228.315080 94.785 174.1787
1237.215957 94.836 174.0227
1246.181334 94.884 173.8655
1255.211678 94.930 173.7092
1264.307459 94.974 173.5555
1273.469152 95.016 173.4056
1282.697235 95.057 173.2607
1291.992188 95.097 173.1213
1301.354495 95.136 172.9880
1310.784647 95.173 172.8612
1320.283132 95.210 172.7411
1329.850448 95.247 172.6278
1339.487093 95.283 172.5214
1349.193569 95.319 172.4217
1358.970381 95.355 172.3287
1368.818041 95.391 172.2421
1378.737061 95.427 172.1618
1388.727958 95.465 172.0875
1398.791253 95.503 172.0185
1408.927471 95.542 171.9545
1419.137140 95.583 171.8948
1429.420793 95.625 171.8387
1439.778965 95.669 171.7854
1450.212197 95.714 171.7341
1460.721033 95.762 171.6841
1471.306019 95.811 171.6351
1481.967709 95.861 171.5864
1492.706658 95.913 171.5381
1503.523426 95.965 171.4902
1514.418576 96.018 171.4427
1525.392678 96.070 171.3961
1536.446302 96.122 171.3502
1547.580025 96.174 171.3053
1558.794428 96.224 171.2610
1570.090095 96.272 171.2170
1581.467615 96.318 171.1727
1592.927581 96.362 171.1273
1604.470591 96.403 171.0801
1616.097246 96.441 171.0303
1627.808153 96.475 170.9774
1639.603922 96.506 170.9211
1651.485168 96.534 170.8612
1663.452510 96.557 170.7979
1675.506573 96.577 170.7317
1687.647984 96.593 170.6632
1699.877377 96.606 170.5934
1712.195390 96.615 170.5234
1724.602663 96.621 170.4543
1737.099845 96.625 170.3872
1749.687587 96.625 170.3232
1762.366544 96.624 170.2629
1775.137379 96.621 170.2067
1788.000756 96.616 170.1545
1800.957346 96.609 170.1056
1814.007826 96.601 170.0581
1827.152874 96.593 170.0099
1840.393177 96.582 169.9578
1853.729425 96.571 169.8988
1867.162312 96.557 169.8306
1880.692540 96.540 169.7518
1894.320813 96.519 169.6625
1908.047843 96.494 169.5641
1921.874344 96.464 169.4592
1935.801038 96.429 169.3516
1949.828650 96.388 169.2451
1963.957912 96.341 169.1440
1978.189561 96.289 169.0524
1992.524338 96.231 168.9738
2006.962991 96.169 168.9113
2021.506272 96.103 168.8669
2036.154940 96.033 168.8419
2050.909758 95.960 168.8369
2065.771495 95.886 168.8514
2080.740927 95.810 168.8843
2095.818833 95.734 168.9339
2111.006001 95.658 168.9981
2126.303220 95.582 169.0743
2141.711290 95.508 169.1602
2157.231013 95.435 169.2531
2172.863198 95.363 169.3506
2188.608660 95.293 169.4510
2204.468221 95.225 169.5526
2220.442706 95.159 169.6542
2236.532950 95.095 169.7552
2252.739789 95.033 169.8556
2269.064070 94.972 169.9554
2285.506644 94.912 170.0555
2302.068367 94.855 170.1568
2318.750104 94.799 170.2603
2335.552723 94.744 170.3674
2352.477101 94.692 170.4792
2369.524119 94.642 170.5970
2386.694668 94.595 170.7217
2403.989641 94.551 170.8536
2421.409941 94.511 170.9927
2438.956476 94.475 171.1385
2456.630160 94.444 171.2896
2474.431915 94.418 171.4438
2492.362668 94.398 171.5983
2510.423356 94.385 171.7498
2528.614918 94.378 171.8943
2546.938304 94.378 172.0278
2565.394469 94.384 172.1459
2583.984375 94.396 172.2448
2602.708991 94.414 172.3207
2621.569293 94.437 172.3705
2640.566265 94.465 172.3918
2659.700897 94.497 172.3829
2678.974186 94.531 172.3427
2698.387137 94.567 172.2711
2717.940763 94.604 172.1688
2737.636082 94.641 172.0371
2757.474121 94.677 171.8784
2777.455915 94.711 171.6956
2797.582506 94.742 171.4924
2817.854942 94.770 171.2730
2838.274281 94.794 171.0425
2858.841586 94.812 170.8063
2879.557931 94.825 170.5703
2900.424394 94.833 170.3408
2921.442065 94.834 170.1240
2942.612039 94.830 169.9264
2963.935418 94.819 169.7537
2985.413316 94.803 169.6109
3007.046852 94.782 169.5021
3028.837153 94.755 169.4298
3050.785356 94.723 169.3951
3072.892604 94.687 169.3983
3095.160050 94.645 169.4394
3117.588856 94.598 169.5196
3140.180190 94.545 169.6414
3162.935230 94.487 169.8085
3185.855163 94.423 170.0252
3208.941182 94.355 170.2946
3232.194493 94.283 170.6172
3255.616307 94.210 170.9898
3279.207844 94.135 171.4054
3302.970336 94.061 171.8533
3326.905021 93.988 172.3209
3351.013146 93.917 172.7945
3375.295969 93.847 173.2618
3399.754755 93.777 173.7126
3424.390779 93.706 174.1401
3449.205326 93.634 174.5411
3474.199690 93.558 174.9158
3499.375173 93.478 175.2685
3524.733088 93.393 175.6065
3550.274757 93.302 175.9404
3576.001511 93.204 176.2834
3601.914692 93.099 176.6508
3628.015651 92.989 177.0598
3654.305748 92.873 177.5288
3680.786354 92.754 178.0768
3707.458849 92.634 178.7228
3734.324624 92.516 179.4850
3761.385080 92.404 -179.6204
3788.641627 92.304 -178.5808
3816.095686 92.220 -177.3896
3843.748688 92.159 -176.0485
3871.602076 92.129 -174.5712
3899.657300 92.134 -172.9858
3927.915825 92.180 -171.3356
3956.379122 92.270 -169.6771
3985.048676 92.404 -168.0759
4013.925981 92.579 -166.5985
4043.012544 92.790 -165.3063
4072.309879 93.028 -164.2484
4101.819515 93.284 -163.4583
4131.542990 93.548 -162.9519
4161.481854 93.812 -162.7280
4191.637667 94.067 -162.7701
4222.012001 94.306 -163.0498
4252.606441 94.523 -163.5304
4283.422580 94.716 -164.1718
4314.462026 94.883 -164.9342
4345.726396 95.024 -165.7816
4377.217321 95.138 -166.6841
4408.936442 95.228 -167.6183
4440.885413 95.295 -168.5667
4473.065899 95.339 -169.5168
4505.479579 95.362 -170.4589
4538.128141 95.363 -171.3844
4571.013288 95.344 -172.2840
4604.136735 95.302 -173.1465
4637.500207 95.239 -173.9581
4671.105446 95.154 -174.7010
4704.954201 95.048 -175.3538
4739.048239 94.922 -175.8911
4773.389336 94.776 -176.2842
4807.979283 94.615 -176.5023
4842.819883 94.443 -176.5142
4877.912952 94.265 -176.2912
4913.260320 94.090 -175.8104
4948.863830 93.926 -175.0581
4984.725337 93.783 -174.0337
5020.846712 93.674 -172.7533
5057.229836 93.608 -171.2517
5093.876609 93.595 -169.5828
5130.788938 93.642 -167.8176
5167.968750 93.753 -166.0406
5205.417982 93.927 -164.3425
5243.138586 94.160 -162.8137
5281.132530 94.445 -161.5365
5319.401793 94.771 -160.5788
5357.948371 95.125 -159.9906
5396.774274 95.495 -159.8018
5435.881525 95.868 -160.0237
5475.272163 96.233 -160.6508
5514.948243 96.577 -161.6638
5554.911831 96.892 -163.0322
5595.165012 97.168 -164.7161
5635.709884 97.399 -166.6678
5676.548561 97.577 -168.8322
5717.683172 97.697 -171.1480
5759.115861 97.756 -173.5473
5800.848789 97.750 -175.9561
5842.884130 97.679 -178.2943
5885.224077 97.544 179.5231
5927.870837 97.348 177.5844
5970.826633 97.097 175.9778
6014.093704 96.799 174.7869
6057.674306 96.468 174.0833
6101.570711 96.117 173.9177
6145.785208 95.765 174.3085
6190.320101 95.431 175.2318
6235.177712 95.133 176.6152
6280.360380 94.886 178.3406
6325.870460 94.700 -179.7405
6371.710325 94.578 -177.7834
6417.882365 94.518 -175.9245
6464.388986 94.510 -174.2639
6511.232613 94.543 -172.8598
6558.415689 94.605 -171.7330
6605.940673 94.685 -170.8771
6653.810042 94.774 -170.2694
6702.026292 94.865 -169.8799
6750.591937 94.953 -169.6779
6799.509509 95.035 -169.6363
6848.781558 95.107 -169.7330
6898.410653 95.169 -169.9503
6948.399380 95.218 -170.2744
6998.750346 95.253 -170.6923
7049.466176 95.272 -171.1903
7100.549514 95.271 -171.7523
7152.003023 95.251 -172.3587
7203.829385 95.209 -172.9860
7256.031302 95.144 -173.6075
7308.611496 95.056 -174.1947
7361.572708 94.946 -174.7175
7414.917698 94.817 -175.1461
7468.649249 94.670 -175.4513
7522.770160 94.509 -175.6054
7577.283253 94.339 -175.5839
7632.191371 94.166 -175.3676
7687.497376 93.998 -174.9459
7743.204151 93.843 -174.3214
7799.314600 93.710 -173.5140
7855.831649 93.609 -172.5638
7912.758244 93.547 -171.5314
7970.097352 93.530 -170.4938
8027.851962 93.558 -169.5367
8086.025087 93.630 -168.7449
8144.619758 93.739 -168.1919
8203.639030 93.877 -167.9340
8263.085980 94.031 -168.0063
8322.963708 94.190 -168.4223
8383.275334 94.342 -169.1760
8444.024002 94.474 -170.2436
8505.212881 94.575 -171.5855
8566.845160 94.637 -173.1475
8628.924051 94.649 -174.8613
8691.452792 94.607 -176.6445
8754.434642 94.506 -178.4020
8817.872884 94.344 179.9728
8881.770826 94.123 178.5933
8946.131799 93.851 177.5711
9010.959157 93.540 177.0024
9076.256282 93.205 176.9489
9142.026576 92.870 177.4164
9208.273470 92.556 178.3394
9275.000415 92.286 179.5803
9342.210891 92.078 -179.0487
9409.908403 91.939 -177.7464
9478.096478 91.872 -176.6842
9546.778672 91.866 -175.9809
9615.958566 91.910 -175.6992
9685.639765 91.988 -175.8568
9755.825904 92.086 -176.4418
9826.520640 92.191 -177.4269
9897.727659 92.290 -178.7772
9969.450674 92.375 179.5448
10041.693423 92.437 177.5778
10114.459673 92.469 175.3613
10187.753217 92.467 172.9348
10261.577877 92.427 170.3369
10335.937500 92.346 167.6050
10410.835964 92.224 164.7733
10486.277173 92.060 161.8720
10562.265060 91.856 158.9271
10638.803587 91.613 155.9598
10715.896743 91.332 152.9874
10793.548548 91.015 150.0230
10871.763050 90.664 147.0773
10950.544327 90.280 144.1586
11029.896485 89.865 141.2742
11109.823662 89.422 138.4307
11190.330024 88.951 135.6329
11271.419768 88.459 132.8824
11353.097122 87.950 130.1725
11435.366344 87.433 127.4832
11518.231722 86.921 124.7760
11601.697577 86.428 121.9894
11685.768261 85.972 119.0387
11770.448155 85.569 115.8177
11855.741674 85.233 112.2042
11941.653265 84.972 108.0657
12028.187408 84.785 103.2653
12115.348612 84.661 97.6649
12203.141422 84.581 91.1262
12291.570415 84.520 83.5084
12380.640201 84.453 74.6653
12470.355424 84.355 64.4444
12560.720760 84.205 52.7004
12651.740920 83.988 39.3436
12743.420650 83.693 24.4533
12835.764729 83.315 8.4362
12928.777972 82.856 -7.9039
13022.465227 82.318 -23.5613
13116.831378 81.711 -37.7191
13211.881345 81.044 -49.9924
13307.620084 80.332 -60.3837
13404.052584 79.591 -69.1072
13501.183875 78.835 -76.4435
13599.019019 78.082 -82.6588
13697.563116 77.343 -87.9733
13796.821305 76.630 -92.5511
13896.798760 75.947 -96.5038
13997.500692 75.298 -99.8958
14098.932352 74.681 -102.7532
14201.099028 74.095 -105.0736
14304.006046 73.540 -106.8376
14407.658770 73.018 -108.0248
14512.062604 72.538 -108.6356
14617.222992 72.111 -108.7154
14723.145416 71.752 -108.3739
14829.835397 71.473 -107.7869
14937.298497 71.278 -107.1704
15045.540320 71.161 -106.7343
15154.566507 71.106 -106.6340
15264.382743 71.094 -106.9447
15374.994752 71.105 -107.6647
15486.408302 71.124 -108.7401
15598.629201 71.146 -110.0959
15711.663298 71.173 -111.6639
15825.516487 71.211 -113.3992
15940.194703 71.271 -115.2870
16055.703925 71.363 -117.3408
16172.050174 71.495 -119.5940
16289.239516 71.669 -122.0891
16407.278061 71.883 -124.8654
16526.171961 72.134 -127.9474
16645.927415 72.414 -131.3353
16766.550667 72.719 -134.9979
16888.048005 73.050 -138.8687
17010.425762 73.410 -142.8431
17133.690320 73.810 -146.7811
17257.848103 74.262 -150.5153
17382.905584 74.781 -153.8746
17508.869284 75.373 -156.7317
17635.745768 76.039 -159.0742
17763.541652 76.765 -161.0833
17892.263597 77.533 -163.1624
18021.918315 78.317 -165.8636
18152.512564 79.089 -169.7338
18284.053153 79.828 -175.1853
18416.546939 80.510 177.5330
18550.000830 81.120 168.2905
18684.421783 81.642 157.0308
18819.816805 82.067 143.7872
18956.192956 82.389 128.7917
19093.557344 82.609 112.6554
19231.917131 82.732 96.4475
19371.279531 82.774 81.4710
19511.651807 82.757 68.8235
19653.041280 82.708 59.1415
19795.455318 82.655 52.6650
19938.901348 82.621 49.4337
