* Measurement data measured by REW V5.31.3
* Source: EXCL: Headset (USB-C to 3.5mm Headphone Jack Adapter), MICROPHONE (Master Volume), 0, volume: 0.750
* Format: 256k Log Swept Sine, 1 sweep at -12.0 dBFS with no timing reference
* Dated: Apr 1, 2025 10:47:38 PM
* REW Settings:
*  C-weighting compensation: Off
*  Target level: 75.0 dB
* Note: ; 
* Measurement: K361 R16
* Smoothing: 1/6 octave
* Frequency Step: 96 ppo
* Start Frequency: 20.0 Hz
*
* Freq(Hz) SPL(dB) Phase(degrees)
20.187378 95.259 -138.6007
20.333664 95.293 -138.7414
20.481010 95.338 -138.9271
20.629424 95.393 -139.1487
20.778913 95.456 -139.3970
20.929486 95.525 -139.6634
21.081150 95.599 -139.9404
21.233912 95.676 -140.2220
21.387782 95.754 -140.5042
21.542767 95.831 -140.7842
21.698874 95.906 -141.0610
21.856113 95.978 -141.3351
22.014492 96.046 -141.6079
22.174018 96.110 -141.8820
22.334700 96.169 -142.1607
22.496546 96.224 -142.4478
22.659566 96.273 -142.7474
22.823766 96.319 -143.0636
22.989157 96.359 -143.3997
23.155745 96.396 -143.7583
23.323542 96.429 -144.1408
23.492554 96.458 -144.5467
23.662790 96.484 -144.9743
23.834261 96.507 -145.4197
24.006973 96.526 -145.8781
24.180938 96.543 -146.3436
24.356163 96.557 -146.8099
24.532658 96.568 -147.2710
24.710431 96.576 -147.7218
24.889493 96.582 -148.1589
25.069853 96.586 -148.5804
25.251519 96.588 -148.9865
25.434502 96.587 -149.3791
25.618811 96.584 -149.7615
25.804456 96.578 -150.1380
25.991445 96.568 -150.5132
26.179790 96.556 -150.8913
26.369500 96.540 -151.2761
26.560584 96.520 -151.6702
26.753053 96.498 -152.0754
26.946917 96.473 -152.4923
27.142185 96.447 -152.9210
27.338869 96.421 -153.3610
27.536977 96.395 -153.8115
27.736522 96.371 -154.2719
27.937512 96.350 -154.7412
28.139959 96.333 -155.2186
28.343872 96.319 -155.7026
28.549264 96.309 -156.1915
28.756143 96.302 -156.6828
28.964522 96.298 -157.1734
29.174411 96.297 -157.6598
29.385821 96.297 -158.1384
29.598763 96.298 -158.6059
29.813248 96.300 -159.0600
30.029287 96.303 -159.4995
30.246891 96.307 -159.9247
30.466073 96.312 -160.3372
30.686842 96.319 -160.7400
30.909212 96.328 -161.1367
31.133193 96.340 -161.5312
31.358797 96.354 -161.9271
31.586035 96.372 -162.3274
31.814921 96.393 -162.7343
32.045465 96.417 -163.1490
32.277680 96.445 -163.5718
32.511577 96.476 -164.0024
32.747169 96.511 -164.4400
32.984469 96.549 -164.8836
33.223488 96.589 -165.3319
33.464239 96.633 -165.7836
33.706735 96.678 -166.2375
33.950987 96.725 -166.6923
34.197010 96.773 -167.1471
34.444816 96.822 -167.6011
34.694417 96.871 -168.0540
34.945827 96.920 -168.5062
35.199059 96.969 -168.9582
35.454126 97.016 -169.4110
35.711041 97.063 -169.8654
35.969818 97.107 -170.3221
36.230470 97.150 -170.7813
36.493011 97.190 -171.2423
36.757455 97.228 -171.7040
37.023814 97.262 -172.1644
37.292104 97.293 -172.6215
37.562338 97.322 -173.0731
37.834530 97.347 -173.5174
38.108695 97.369 -173.9531
38.384846 97.388 -174.3797
38.662999 97.404 -174.7970
38.943167 97.418 -175.2060
39.225365 97.430 -175.6080
39.509608 97.439 -176.0048
39.795911 97.447 -176.3982
40.084289 97.452 -176.7904
40.374756 97.456 -177.1830
40.667328 97.458 -177.5772
40.962020 97.457 -177.9737
41.258848 97.454 -178.3722
41.557827 97.449 -178.7721
41.858972 97.442 -179.1723
42.162299 97.432 -179.5712
42.467824 97.418 -179.9673
42.775564 97.403 179.6412
43.085533 97.384 179.2562
43.397749 97.362 178.8795
43.712227 97.338 178.5132
44.028983 97.310 178.1593
44.348036 97.281 177.8201
44.669400 97.249 177.4976
44.993093 97.215 177.1935
45.319131 97.179 176.9091
45.647532 97.142 176.6449
45.978313 97.104 176.4006
46.311491 97.065 176.1754
46.647083 97.025 175.9673
46.985107 96.985 175.7738
47.325581 96.945 175.5917
47.668521 96.904 175.4178
48.013947 96.864 175.2493
48.361876 96.822 175.0840
48.712326 96.780 174.9212
49.065315 96.738 174.7611
49.420863 96.694 174.6050
49.778987 96.649 174.4548
50.139706 96.603 174.3119
50.503039 96.555 174.1774
50.869005 96.507 174.0519
51.237623 96.457 173.9352
51.608912 96.407 173.8271
51.982891 96.356 173.7277
52.359580 96.305 173.6373
52.739000 96.253 173.5565
53.121168 96.202 173.4861
53.506106 96.152 173.4269
53.893833 96.104 173.3795
54.284370 96.058 173.3438
54.677737 96.014 173.3195
55.073955 95.974 173.3062
55.473043 95.936 173.3027
55.875024 95.902 173.3080
56.279917 95.872 173.3205
56.687745 95.847 173.3386
57.098527 95.826 173.3601
57.512287 95.809 173.3827
57.929045 95.797 173.4038
58.348822 95.788 173.4204
58.771642 95.782 173.4295
59.197525 95.780 173.4283
59.626495 95.779 173.4144
60.058573 95.780 173.3862
60.493782 95.784 173.3431
60.932145 95.790 173.2857
61.373685 95.798 173.2150
61.818424 95.811 173.1326
62.266386 95.827 173.0401
62.717593 95.847 172.9395
63.172071 95.871 172.8324
63.629842 95.898 172.7205
64.090930 95.928 172.6052
64.555359 95.961 172.4874
65.023154 95.996 172.3680
65.494339 96.032 172.2473
65.968938 96.069 172.1253
66.446976 96.106 172.0021
66.928478 96.143 171.8772
67.413469 96.180 171.7502
67.901975 96.216 171.6205
68.394021 96.251 171.4876
68.889632 96.284 171.3510
69.388835 96.317 171.2104
69.891655 96.348 171.0662
70.398118 96.377 170.9183
70.908252 96.405 170.7673
71.422083 96.430 170.6133
71.939636 96.453 170.4563
72.460941 96.473 170.2962
72.986023 96.490 170.1327
73.514909 96.504 169.9655
74.047629 96.515 169.7945
74.584208 96.523 169.6198
75.124676 96.528 169.4414
75.669061 96.530 169.2596
76.217390 96.529 169.0745
76.769692 96.526 168.8867
77.325997 96.521 168.6965
77.886333 96.514 168.5049
78.450730 96.505 168.3124
79.019216 96.495 168.1199
79.591822 96.483 167.9277
80.168577 96.471 167.7364
80.749512 96.458 167.5463
81.334656 96.444 167.3578
81.924040 96.430 167.1716
82.517696 96.415 166.9886
83.115653 96.400 166.8094
83.717943 96.385 166.6349
84.324598 96.370 166.4655
84.935649 96.356 166.3014
85.551128 96.342 166.1424
86.171066 96.328 165.9883
86.795497 96.315 165.8383
87.424453 96.302 165.6917
88.057967 96.289 165.5474
88.696071 96.276 165.4045
89.338800 96.263 165.2618
89.986185 96.250 165.1178
90.638262 96.237 164.9714
91.295065 96.224 164.8215
91.956626 96.210 164.6671
92.622982 96.197 164.5073
93.294166 96.184 164.3418
93.970214 96.170 164.1700
94.651161 96.157 163.9920
95.337042 96.144 163.8077
96.027894 96.132 163.6172
96.723752 96.119 163.4210
97.424652 96.107 163.2194
98.130631 96.095 163.0131
98.841726 96.083 162.8028
99.557974 96.071 162.5889
100.279412 96.060 162.3721
101.006078 96.048 162.1526
101.738010 96.036 161.9311
102.475245 96.025 161.7080
103.217823 96.013 161.4839
103.965782 96.002 161.2590
104.719161 95.992 161.0339
105.477999 95.981 160.8088
106.242336 95.971 160.5836
107.012212 95.962 160.3585
107.787666 95.953 160.1336
108.568740 95.945 159.9090
109.355474 95.937 159.6850
110.147909 95.929 159.4620
110.946086 95.921 159.2405
111.750047 95.913 159.0210
112.559834 95.904 158.8041
113.375489 95.895 158.5907
114.197055 95.885 158.3814
115.024574 95.875 158.1769
115.858089 95.864 157.9777
116.697645 95.852 157.7842
117.543284 95.839 157.5966
118.395051 95.826 157.4149
119.252990 95.811 157.2388
120.117147 95.795 157.0679
120.987565 95.778 156.9023
121.864291 95.760 156.7417
122.747370 95.741 156.5865
123.636848 95.721 156.4371
124.532771 95.701 156.2941
125.435187 95.679 156.1580
126.344142 95.656 156.0295
127.259684 95.633 155.9090
128.181860 95.609 155.7965
129.110718 95.584 155.6919
130.046308 95.559 155.5946
130.988677 95.533 155.5040
131.937875 95.507 155.4189
132.893951 95.480 155.3383
133.856956 95.453 155.2609
134.826938 95.425 155.1854
135.803950 95.397 155.1110
136.788041 95.369 155.0368
137.779264 95.340 154.9623
138.777669 95.310 154.8874
139.783309 95.280 154.8119
140.796237 95.250 154.7359
141.816504 95.218 154.6595
142.844165 95.186 154.5829
143.879273 95.152 154.5063
144.921881 95.117 154.4300
145.972045 95.081 154.3547
147.029819 95.044 154.2811
148.095257 95.006 154.2104
149.168417 94.966 154.1440
150.249353 94.925 154.0836
151.338121 94.883 154.0305
152.434780 94.840 153.9863
153.539385 94.796 153.9525
154.651995 94.751 153.9302
155.772667 94.706 153.9209
156.901460 94.661 153.9256
158.038432 94.615 153.9454
159.183644 94.570 153.9811
160.337154 94.526 154.0336
161.499023 94.483 154.1032
162.669312 94.442 154.1899
163.848081 94.402 154.2933
165.035392 94.364 154.4125
166.231306 94.329 154.5459
167.435887 94.297 154.6913
168.649196 94.268 154.8462
169.871298 94.242 155.0073
171.102255 94.220 155.1711
172.342133 94.202 155.3340
173.590995 94.187 155.4927
174.848907 94.176 155.6436
176.115934 94.168 155.7841
177.392143 94.163 155.9120
178.677599 94.160 156.0257
179.972371 94.158 156.1241
181.276525 94.158 156.2066
182.590129 94.158 156.2724
183.913252 94.159 156.3212
185.245964 94.160 156.3530
186.588332 94.161 156.3678
187.940428 94.161 156.3662
189.302322 94.160 156.3491
190.674085 94.158 156.3180
192.055788 94.156 156.2745
193.447503 94.152 156.2206
194.849303 94.147 156.1584
196.261262 94.140 156.0899
197.683452 94.133 156.0167
199.115948 94.125 155.9403
200.558824 94.115 155.8616
202.012156 94.105 155.7815
203.476019 94.095 155.7004
204.950490 94.084 155.6188
206.435646 94.072 155.5368
207.931564 94.059 155.4544
209.438322 94.046 155.3716
210.955998 94.032 155.2884
212.484672 94.018 155.2050
214.024424 94.003 155.1219
215.575333 93.988 155.0398
217.137481 93.972 154.9594
218.710948 93.956 154.8813
220.295818 93.940 154.8062
221.892172 93.924 154.7347
223.500094 93.908 154.6671
225.119668 93.892 154.6037
226.750978 93.877 154.5453
228.394109 93.862 154.4925
230.049147 93.847 154.4457
231.716178 93.834 154.4056
233.395289 93.821 154.3725
235.086567 93.809 154.3465
236.790102 93.798 154.3277
238.505980 93.789 154.3159
240.234293 93.781 154.3109
241.975130 93.774 154.3120
243.728581 93.769 154.3187
245.494739 93.765 154.3298
247.273695 93.762 154.3444
249.065542 93.760 154.3617
250.870374 93.760 154.3809
252.688284 93.760 154.4013
254.519367 93.762 154.4227
256.363720 93.764 154.4450
258.221437 93.767 154.4686
260.092616 93.770 154.4942
261.977354 93.774 154.5226
263.875750 93.779 154.5545
265.787903 93.785 154.5900
267.713911 93.791 154.6289
269.653877 93.799 154.6700
271.607900 93.808 154.7120
273.576083 93.818 154.7532
275.558528 93.830 154.7921
277.555338 93.844 154.8271
279.566619 93.858 154.8568
281.592474 93.875 154.8800
283.633009 93.892 154.8962
285.688331 93.910 154.9049
287.758546 93.929 154.9061
289.843763 93.949 154.9000
291.944090 93.969 154.8869
294.059638 93.989 154.8675
296.190515 94.010 154.8427
298.336833 94.030 154.8136
300.498705 94.051 154.7813
302.676243 94.072 154.7471
304.869559 94.093 154.7121
307.078770 94.114 154.6772
309.303989 94.135 154.6431
311.545334 94.157 154.6102
313.802919 94.179 154.5785
316.076865 94.201 154.5478
318.367288 94.223 154.5178
320.674309 94.245 154.4881
322.998047 94.267 154.4581
325.338624 94.289 154.4272
327.696162 94.311 154.3951
330.070783 94.333 154.3615
332.462612 94.354 154.3262
334.871773 94.374 154.2891
337.298392 94.394 154.2502
339.742595 94.412 154.2099
342.204510 94.430 154.1682
344.684265 94.447 154.1250
347.181989 94.463 154.0804
349.697813 94.478 154.0340
352.231868 94.492 153.9857
354.784285 94.505 153.9352
357.355198 94.517 153.8823
359.944741 94.528 153.8269
362.553049 94.538 153.7690
365.180258 94.547 153.7086
367.826505 94.555 153.6457
370.491927 94.563 153.5803
373.176665 94.569 153.5126
375.880856 94.576 153.4423
378.604644 94.581 153.3696
381.348169 94.587 153.2943
384.111575 94.592 153.2164
386.895006 94.596 153.1357
389.698607 94.600 153.0524
392.522524 94.604 152.9666
395.366904 94.607 152.8784
398.231895 94.609 152.7883
401.117648 94.610 152.6966
404.024312 94.611 152.6037
406.952038 94.611 152.5099
409.900981 94.609 152.4158
412.871292 94.606 152.3214
415.863128 94.602 152.2269
418.876643 94.596 152.1325
421.911996 94.589 152.0383
424.969344 94.579 151.9444
428.048847 94.568 151.8508
431.150666 94.556 151.7576
434.274961 94.541 151.6648
437.421897 94.525 151.5724
440.591636 94.508 151.4806
443.784345 94.489 151.3893
447.000189 94.469 151.2986
450.239337 94.448 151.2086
453.501956 94.426 151.1193
456.788219 94.403 151.0307
460.098294 94.380 150.9431
463.432356 94.357 150.8565
466.790578 94.333 150.7713
470.173135 94.310 150.6876
473.580203 94.287 150.6056
477.011961 94.265 150.5254
480.468586 94.243 150.4468
483.950259 94.222 150.3699
487.457163 94.202 150.2944
490.989478 94.183 150.2202
494.547390 94.165 150.1471
498.131084 94.149 150.0750
501.740748 94.133 150.0039
505.376568 94.119 149.9337
509.038735 94.107 149.8645
512.727439 94.096 149.7964
516.442874 94.087 149.7296
520.185232 94.079 149.6639
523.954708 94.074 149.5995
527.751500 94.070 149.5363
531.575805 94.069 149.4738
535.427822 94.070 149.4119
539.307753 94.073 149.3502
543.215800 94.079 149.2883
547.152165 94.086 149.2260
551.117055 94.097 149.1634
555.110677 94.109 149.1003
559.133237 94.123 149.0367
563.184947 94.139 148.9729
567.266018 94.156 148.9090
571.376661 94.175 148.8450
575.517092 94.195 148.7813
579.687526 94.216 148.7179
583.888181 94.237 148.6549
588.119275 94.258 148.5924
592.381030 94.280 148.5304
596.673667 94.301 148.4690
600.997410 94.322 148.4081
605.352485 94.343 148.3478
609.739119 94.362 148.2883
614.157540 94.381 148.2297
618.607979 94.398 148.1722
623.090667 94.414 148.1161
627.605839 94.429 148.0621
632.153730 94.443 148.0104
636.734576 94.456 147.9617
641.348617 94.467 147.9165
645.996094 94.478 147.8751
650.677248 94.487 147.8378
655.392323 94.496 147.8047
660.141566 94.504 147.7758
664.925224 94.513 147.7505
669.743546 94.521 147.7280
674.596784 94.530 147.7073
679.485191 94.539 147.6870
684.409020 94.549 147.6656
689.368530 94.559 147.6414
694.363979 94.570 147.6128
699.395626 94.581 147.5781
704.463736 94.593 147.5358
709.568570 94.605 147.4848
714.710396 94.617 147.4240
719.889483 94.629 147.3527
725.106099 94.640 147.2703
730.360516 94.650 147.1767
735.653010 94.659 147.0716
740.983855 94.667 146.9550
746.353329 94.674 146.8273
751.761713 94.679 146.6884
757.209288 94.683 146.5390
762.696339 94.685 146.3794
768.223151 94.685 146.2100
773.790013 94.684 146.0315
779.397214 94.681 145.8441
785.045047 94.676 145.6485
790.733808 94.671 145.4451
796.463791 94.664 145.2343
802.235296 94.656 145.0166
808.048623 94.647 144.7925
813.904077 94.637 144.5625
819.801961 94.626 144.3271
825.742584 94.615 144.0867
831.726255 94.604 143.8419
837.753287 94.592 143.5931
843.823992 94.580 143.3407
849.938689 94.568 143.0852
856.097695 94.556 142.8269
862.301332 94.543 142.5662
868.549922 94.531 142.3032
874.843793 94.518 142.0383
881.183272 94.505 141.7715
887.568689 94.492 141.5029
894.000378 94.479 141.2325
900.478673 94.467 140.9602
907.003913 94.454 140.6857
913.576437 94.442 140.4088
920.196588 94.430 140.1293
926.864712 94.418 139.8468
933.581156 94.406 139.5610
940.346270 94.395 139.2718
947.160407 94.384 138.9789
954.023921 94.373 138.6821
960.937172 94.362 138.3815
967.900519 94.351 138.0775
974.914325 94.339 137.7706
981.978956 94.326 137.4622
989.094780 94.313 137.1537
996.262169 94.298 136.8478
1003.481495 94.280 136.5474
1010.753136 94.261 136.2567
1018.077470 94.238 135.9807
1025.454879 94.213 135.7255
1032.885748 94.184 135.4989
1040.370463 94.152 135.3098
1047.909417 94.117 135.1683
1055.503000 94.080 135.0859
1063.151610 94.042 135.0745
1070.855645 94.004 135.1456
1078.615506 93.970 135.3091
1086.431599 93.941 135.5717
1094.304330 93.921 135.9343
1102.234110 93.915 136.3905
1110.221353 93.925 136.9251
1118.266475 93.954 137.5138
1126.369895 94.004 138.1250
1134.532035 94.075 138.7229
1142.753322 94.165 139.2717
1151.034184 94.271 139.7404
1159.375052 94.390 140.1060
1167.776361 94.517 140.3556
1176.238550 94.647 140.4856
1184.762060 94.778 140.5006
1193.347334 94.905 140.4110
1201.994821 95.027 140.2309
1210.704971 95.142 139.9756
1219.478238 95.249 139.6604
1228.315080 95.349 139.2997
1237.215957 95.441 138.9060
1246.181334 95.525 138.4899
1255.211678 95.603 138.0601
1264.307459 95.675 137.6235
1273.469152 95.741 137.1852
1282.697235 95.803 136.7493
1291.992188 95.860 136.3184
1301.354495 95.914 135.8942
1310.784647 95.964 135.4779
1320.283132 96.012 135.0701
1329.850448 96.057 134.6711
1339.487093 96.101 134.2807
1349.193569 96.142 133.8987
1358.970381 96.183 133.5250
1368.818041 96.222 133.1590
1378.737061 96.260 132.8004
1388.727958 96.299 132.4487
1398.791253 96.337 132.1035
1408.927471 96.375 131.7643
1419.137140 96.414 131.4306
1429.420793 96.454 131.1018
1439.778965 96.494 130.7774
1450.212197 96.536 130.4568
1460.721033 96.578 130.1395
1471.306019 96.622 129.8248
1481.967709 96.666 129.5123
1492.706658 96.711 129.2014
1503.523426 96.755 128.8915
1514.418576 96.800 128.5820
1525.392678 96.844 128.2724
1536.446302 96.887 127.9620
1547.580025 96.928 127.6501
1558.794428 96.966 127.3364
1570.090095 97.001 127.0202
1581.467615 97.033 126.7014
1592.927581 97.061 126.3799
1604.470591 97.084 126.0561
1616.097246 97.102 125.7308
1627.808153 97.115 125.4053
1639.603922 97.122 125.0814
1651.485168 97.123 124.7614
1663.452510 97.118 124.4481
1675.506573 97.107 124.1444
1687.647984 97.090 123.8536
1699.877377 97.068 123.5789
1712.195390 97.042 123.3232
1724.602663 97.011 123.0890
1737.099845 96.976 122.8780
1749.687587 96.939 122.6911
1762.366544 96.900 122.5281
1775.137379 96.860 122.3877
1788.000756 96.820 122.2671
1800.957346 96.780 122.1624
1814.007826 96.741 122.0688
1827.152874 96.702 121.9805
1840.393177 96.664 121.8917
1853.729425 96.626 121.7976
1867.162312 96.587 121.6947
1880.692540 96.547 121.5813
1894.320813 96.504 121.4577
1908.047843 96.457 121.3256
1921.874344 96.406 121.1876
1935.801038 96.350 121.0472
1949.828650 96.290 120.9078
1963.957912 96.224 120.7728
1978.189561 96.154 120.6449
1992.524338 96.078 120.5265
2006.962991 95.999 120.4195
2021.506272 95.914 120.3251
2036.154940 95.826 120.2442
2050.909758 95.735 120.1772
2065.771495 95.641 120.1247
2080.740927 95.544 120.0867
2095.818833 95.444 120.0635
2111.006001 95.343 120.0554
2126.303220 95.240 120.0627
2141.711290 95.136 120.0861
2157.231013 95.031 120.1261
2172.863198 94.925 120.1838
2188.608660 94.819 120.2603
2204.468221 94.712 120.3569
2220.442706 94.606 120.4749
2236.532950 94.501 120.6158
2252.739789 94.397 120.7812
2269.064070 94.293 120.9725
2285.506644 94.192 121.1912
2302.068367 94.093 121.4384
2318.750104 93.997 121.7151
2335.552723 93.905 122.0220
2352.477101 93.817 122.3589
2369.524119 93.734 122.7252
2386.694668 93.658 123.1193
2403.989641 93.590 123.5384
2421.409941 93.529 123.9785
2438.956476 93.479 124.4342
2456.630160 93.438 124.8987
2474.431915 93.409 125.3638
2492.362668 93.391 125.8203
2510.423356 93.385 126.2586
2528.614918 93.389 126.6688
2546.938304 93.405 127.0420
2565.394469 93.429 127.3703
2583.984375 93.462 127.6480
2602.708991 93.501 127.8713
2621.569293 93.545 128.0389
2640.566265 93.593 128.1516
2659.700897 93.642 128.2120
2678.974186 93.693 128.2242
2698.387137 93.742 128.1934
2717.940763 93.791 128.1250
2737.636082 93.837 128.0245
2757.474121 93.882 127.8971
2777.455915 93.923 127.7476
2797.582506 93.961 127.5799
2817.854942 93.996 127.3974
2838.274281 94.028 127.2029
2858.841586 94.055 126.9984
2879.557931 94.079 126.7856
2900.424394 94.097 126.5661
2921.442065 94.110 126.3414
2942.612039 94.116 126.1136
2963.935418 94.115 125.8853
2985.413316 94.106 125.6605
3007.046852 94.088 125.4442
3028.837153 94.059 125.2432
3050.785356 94.020 125.0657
3072.892604 93.970 124.9214
3095.160050 93.908 124.8209
3117.588856 93.834 124.7747
3140.180190 93.749 124.7935
3162.935230 93.654 124.8859
3185.855163 93.551 125.0589
3208.941182 93.440 125.3158
3232.194493 93.324 125.6562
3255.616307 93.205 126.0754
3279.207844 93.083 126.5649
3302.970336 92.961 127.1130
3326.905021 92.839 127.7066
3351.013146 92.717 128.3331
3375.295969 92.595 128.9815
3399.754755 92.472 129.6442
3424.390779 92.347 130.3170
3449.205326 92.220 130.9999
3474.199690 92.089 131.6968
3499.375173 91.955 132.4158
3524.733088 91.815 133.1679
3550.274757 91.672 133.9677
3576.001511 91.524 134.8320
3601.914692 91.374 135.7797
3628.015651 91.223 136.8313
3654.305748 91.075 138.0073
3680.786354 90.933 139.3272
3707.458849 90.802 140.8077
3734.324624 90.688 142.4596
3761.385080 90.598 144.2843
3788.641627 90.540 146.2706
3816.095686 90.521 148.3906
3843.748688 90.547 150.5972
3871.602076 90.622 152.8253
3899.657300 90.748 154.9958
3927.915825 90.921 157.0234
3956.379122 91.137 158.8276
3985.048676 91.386 160.3423
4013.925981 91.656 161.5238
4043.012544 91.937 162.3531
4072.309879 92.216 162.8360
4101.819515 92.483 162.9982
4131.542990 92.731 162.8801
4161.481854 92.954 162.5306
4191.637667 93.146 162.0022
4222.012001 93.307 161.3464
4252.606441 93.435 160.6111
4283.422580 93.532 159.8388
4314.462026 93.599 159.0660
4345.726396 93.637 158.3223
4377.217321 93.649 157.6317
4408.936442 93.638 157.0122
4440.885413 93.605 156.4777
4473.065899 93.554 156.0380
4505.479579 93.485 155.7002
4538.128141 93.403 155.4692
4571.013288 93.307 155.3489
4604.136735 93.200 155.3431
4637.500207 93.083 155.4566
4671.105446 92.958 155.6959
4704.954201 92.827 156.0700
4739.048239 92.691 156.5903
4773.389336 92.554 157.2695
4807.979283 92.420 158.1200
4842.819883 92.293 159.1511
4877.912952 92.179 160.3665
4913.260320 92.084 161.7610
4948.863830 92.015 163.3185
4984.725337 91.978 165.0099
5020.846712 91.980 166.7932
5057.229836 92.023 168.6151
5093.876609 92.110 170.4150
5130.788938 92.240 172.1299
5167.968750 92.410 173.7007
5205.417982 92.616 175.0783
5243.138586 92.851 176.2267
5281.132530 93.109 177.1254
5319.401793 93.383 177.7675
5357.948371 93.667 178.1562
5396.774274 93.959 178.3000
5435.881525 94.253 178.2068
5475.272163 94.546 177.8807
5514.948243 94.836 177.3198
5554.911831 95.118 176.5179
5595.165012 95.385 175.4673
5635.709884 95.631 174.1641
5676.548561 95.849 172.6121
5717.683172 96.030 170.8262
5759.115861 96.167 168.8333
5800.848789 96.253 166.6716
5842.884130 96.283 164.3898
5885.224077 96.251 162.0445
5927.870837 96.156 159.6988
5970.826633 95.996 157.4192
6014.093704 95.772 155.2745
6057.674306 95.486 153.3346
6101.570711 95.140 151.6698
6145.785208 94.739 150.3514
6190.320101 94.289 149.4516
6235.177712 93.797 149.0436
6280.360380 93.272 149.1989
6325.870460 92.723 149.9818
6371.710325 92.164 151.4388
6417.882365 91.609 153.5852
6464.388986 91.074 156.3909
6511.232613 90.575 159.7728
6558.415689 90.124 163.6023
6605.940673 89.732 167.7285
6653.810042 89.404 172.0110
6702.026292 89.141 176.3483
6750.591937 88.942 -179.3123
6799.509509 88.807 -174.9849
6848.781558 88.735 -170.6697
6898.410653 88.726 -166.3822
6948.399380 88.782 -162.1753
6998.750346 88.902 -158.1455
7049.466176 89.079 -154.4187
7100.549514 89.306 -151.1209
7152.003023 89.567 -148.3473
7203.829385 89.849 -146.1433
7256.031302 90.136 -144.5023
7308.611496 90.414 -143.3778
7361.572708 90.673 -142.6986
7414.917698 90.906 -142.3848
7468.649249 91.108 -142.3577
7522.770160 91.279 -142.5475
7577.283253 91.418 -142.8957
7632.191371 91.529 -143.3573
7687.497376 91.614 -143.9009
7743.204151 91.677 -144.5085
7799.314600 91.721 -145.1744
7855.831649 91.750 -145.9042
7912.758244 91.765 -146.7118
7970.097352 91.768 -147.6171
8027.851962 91.758 -148.6419
8086.025087 91.733 -149.8070
8144.619758 91.689 -151.1287
8203.639030 91.623 -152.6159
8263.085980 91.528 -154.2677
8322.963708 91.398 -156.0715
8383.275334 91.229 -158.0009
8444.024002 91.014 -160.0132
8505.212881 90.749 -162.0455
8566.845160 90.433 -164.0083
8628.924051 90.064 -165.7740
8691.452792 89.647 -167.1554
8754.434642 89.191 -167.8652
8817.872884 88.710 -167.4385
8881.770826 88.226 -165.0828
8946.131799 87.770 -159.4228
9010.959157 87.376 -148.3468
9076.256282 87.079 -130.4941
9142.026576 86.904 -110.0146
9208.273470 86.860 -94.4356
9275.000415 86.935 -85.4839
9342.210891 87.104 -81.1371
9409.908403 87.332 -79.5309
9478.096478 87.587 -79.5465
9546.778672 87.843 -80.5505
9615.958566 88.080 -82.1752
9685.639765 88.284 -84.1974
9755.825904 88.445 -86.4752
9826.520640 88.560 -88.9140
9897.727659 88.625 -91.4479
9969.450674 88.639 -94.0294
10041.693423 88.604 -96.6230
10114.459673 88.521 -99.2028
10187.753217 88.391 -101.7506
10261.577877 88.219 -104.2552
10335.937500 88.007 -106.7120
10410.835964 87.758 -109.1217
10486.277173 87.474 -111.4887
10562.265060 87.156 -113.8192
10638.803587 86.805 -116.1194
10715.896743 86.422 -118.3936
10793.548548 86.006 -120.6434
10871.763050 85.556 -122.8680
10950.544327 85.074 -125.0655
11029.896485 84.558 -127.2352
11109.823662 84.010 -129.3782
11190.330024 83.430 -131.4982
11271.419768 82.819 -133.5981
11353.097122 82.176 -135.6753
11435.366344 81.501 -137.7160
11518.231722 80.789 -139.6907
11601.697577 80.040 -141.5540
11685.768261 79.251 -143.2489
11770.448155 78.422 -144.7153
11855.741674 77.555 -145.9025
11941.653265 76.655 -146.7807
12028.187408 75.730 -147.3513
12115.348612 74.789 -147.6509
12203.141422 73.846 -147.7475
12291.570415 72.919 -147.7290
12380.640201 72.027 -147.6877
12470.355424 71.198 -147.7035
12560.720760 70.464 -147.8316
12651.740920 69.858 -148.0988
12743.420650 69.414 -148.5083
12835.764729 69.157 -149.0522
12928.777972 69.096 -149.7246
13022.465227 69.221 -150.5310
13116.831378 69.503 -151.4888
13211.881345 69.904 -152.6210
13307.620084 70.382 -153.9469
13404.052584 70.901 -155.4734
13501.183875 71.430 -157.1914
13599.019019 71.946 -159.0750
13697.563116 72.434 -161.0850
13796.821305 72.882 -163.1720
13896.798760 73.284 -165.2802
13997.500692 73.636 -167.3487
14098.932352 73.937 -169.3114
14201.099028 74.192 -171.0977
14304.006046 74.406 -172.6331
14407.658770 74.589 -173.8426
14512.062604 74.754 -174.6568
14617.222992 74.921 -175.0237
14723.145416 75.108 -174.9253
14829.835397 75.335 -174.3967
14937.298497 75.617 -173.5407
15045.540320 75.963 -172.5269
15154.566507 76.368 -171.5692
15264.382743 76.822 -170.8871
15374.994752 77.305 -170.6647
15486.408302 77.796 -171.0235
15598.629201 78.273 -172.0142
15711.663298 78.719 -173.6266
15825.516487 79.121 -175.8062
15940.194703 79.472 -178.4745
16055.703925 79.769 178.4528
16172.050174 80.014 175.0513
16289.239516 80.211 171.3797
16407.278061 80.364 167.4768
16526.171961 80.476 163.3637
16645.927415 80.548 159.0493
16766.550667 80.581 154.5359
16888.048005 80.572 149.8265
17010.425762 80.516 144.9286
17133.690320 80.410 139.8577
17257.848103 80.251 134.6367
17382.905584 80.037 129.2948
17508.869284 79.768 123.8638
17635.745768 79.447 118.3763
17763.541652 79.080 112.8666
17892.263597 78.672 107.3737
18021.918315 78.234 101.9466
18152.512564 77.779 96.6489
18284.053153 77.325 91.5596
18416.546939 76.898 86.7685
18550.000830 76.530 82.3622
18684.421783 76.254 78.4044
18819.816805 76.095 74.9082
18956.192956 76.064 71.8122
19093.557344 76.148 68.9814
19231.917131 76.318 66.2595
19371.279531 76.533 63.5606
19511.651807 76.754 60.9432
19653.041280 76.947 58.6092
19795.455318 77.088 56.8340
19938.901348 77.162 55.8714
