* Measurement data measured by REW V5.31.3
* Source: EXCL: Headset (USB-C to 3.5mm Headphone Jack Adapter), MICROPHONE (Master Volume), 0, volume: 0.750
* Format: 256k Log Swept Sine, 1 sweep at -12.0 dBFS with no timing reference
* Dated: Apr 1, 2025 10:40:54 PM
* REW Settings:
*  C-weighting compensation: Off
*  Target level: 75.0 dB
* Note: ; 
* Measurement: K361 L2
* Smoothing: 1/6 octave
* Frequency Step: 96 ppo
* Start Frequency: 20.0 Hz
*
* Freq(Hz) SPL(dB) Phase(degrees)
20.187378 98.790 -143.0262
20.333664 98.812 -143.1874
20.481010 98.841 -143.4031
20.629424 98.876 -143.6665
20.778913 98.919 -143.9701
20.929486 98.966 -144.3065
21.081150 99.018 -144.6686
21.233912 99.074 -145.0504
21.387782 99.133 -145.4464
21.542767 99.194 -145.8525
21.698874 99.257 -146.2652
21.856113 99.321 -146.6820
22.014492 99.385 -147.1009
22.174018 99.449 -147.5209
22.334700 99.511 -147.9411
22.496546 99.571 -148.3613
22.659566 99.628 -148.7816
22.823766 99.682 -149.2027
22.989157 99.733 -149.6252
23.155745 99.779 -150.0503
23.323542 99.821 -150.4789
23.492554 99.858 -150.9123
23.662790 99.891 -151.3512
23.834261 99.918 -151.7962
24.006973 99.939 -152.2469
24.180938 99.956 -152.7025
24.356163 99.966 -153.1613
24.532658 99.971 -153.6206
24.710431 99.971 -154.0774
24.889493 99.965 -154.5282
25.069853 99.955 -154.9698
25.251519 99.940 -155.3990
25.434502 99.922 -155.8140
25.618811 99.901 -156.2139
25.804456 99.878 -156.5994
25.991445 99.855 -156.9724
26.179790 99.830 -157.3364
26.369500 99.806 -157.6955
26.560584 99.783 -158.0543
26.753053 99.760 -158.4175
26.946917 99.738 -158.7886
27.142185 99.717 -159.1702
27.338869 99.696 -159.5636
27.536977 99.676 -159.9682
27.736522 99.657 -160.3823
27.937512 99.638 -160.8033
28.139959 99.619 -161.2278
28.343872 99.602 -161.6526
28.549264 99.585 -162.0749
28.756143 99.571 -162.4928
28.964522 99.558 -162.9056
29.174411 99.548 -163.3138
29.385821 99.540 -163.7190
29.598763 99.535 -164.1235
29.813248 99.533 -164.5303
30.029287 99.533 -164.9421
30.246891 99.535 -165.3613
30.466073 99.539 -165.7896
30.686842 99.545 -166.2275
30.909212 99.552 -166.6746
31.133193 99.561 -167.1295
31.358797 99.571 -167.5901
31.586035 99.582 -168.0538
31.814921 99.596 -168.5179
32.045465 99.611 -168.9801
32.277680 99.629 -169.4382
32.511577 99.649 -169.8909
32.747169 99.672 -170.3371
32.984469 99.696 -170.7763
33.223488 99.723 -171.2080
33.464239 99.753 -171.6324
33.706735 99.784 -172.0494
33.950987 99.817 -172.4594
34.197010 99.852 -172.8628
34.444816 99.890 -173.2604
34.694417 99.929 -173.6532
34.945827 99.969 -174.0422
35.199059 100.012 -174.4281
35.454126 100.055 -174.8117
35.711041 100.099 -175.1933
35.969818 100.143 -175.5730
36.230470 100.186 -175.9509
36.493011 100.228 -176.3274
36.757455 100.269 -176.7033
37.023814 100.308 -177.0800
37.292104 100.344 -177.4591
37.562338 100.378 -177.8421
37.834530 100.409 -178.2301
38.108695 100.436 -178.6231
38.384846 100.460 -179.0204
38.662999 100.480 -179.4201
38.943167 100.498 -179.8198
39.225365 100.512 179.7826
39.509608 100.524 179.3892
39.795911 100.534 179.0010
40.084289 100.541 178.6188
40.374756 100.547 178.2429
40.667328 100.550 177.8735
40.962020 100.550 177.5111
41.258848 100.547 177.1567
41.557827 100.541 176.8115
41.858972 100.532 176.4766
42.162299 100.521 176.1527
42.467824 100.507 175.8400
42.775564 100.490 175.5380
43.085533 100.472 175.2459
43.397749 100.452 174.9624
43.712227 100.430 174.6866
44.028983 100.408 174.4179
44.348036 100.384 174.1563
44.669400 100.359 173.9023
44.993093 100.334 173.6568
45.319131 100.308 173.4204
45.647532 100.282 173.1938
45.978313 100.256 172.9767
46.311491 100.231 172.7682
46.647083 100.206 172.5669
46.985107 100.182 172.3705
47.325581 100.159 172.1771
47.668521 100.135 171.9853
48.013947 100.111 171.7942
48.361876 100.087 171.6041
48.712326 100.061 171.4156
49.065315 100.035 171.2299
49.420863 100.008 171.0481
49.778987 99.980 170.8708
50.139706 99.952 170.6980
50.503039 99.923 170.5290
50.869005 99.894 170.3625
51.237623 99.865 170.1967
51.608912 99.835 170.0293
51.982891 99.805 169.8582
52.359580 99.774 169.6814
52.739000 99.742 169.4976
53.121168 99.710 169.3058
53.506106 99.678 169.1059
53.893833 99.645 168.8985
54.284370 99.611 168.6846
54.677737 99.578 168.4657
55.073955 99.544 168.2434
55.473043 99.511 168.0193
55.875024 99.479 167.7946
56.279917 99.447 167.5699
56.687745 99.416 167.3455
57.098527 99.385 167.1205
57.512287 99.354 166.8940
57.929045 99.324 166.6648
58.348822 99.294 166.4319
58.771642 99.265 166.1943
59.197525 99.237 165.9516
59.626495 99.210 165.7039
60.058573 99.185 165.4520
60.493782 99.162 165.1979
60.932145 99.141 164.9448
61.373685 99.122 164.6965
61.818424 99.105 164.4572
62.266386 99.091 164.2308
62.717593 99.078 164.0200
63.172071 99.067 163.8261
63.629842 99.058 163.6491
64.090930 99.050 163.4880
64.555359 99.044 163.3408
65.023154 99.038 163.2052
65.494339 99.034 163.0787
65.968938 99.030 162.9591
66.446976 99.027 162.8442
66.928478 99.024 162.7325
67.413469 99.022 162.6229
67.901975 99.019 162.5145
68.394021 99.016 162.4073
68.889632 99.012 162.3013
69.388835 99.007 162.1968
69.891655 99.001 162.0941
70.398118 98.993 161.9935
70.908252 98.984 161.8948
71.422083 98.972 161.7980
71.939636 98.959 161.7031
72.460941 98.944 161.6102
72.986023 98.927 161.5198
73.514909 98.908 161.4325
74.047629 98.887 161.3494
74.584208 98.865 161.2715
75.124676 98.841 161.2004
75.669061 98.816 161.1372
76.217390 98.790 161.0829
76.769692 98.762 161.0382
77.325997 98.733 161.0032
77.886333 98.704 160.9778
78.450730 98.674 160.9612
79.019216 98.644 160.9524
79.591822 98.614 160.9500
80.168577 98.584 160.9528
80.749512 98.555 160.9592
81.334656 98.527 160.9681
81.924040 98.500 160.9781
82.517696 98.475 160.9882
83.115653 98.451 160.9971
83.717943 98.429 161.0038
84.324598 98.409 161.0075
84.935649 98.390 161.0073
85.551128 98.373 161.0025
86.171066 98.358 160.9926
86.795497 98.345 160.9771
87.424453 98.334 160.9557
88.057967 98.324 160.9277
88.696071 98.316 160.8925
89.338800 98.309 160.8488
89.986185 98.304 160.7952
90.638262 98.300 160.7300
91.295065 98.297 160.6518
91.956626 98.295 160.5591
92.622982 98.293 160.4507
93.294166 98.293 160.3262
93.970214 98.293 160.1848
94.651161 98.293 160.0262
95.337042 98.294 159.8500
96.027894 98.294 159.6558
96.723752 98.295 159.4436
97.424652 98.294 159.2136
98.130631 98.293 158.9664
98.841726 98.291 158.7025
99.557974 98.288 158.4229
100.279412 98.284 158.1282
101.006078 98.278 157.8192
101.738010 98.271 157.4969
102.475245 98.262 157.1623
103.217823 98.252 156.8167
103.965782 98.239 156.4612
104.719161 98.225 156.0971
105.477999 98.210 155.7255
106.242336 98.192 155.3477
107.012212 98.173 154.9651
107.787666 98.152 154.5795
108.568740 98.128 154.1927
109.355474 98.101 153.8069
110.147909 98.072 153.4245
110.946086 98.040 153.0480
111.750047 98.004 152.6802
112.559834 97.965 152.3244
113.375489 97.922 151.9837
114.197055 97.876 151.6617
115.024574 97.826 151.3619
115.858089 97.773 151.0878
116.697645 97.717 150.8424
117.543284 97.658 150.6284
118.395051 97.597 150.4478
119.252990 97.535 150.3018
120.117147 97.473 150.1912
120.987565 97.410 150.1160
121.864291 97.348 150.0757
122.747370 97.288 150.0694
123.636848 97.229 150.0951
124.532771 97.173 150.1500
125.435187 97.121 150.2303
126.344142 97.071 150.3315
127.259684 97.025 150.4484
128.181860 96.983 150.5759
129.110718 96.944 150.7089
130.046308 96.908 150.8428
130.988677 96.876 150.9734
131.937875 96.846 151.0976
132.893951 96.818 151.2124
133.856956 96.793 151.3159
134.826938 96.768 151.4068
135.803950 96.744 151.4844
136.788041 96.720 151.5485
137.779264 96.696 151.5995
138.777669 96.672 151.6381
139.783309 96.647 151.6650
140.796237 96.620 151.6814
141.816504 96.593 151.6884
142.844165 96.564 151.6870
143.879273 96.535 151.6782
144.921881 96.503 151.6633
145.972045 96.471 151.6436
147.029819 96.438 151.6203
148.095257 96.403 151.5950
149.168417 96.367 151.5690
150.249353 96.331 151.5435
151.338121 96.293 151.5198
152.434780 96.255 151.4986
153.539385 96.217 151.4808
154.651995 96.178 151.4667
155.772667 96.139 151.4565
156.901460 96.101 151.4498
158.038432 96.062 151.4462
159.183644 96.025 151.4446
160.337154 95.988 151.4443
161.499023 95.953 151.4444
162.669312 95.918 151.4438
163.848081 95.884 151.4419
165.035392 95.852 151.4376
166.231306 95.820 151.4302
167.435887 95.789 151.4189
168.649196 95.759 151.4031
169.871298 95.730 151.3824
171.102255 95.700 151.3565
172.342133 95.671 151.3254
173.590995 95.642 151.2891
174.848907 95.612 151.2479
176.115934 95.581 151.2022
177.392143 95.550 151.1526
178.677599 95.517 151.0997
179.972371 95.484 151.0443
181.276525 95.449 150.9871
182.590129 95.412 150.9288
183.913252 95.375 150.8701
185.245964 95.335 150.8119
186.588332 95.295 150.7550
187.940428 95.253 150.7000
189.302322 95.210 150.6477
190.674085 95.165 150.5985
192.055788 95.119 150.5527
193.447503 95.072 150.5106
194.849303 95.024 150.4721
196.261262 94.974 150.4375
197.683452 94.922 150.4069
199.115948 94.869 150.3805
200.558824 94.815 150.3591
202.012156 94.760 150.3436
203.476019 94.703 150.3354
204.950490 94.645 150.3359
206.435646 94.587 150.3464
207.931564 94.528 150.3686
209.438322 94.468 150.4038
210.955998 94.408 150.4536
212.484672 94.349 150.5193
214.024424 94.289 150.6019
215.575333 94.230 150.7021
217.137481 94.173 150.8203
218.710948 94.117 150.9561
220.295818 94.063 151.1086
221.892172 94.011 151.2765
223.500094 93.963 151.4576
225.119668 93.918 151.6494
226.750978 93.877 151.8486
228.394109 93.839 152.0518
230.049147 93.805 152.2557
231.716178 93.774 152.4574
233.395289 93.746 152.6545
235.086567 93.721 152.8453
236.790102 93.699 153.0291
238.505980 93.678 153.2054
240.234293 93.658 153.3747
241.975130 93.640 153.5378
243.728581 93.623 153.6960
245.494739 93.606 153.8510
247.273695 93.588 154.0044
249.065542 93.571 154.1583
250.870374 93.553 154.3148
252.688284 93.535 154.4757
254.519367 93.516 154.6432
256.363720 93.496 154.8190
258.221437 93.476 155.0052
260.092616 93.456 155.2037
261.977354 93.435 155.4164
263.875750 93.416 155.6448
265.787903 93.397 155.8902
267.713911 93.380 156.1532
269.653877 93.365 156.4335
271.607900 93.353 156.7298
273.576083 93.345 157.0396
275.558528 93.341 157.3592
277.555338 93.341 157.6833
279.566619 93.347 158.0058
281.592474 93.357 158.3197
283.633009 93.372 158.6178
285.688331 93.391 158.8935
287.758546 93.413 159.1415
289.843763 93.438 159.3583
291.944090 93.464 159.5425
294.059638 93.491 159.6949
296.190515 93.517 159.8178
298.336833 93.541 159.9152
300.498705 93.564 159.9916
302.676243 93.584 160.0523
304.869559 93.602 160.1019
307.078770 93.617 160.1450
309.303989 93.630 160.1855
311.545334 93.641 160.2266
313.802919 93.650 160.2707
316.076865 93.657 160.3197
318.367288 93.663 160.3747
320.674309 93.667 160.4365
322.998047 93.670 160.5052
325.338624 93.673 160.5811
327.696162 93.674 160.6638
330.070783 93.675 160.7533
332.462612 93.675 160.8491
334.871773 93.675 160.9509
337.298392 93.674 161.0581
339.742595 93.672 161.1703
342.204510 93.670 161.2869
344.684265 93.666 161.4075
347.181989 93.662 161.5318
349.697813 93.657 161.6594
352.231868 93.651 161.7902
354.784285 93.644 161.9239
357.355198 93.635 162.0603
359.944741 93.627 162.1991
362.553049 93.617 162.3403
365.180258 93.607 162.4837
367.826505 93.596 162.6294
370.491927 93.585 162.7772
373.176665 93.574 162.9273
375.880856 93.563 163.0796
378.604644 93.551 163.2341
381.348169 93.540 163.3911
384.111575 93.530 163.5503
386.895006 93.519 163.7119
389.698607 93.509 163.8758
392.522524 93.498 164.0421
395.366904 93.489 164.2104
398.231895 93.479 164.3808
401.117648 93.469 164.5531
404.024312 93.459 164.7271
406.952038 93.449 164.9028
409.900981 93.439 165.0799
412.871292 93.428 165.2585
415.863128 93.417 165.4383
418.876643 93.405 165.6193
421.911996 93.392 165.8011
424.969344 93.379 165.9838
428.048847 93.364 166.1669
431.150666 93.349 166.3502
434.274961 93.333 166.5333
437.421897 93.316 166.7160
440.591636 93.298 166.8979
443.784345 93.280 167.0790
447.000189 93.261 167.2589
450.239337 93.243 167.4375
453.501956 93.224 167.6146
456.788219 93.205 167.7903
460.098294 93.187 167.9642
463.432356 93.170 168.1365
466.790578 93.154 168.3071
470.173135 93.139 168.4758
473.580203 93.125 168.6426
477.011961 93.112 168.8071
480.468586 93.101 168.9692
483.950259 93.091 169.1284
487.457163 93.084 169.2845
490.989478 93.077 169.4373
494.547390 93.073 169.5866
498.131084 93.070 169.7322
501.740748 93.069 169.8741
505.376568 93.070 170.0121
509.038735 93.073 170.1461
512.727439 93.078 170.2759
516.442874 93.085 170.4014
520.185232 93.094 170.5224
523.954708 93.106 170.6386
527.751500 93.119 170.7497
531.575805 93.135 170.8553
535.427822 93.154 170.9551
539.307753 93.175 171.0486
543.215800 93.199 171.1353
547.152165 93.225 171.2150
551.117055 93.254 171.2872
555.110677 93.285 171.3517
559.133237 93.317 171.4081
563.184947 93.352 171.4564
567.266018 93.388 171.4963
571.376661 93.425 171.5281
575.517092 93.463 171.5518
579.687526 93.501 171.5677
583.888181 93.539 171.5761
588.119275 93.576 171.5775
592.381030 93.613 171.5723
596.673667 93.649 171.5611
600.997410 93.684 171.5446
605.352485 93.716 171.5234
609.739119 93.748 171.4982
614.157540 93.777 171.4700
618.607979 93.804 171.4393
623.090667 93.829 171.4069
627.605839 93.852 171.3734
632.153730 93.873 171.3391
636.734576 93.892 171.3046
641.348617 93.909 171.2698
645.996094 93.924 171.2350
650.677248 93.938 171.1998
655.392323 93.951 171.1638
660.141566 93.962 171.1267
664.925224 93.971 171.0879
669.743546 93.980 171.0468
674.596784 93.987 171.0032
679.485191 93.993 170.9566
684.409020 93.997 170.9069
689.368530 94.000 170.8541
694.363979 94.002 170.7982
699.395626 94.002 170.7393
704.463736 94.001 170.6776
709.568570 93.998 170.6131
714.710396 93.993 170.5461
719.889483 93.986 170.4767
725.106099 93.977 170.4052
730.360516 93.966 170.3315
735.653010 93.954 170.2558
740.983855 93.939 170.1782
746.353329 93.922 170.0988
751.761713 93.903 170.0174
757.209288 93.882 169.9342
762.696339 93.859 169.8491
768.223151 93.834 169.7621
773.790013 93.807 169.6731
779.397214 93.778 169.5820
785.045047 93.748 169.4888
790.733808 93.716 169.3932
796.463791 93.683 169.2953
802.235296 93.648 169.1951
808.048623 93.611 169.0925
813.904077 93.573 168.9877
819.801961 93.533 168.8812
825.742584 93.491 168.7737
831.726255 93.448 168.6663
837.753287 93.402 168.5606
843.823992 93.354 168.4593
849.938689 93.303 168.3657
856.097695 93.249 168.2842
862.301332 93.193 168.2205
868.549922 93.133 168.1810
874.843793 93.071 168.1733
881.183272 93.006 168.2054
887.568689 92.940 168.2853
894.000378 92.875 168.4200
900.478673 92.811 168.6145
907.003913 92.751 168.8708
913.576437 92.697 169.1863
920.196588 92.652 169.5535
926.864712 92.617 169.9593
933.581156 92.595 170.3867
940.346270 92.585 170.8157
947.160407 92.588 171.2269
954.023921 92.602 171.6032
960.937172 92.625 171.9324
967.900519 92.655 172.2081
974.914325 92.689 172.4299
981.978956 92.726 172.6027
989.094780 92.764 172.7348
996.262169 92.801 172.8370
1003.481495 92.837 172.9210
1010.753136 92.873 172.9978
1018.077470 92.908 173.0771
1025.454879 92.943 173.1663
1032.885748 92.980 173.2701
1040.370463 93.020 173.3907
1047.909417 93.063 173.5271
1055.503000 93.111 173.6764
1063.151610 93.164 173.8332
1070.855645 93.222 173.9911
1078.615506 93.286 174.1427
1086.431599 93.354 174.2808
1094.304330 93.426 174.3988
1102.234110 93.502 174.4911
1110.221353 93.580 174.5535
1118.266475 93.659 174.5835
1126.369895 93.739 174.5804
1134.532035 93.818 174.5449
1142.753322 93.895 174.4786
1151.034184 93.970 174.3846
1159.375052 94.043 174.2661
1167.776361 94.112 174.1270
1176.238550 94.179 173.9712
1184.762060 94.243 173.8021
1193.347334 94.304 173.6234
1201.994821 94.362 173.4379
1210.704971 94.417 173.2484
1219.478238 94.471 173.0567
1228.315080 94.522 172.8647
1237.215957 94.572 172.6737
1246.181334 94.620 172.4844
1255.211678 94.667 172.2977
1264.307459 94.713 172.1137
1273.469152 94.758 171.9329
1282.697235 94.802 171.7552
1291.992188 94.845 171.5810
1301.354495 94.888 171.4101
1310.784647 94.930 171.2427
1320.283132 94.971 171.0787
1329.850448 95.012 170.9182
1339.487093 95.052 170.7613
1349.193569 95.091 170.6078
1358.970381 95.130 170.4578
1368.818041 95.169 170.3111
1378.737061 95.207 170.1677
1388.727958 95.245 170.0272
1398.791253 95.283 169.8895
1408.927471 95.321 169.7540
1419.137140 95.360 169.6205
1429.420793 95.399 169.4885
1439.778965 95.439 169.3576
1450.212197 95.479 169.2276
1460.721033 95.520 169.0983
1471.306019 95.562 168.9700
1481.967709 95.604 168.8430
1492.706658 95.646 168.7180
1503.523426 95.689 168.5957
1514.418576 95.731 168.4771
1525.392678 95.772 168.3630
1536.446302 95.813 168.2539
1547.580025 95.852 168.1505
1558.794428 95.890 168.0528
1570.090095 95.926 167.9608
1581.467615 95.959 167.8743
1592.927581 95.990 167.7931
1604.470591 96.018 167.7168
1616.097246 96.043 167.6450
1627.808153 96.064 167.5776
1639.603922 96.082 167.5145
1651.485168 96.097 167.4556
1663.452510 96.108 167.4009
1675.506573 96.116 167.3504
1687.647984 96.122 167.3044
1699.877377 96.125 167.2629
1712.195390 96.125 167.2258
1724.602663 96.124 167.1931
1737.099845 96.122 167.1642
1749.687587 96.118 167.1385
1762.366544 96.113 167.1148
1775.137379 96.108 167.0918
1788.000756 96.102 167.0679
1800.957346 96.096 167.0412
1814.007826 96.090 167.0092
1827.152874 96.083 166.9693
1840.393177 96.075 166.9185
1853.729425 96.066 166.8542
1867.162312 96.055 166.7744
1880.692540 96.042 166.6783
1894.320813 96.025 166.5667
1908.047843 96.003 166.4413
1921.874344 95.977 166.3054
1935.801038 95.945 166.1624
1949.828650 95.907 166.0166
1963.957912 95.863 165.8722
1978.189561 95.813 165.7330
1992.524338 95.758 165.6027
2006.962991 95.698 165.4839
2021.506272 95.634 165.3788
2036.154940 95.565 165.2886
2050.909758 95.493 165.2139
2065.771495 95.419 165.1543
2080.740927 95.343 165.1088
2095.818833 95.266 165.0760
2111.006001 95.189 165.0537
2126.303220 95.112 165.0394
2141.711290 95.035 165.0307
2157.231013 94.958 165.0247
2172.863198 94.883 165.0192
2188.608660 94.808 165.0116
2204.468221 94.734 165.0003
2220.442706 94.661 164.9840
2236.532950 94.588 164.9620
2252.739789 94.515 164.9345
2269.064070 94.442 164.9025
2285.506644 94.368 164.8676
2302.068367 94.293 164.8326
2318.750104 94.218 164.8007
2335.552723 94.141 164.7762
2352.477101 94.062 164.7635
2369.524119 93.983 164.7676
2386.694668 93.904 164.7932
2403.989641 93.825 164.8448
2421.409941 93.746 164.9263
2438.956476 93.670 165.0402
2456.630160 93.598 165.1881
2474.431915 93.529 165.3696
2492.362668 93.466 165.5830
2510.423356 93.410 165.8246
2528.614918 93.362 166.0894
2546.938304 93.322 166.3708
2565.394469 93.291 166.6615
2583.984375 93.269 166.9535
2602.708991 93.257 167.2385
2621.569293 93.254 167.5088
2640.566265 93.260 167.7570
2659.700897 93.273 167.9772
2678.974186 93.292 168.1644
2698.387137 93.317 168.3154
2717.940763 93.346 168.4283
2737.636082 93.378 168.5031
2757.474121 93.410 168.5410
2777.455915 93.443 168.5445
2797.582506 93.475 168.5173
2817.854942 93.503 168.4641
2838.274281 93.529 168.3900
2858.841586 93.549 168.3010
2879.557931 93.565 168.2032
2900.424394 93.575 168.1031
2921.442065 93.578 168.0075
2942.612039 93.574 167.9229
2963.935418 93.564 167.8559
2985.413316 93.548 167.8126
3007.046852 93.524 167.7985
3028.837153 93.495 167.8181
3050.785356 93.459 167.8749
3072.892604 93.417 167.9723
3095.160050 93.369 168.1135
3117.588856 93.315 168.3028
3140.180190 93.255 168.5457
3162.935230 93.189 168.8487
3185.855163 93.119 169.2173
3208.941182 93.045 169.6545
3232.194493 92.969 170.1592
3255.616307 92.894 170.7247
3279.207844 92.820 171.3391
3302.970336 92.749 171.9864
3326.905021 92.681 172.6491
3351.013146 92.615 173.3104
3375.295969 92.551 173.9569
3399.754755 92.487 174.5803
3424.390779 92.420 175.1785
3449.205326 92.350 175.7558
3474.199690 92.273 176.3225
3499.375173 92.190 176.8942
3524.733088 92.100 177.4905
3550.274757 92.003 178.1346
3576.001511 91.900 178.8511
3601.914692 91.794 179.6655
3628.015651 91.688 -179.3984
3654.305748 91.587 -178.3197
3680.786354 91.497 -177.0833
3707.458849 91.425 -175.6817
3734.324624 91.377 -174.1180
3761.385080 91.362 -172.4081
3788.641627 91.387 -170.5823
3816.095686 91.458 -168.6858
3843.748688 91.579 -166.7767
3871.602076 91.750 -164.9223
3899.657300 91.970 -163.1935
3927.915825 92.234 -161.6574
3956.379122 92.535 -160.3719
3985.048676 92.863 -159.3800
4013.925981 93.210 -158.7086
4043.012544 93.566 -158.3686
4072.309879 93.920 -158.3568
4101.819515 94.265 -158.6588
4131.542990 94.594 -159.2514
4161.481854 94.899 -160.1044
4191.637667 95.176 -161.1826
4222.012001 95.422 -162.4472
4252.606441 95.633 -163.8579
4283.422580 95.810 -165.3749
4314.462026 95.951 -166.9611
4345.726396 96.059 -168.5839
4377.217321 96.135 -170.2159
4408.936442 96.180 -171.8359
4440.885413 96.197 -173.4275
4473.065899 96.188 -174.9784
4505.479579 96.153 -176.4790
4538.128141 96.094 -177.9206
4571.013288 96.011 -179.2938
4604.136735 95.905 179.4122
4637.500207 95.776 178.2109
4671.105446 95.624 177.1192
4704.954201 95.449 176.1580
4739.048239 95.254 175.3517
4773.389336 95.040 174.7288
4807.979283 94.810 174.3198
4842.819883 94.569 174.1558
4877.912952 94.323 174.2656
4913.260320 94.080 174.6725
4948.863830 93.850 175.3901
4984.725337 93.644 176.4182
5020.846712 93.475 177.7396
5057.229836 93.355 179.3176
5093.876609 93.296 -178.9045
5130.788938 93.306 -177.0017
5167.968750 93.391 -175.0633
5205.417982 93.553 -173.1878
5243.138586 93.787 -171.4757
5281.132530 94.087 -170.0224
5319.401793 94.441 -168.9118
5357.948371 94.836 -168.2105
5396.774274 95.256 -167.9654
5435.881525 95.687 -168.2023
5475.272163 96.113 -168.9279
5514.948243 96.523 -170.1316
5554.911831 96.902 -171.7883
5595.165012 97.240 -173.8606
5635.709884 97.527 -176.3007
5676.548561 97.755 -179.0517
5717.683172 97.917 177.9510
5759.115861 98.007 174.7796
5800.848789 98.020 171.5124
5842.884130 97.954 168.2339
5885.224077 97.807 165.0344
5927.870837 97.581 162.0087
5970.826633 97.276 159.2561
6014.093704 96.897 156.8796
6057.674306 96.452 154.9846
6101.570711 95.949 153.6769
6145.785208 95.399 153.0583
6190.320101 94.819 153.2183
6235.177712 94.225 154.2183
6280.360380 93.640 156.0706
6325.870460 93.086 158.7152
6371.710325 92.588 162.0053
6417.882365 92.166 165.7176
6464.388986 91.833 169.5901
6511.232613 91.596 173.3763
6558.415689 91.452 176.8887
6605.940673 91.391 -179.9838
6653.810042 91.399 -177.2846
6702.026292 91.463 -175.0110
6750.591937 91.568 -173.1369
6799.509509 91.702 -171.6290
6848.781558 91.855 -170.4564
6898.410653 92.020 -169.5934
6948.399380 92.187 -169.0183
6998.750346 92.350 -168.7107
7049.466176 92.501 -168.6476
7100.549514 92.636 -168.8010
7152.003023 92.748 -169.1368
7203.829385 92.835 -169.6158
7256.031302 92.893 -170.1956
7308.611496 92.922 -170.8333
7361.572708 92.924 -171.4879
7414.917698 92.899 -172.1225
7468.649249 92.851 -172.7049
7522.770160 92.783 -173.2090
7577.283253 92.701 -173.6144
7632.191371 92.610 -173.9075
7687.497376 92.515 -174.0826
7743.204151 92.422 -174.1437
7799.314600 92.339 -174.1063
7855.831649 92.270 -173.9979
7912.758244 92.221 -173.8580
7970.097352 92.196 -173.7353
8027.851962 92.195 -173.6831
8086.025087 92.217 -173.7541
8144.619758 92.257 -173.9949
8203.639030 92.311 -174.4415
8263.085980 92.370 -175.1175
8322.963708 92.426 -176.0330
8383.275334 92.471 -177.1851
8444.024002 92.496 -178.5581
8505.212881 92.492 179.8761
8566.845160 92.452 178.1593
8628.924051 92.368 176.3476
8691.452792 92.233 174.5134
8754.434642 92.044 172.7470
8817.872884 91.796 171.1579
8881.770826 91.491 169.8744
8946.131799 91.132 169.0398
9010.959157 90.729 168.8018
9076.256282 90.297 169.2900
9142.026576 89.858 170.5811
9208.273470 89.438 172.6531
9275.000415 89.065 175.3501
9342.210891 88.766 178.3852
9409.908403 88.560 -178.5983
9478.096478 88.450 -175.9324
9546.778672 88.432 -173.8485
9615.958566 88.489 -172.4566
9685.639765 88.600 -171.7691
9755.825904 88.743 -171.7406
9826.520640 88.900 -172.3003
9897.727659 89.053 -173.3716
9969.450674 89.190 -174.8807
10041.693423 89.299 -176.7588
10114.459673 89.373 -178.9425
10187.753217 89.406 178.6265
10261.577877 89.396 176.0014
10335.937500 89.341 173.2293
10410.835964 89.241 170.3503
10486.277173 89.098 167.3969
10562.265060 88.915 164.3926
10638.803587 88.695 161.3529
10715.896743 88.442 158.2850
10793.548548 88.159 155.1884
10871.763050 87.849 152.0563
10950.544327 87.515 148.8767
11029.896485 87.160 145.6337
11109.823662 86.784 142.3097
11190.330024 86.390 138.8859
11271.419768 85.977 135.3434
11353.097122 85.546 131.6617
11435.366344 85.099 127.8163
11518.231722 84.639 123.7760
11601.697577 84.170 119.5000
11685.768261 83.697 114.9360
11770.448155 83.226 110.0189
11855.741674 82.766 104.6698
11941.653265 82.323 98.7958
12028.187408 81.903 92.2895
12115.348612 81.513 85.0312
12203.141422 81.153 76.8965
12291.570415 80.819 67.7738
12380.640201 80.502 57.5940
12470.355424 80.191 46.3759
12560.720760 79.871 34.2774
12651.740920 79.528 21.6285
12743.420650 79.148 8.9095
12835.764729 78.722 -3.3424
12928.777972 78.245 -14.6566
13022.465227 77.713 -24.7114
13116.831378 77.132 -33.3497
13211.881345 76.510 -40.5469
13307.620084 75.861 -46.3679
13404.052584 75.206 -50.9336
13501.183875 74.569 -54.3960
13599.019019 73.977 -56.9214
13697.563116 73.460 -58.6765
13796.821305 73.045 -59.8212
13896.798760 72.758 -60.5061
13997.500692 72.612 -60.8759
14098.932352 72.614 -61.0754
14201.099028 72.754 -61.2532
14304.006046 73.016 -61.5585
14407.658770 73.371 -62.1322
14512.062604 73.792 -63.0942
14617.222992 74.246 -64.5317
14723.145416 74.708 -66.4943
14829.835397 75.153 -68.9946
14937.298497 75.564 -72.0153
15045.540320 75.925 -75.5162
15154.566507 76.227 -79.4421
15264.382743 76.462 -83.7285
15374.994752 76.627 -88.3074
15486.408302 76.720 -93.1124
15598.629201 76.741 -98.0822
15711.663298 76.693 -103.1621
15825.516487 76.578 -108.3041
15940.194703 76.401 -113.4661
16055.703925 76.165 -118.6110
16172.050174 75.876 -123.7065
16289.239516 75.540 -128.7239
16407.278061 75.167 -133.6372
16526.171961 74.766 -138.4200
16645.927415 74.351 -143.0425
16766.550667 73.940 -147.4678
16888.048005 73.556 -151.6488
17010.425762 73.230 -155.5258
17133.690320 72.999 -159.0278
17257.848103 72.903 -162.0817
17382.905584 72.976 -164.6354
17508.869284 73.236 -166.7000
17635.745768 73.676 -168.4030
17763.541652 74.266 -170.0237
17892.263597 74.964 -171.9707
18021.918315 75.720 -174.6916
18152.512564 76.494 -178.5685
18284.053153 77.250 176.1358
18416.546939 77.961 169.2659
18550.000830 78.606 160.7275
18684.421783 79.170 150.4506
18819.816805 79.640 138.3882
18956.192956 80.011 124.5761
19093.557344 80.279 109.2828
19231.917131 80.450 93.2078
19371.279531 80.534 77.5416
19511.651807 80.553 63.6689
19653.041280 80.530 52.6949
19795.455318 80.494 45.2210
19938.901348 80.470 41.4629
