* Measurement data measured by REW V5.31.3
* Source: EXCL: Headset (USB-C to 3.5mm Headphone Jack Adapter), MICROPHONE (Master Volume), 0, volume: 0.750
* Format: 256k Log Swept Sine, 1 sweep at -12.0 dBFS with no timing reference
* Dated: Apr 7, 2025 4:59:27 PM
* REW Settings:
*  C-weighting compensation: Off
*  Target level: 75.0 dB
* Note: ; 
* Measurement: Maxwell (Wired) R2
* Smoothing: 1/6 octave
* Frequency Step: 96 ppo
* Start Frequency: 20.0 Hz
*
* Freq(Hz) SPL(dB) Phase(degrees)
20.187378 80.385 -19.3478
20.333664 80.427 -19.7724
20.481010 80.482 -20.3274
20.629424 80.544 -20.9808
20.778913 80.611 -21.6996
20.929486 80.680 -22.4529
21.081150 80.748 -23.2149
21.233912 80.816 -23.9664
21.387782 80.885 -24.6956
21.542767 80.955 -25.3982
21.698874 81.030 -26.0770
21.856113 81.111 -26.7412
22.014492 81.203 -27.4045
22.174018 81.307 -28.0839
22.334700 81.424 -28.7976
22.496546 81.556 -29.5630
22.659566 81.702 -30.3951
22.823766 81.861 -31.3051
22.989157 82.031 -32.2997
23.155745 82.211 -33.3805
23.323542 82.396 -34.5447
23.492554 82.585 -35.7855
23.662790 82.773 -37.0933
23.834261 82.957 -38.4564
24.006973 83.134 -39.8626
24.180938 83.301 -41.2994
24.356163 83.455 -42.7551
24.532658 83.593 -44.2193
24.710431 83.714 -45.6827
24.889493 83.816 -47.1379
25.069853 83.898 -48.5788
25.251519 83.959 -50.0009
25.434502 84.001 -51.4013
25.618811 84.024 -52.7787
25.804456 84.029 -54.1333
25.991445 84.019 -55.4667
26.179790 83.996 -56.7826
26.369500 83.963 -58.0859
26.560584 83.923 -59.3832
26.753053 83.880 -60.6820
26.946917 83.837 -61.9904
27.142185 83.795 -63.3162
27.338869 83.758 -64.6658
27.536977 83.726 -66.0434
27.736522 83.700 -67.4502
27.937512 83.680 -68.8839
28.139959 83.666 -70.3384
28.343872 83.658 -71.8044
28.549264 83.655 -73.2703
28.756143 83.657 -74.7234
28.964522 83.663 -76.1511
29.174411 83.675 -77.5425
29.385821 83.692 -78.8895
29.598763 83.715 -80.1874
29.813248 83.744 -81.4348
30.029287 83.778 -82.6339
30.246891 83.818 -83.7891
30.466073 83.862 -84.9065
30.686842 83.907 -85.9926
30.909212 83.953 -87.0544
31.133193 83.998 -88.0980
31.358797 84.040 -89.1297
31.586035 84.078 -90.1552
31.814921 84.112 -91.1799
32.045465 84.139 -92.2091
32.277680 84.162 -93.2472
32.511577 84.179 -94.2975
32.747169 84.191 -95.3614
32.984469 84.199 -96.4376
33.223488 84.205 -97.5226
33.464239 84.209 -98.6100
33.706735 84.213 -99.6917
33.950987 84.219 -100.7581
34.197010 84.228 -101.7997
34.444816 84.241 -102.8076
34.694417 84.260 -103.7743
34.945827 84.284 -104.6943
35.199059 84.315 -105.5645
35.454126 84.351 -106.3844
35.711041 84.394 -107.1560
35.969818 84.443 -107.8842
36.230470 84.498 -108.5763
36.493011 84.559 -109.2410
36.757455 84.625 -109.8876
37.023814 84.696 -110.5241
37.292104 84.771 -111.1559
37.562338 84.848 -111.7848
37.834530 84.925 -112.4089
38.108695 85.003 -113.0233
38.384846 85.080 -113.6216
38.662999 85.155 -114.1980
38.943167 85.228 -114.7486
39.225365 85.300 -115.2723
39.509608 85.370 -115.7710
39.795911 85.438 -116.2495
40.084289 85.505 -116.7140
40.374756 85.572 -117.1719
40.667328 85.637 -117.6316
40.962020 85.703 -118.1022
41.258848 85.769 -118.5934
41.557827 85.837 -119.1154
41.858972 85.905 -119.6782
42.162299 85.974 -120.2906
42.467824 86.044 -120.9598
42.775564 86.113 -121.6900
43.085533 86.181 -122.4832
43.397749 86.248 -123.3391
43.712227 86.314 -124.2558
44.028983 86.379 -125.2298
44.348036 86.443 -126.2564
44.669400 86.506 -127.3295
44.993093 86.568 -128.4413
45.319131 86.629 -129.5832
45.647532 86.688 -130.7463
45.978313 86.744 -131.9226
46.311491 86.796 -133.1061
46.647083 86.843 -134.2931
46.985107 86.884 -135.4826
47.325581 86.916 -136.6749
47.668521 86.939 -137.8712
48.013947 86.951 -139.0726
48.361876 86.951 -140.2793
48.712326 86.940 -141.4905
49.065315 86.917 -142.7049
49.420863 86.885 -143.9208
49.778987 86.843 -145.1363
50.139706 86.794 -146.3493
50.503039 86.737 -147.5572
50.869005 86.673 -148.7564
51.237623 86.603 -149.9421
51.608912 86.526 -151.1083
51.982891 86.443 -152.2482
52.359580 86.353 -153.3548
52.739000 86.259 -154.4221
53.121168 86.159 -155.4457
53.506106 86.057 -156.4229
53.893833 85.952 -157.3526
54.284370 85.846 -158.2355
54.677737 85.738 -159.0724
55.073955 85.630 -159.8643
55.473043 85.522 -160.6118
55.875024 85.413 -161.3143
56.279917 85.304 -161.9709
56.687745 85.196 -162.5803
57.098527 85.087 -163.1419
57.512287 84.980 -163.6567
57.929045 84.875 -164.1284
58.348822 84.772 -164.5636
58.771642 84.672 -164.9723
59.197525 84.577 -165.3660
59.626495 84.486 -165.7564
60.058573 84.400 -166.1524
60.493782 84.319 -166.5585
60.932145 84.242 -166.9734
61.373685 84.171 -167.3917
61.818424 84.104 -167.8055
62.266386 84.043 -168.2072
62.717593 83.987 -168.5913
63.172071 83.936 -168.9553
63.629842 83.889 -169.2991
64.090930 83.846 -169.6245
64.555359 83.806 -169.9338
65.023154 83.769 -170.2290
65.494339 83.733 -170.5111
65.968938 83.699 -170.7807
66.446976 83.666 -171.0377
66.928478 83.635 -171.2823
67.413469 83.604 -171.5153
67.901975 83.574 -171.7377
68.394021 83.545 -171.9503
68.889632 83.518 -172.1536
69.388835 83.491 -172.3471
69.891655 83.465 -172.5300
70.398118 83.441 -172.7017
70.908252 83.418 -172.8625
71.422083 83.397 -173.0148
71.939636 83.378 -173.1626
72.460941 83.360 -173.3112
72.986023 83.344 -173.4653
73.514909 83.328 -173.6285
74.047629 83.313 -173.8023
74.584208 83.298 -173.9867
75.124676 83.282 -174.1802
75.669061 83.266 -174.3810
76.217390 83.249 -174.5875
76.769692 83.231 -174.7987
77.325997 83.213 -175.0142
77.886333 83.193 -175.2341
78.450730 83.171 -175.4591
79.019216 83.149 -175.6898
79.591822 83.125 -175.9273
80.168577 83.100 -176.1730
80.749512 83.075 -176.4284
81.334656 83.049 -176.6954
81.924040 83.022 -176.9761
82.517696 82.994 -177.2715
83.115653 82.965 -177.5818
83.717943 82.935 -177.9060
84.324598 82.903 -178.2417
84.935649 82.869 -178.5856
85.551128 82.833 -178.9346
86.171066 82.795 -179.2854
86.795497 82.755 -179.6350
87.424453 82.714 -179.9810
88.057967 82.672 179.6788
88.696071 82.629 179.3456
89.338800 82.584 179.0204
89.986185 82.539 178.7032
90.638262 82.493 178.3939
91.295065 82.445 178.0922
91.956626 82.397 177.7976
92.622982 82.347 177.5099
93.294166 82.295 177.2292
93.970214 82.243 176.9560
94.651161 82.188 176.6909
95.337042 82.133 176.4345
96.027894 82.077 176.1873
96.723752 82.019 175.9498
97.424652 81.962 175.7220
98.130631 81.904 175.5040
98.841726 81.847 175.2957
99.557974 81.789 175.0964
100.279412 81.733 174.9061
101.006078 81.677 174.7241
101.738010 81.622 174.5497
102.475245 81.568 174.3826
103.217823 81.516 174.2223
103.965782 81.465 174.0692
104.719161 81.418 173.9241
105.477999 81.374 173.7885
106.242336 81.332 173.6642
107.012212 81.295 173.5522
107.787666 81.260 173.4525
108.568740 81.229 173.3642
109.355474 81.200 173.2853
110.147909 81.174 173.2137
110.946086 81.150 173.1469
111.750047 81.129 173.0828
112.559834 81.111 173.0194
113.375489 81.095 172.9545
114.197055 81.081 172.8862
115.024574 81.069 172.8125
115.858089 81.058 172.7320
116.697645 81.047 172.6439
117.543284 81.038 172.5479
118.395051 81.028 172.4442
119.252990 81.019 172.3331
120.117147 81.009 172.2144
120.987565 80.999 172.0884
121.864291 80.989 171.9548
122.747370 80.979 171.8135
123.636848 80.968 171.6639
124.532771 80.957 171.5051
125.435187 80.945 171.3356
126.344142 80.932 171.1537
127.259684 80.919 170.9576
128.181860 80.905 170.7463
129.110718 80.889 170.5202
130.046308 80.872 170.2809
130.988677 80.853 170.0314
131.937875 80.831 169.7749
132.893951 80.806 169.5150
133.856956 80.777 169.2547
134.826938 80.744 168.9959
135.803950 80.707 168.7395
136.788041 80.666 168.4851
137.779264 80.621 168.2317
138.777669 80.572 167.9781
139.783309 80.518 167.7230
140.796237 80.461 167.4657
141.816504 80.399 167.2060
142.844165 80.333 166.9449
143.879273 80.263 166.6844
144.921881 80.189 166.4276
145.972045 80.112 166.1779
147.029819 80.031 165.9389
148.095257 79.947 165.7141
149.168417 79.861 165.5067
150.249353 79.771 165.3192
151.338121 79.679 165.1540
152.434780 79.584 165.0131
153.539385 79.487 164.8990
154.651995 79.387 164.8150
155.772667 79.285 164.7647
156.901460 79.181 164.7521
158.038432 79.076 164.7808
159.183644 78.971 164.8532
160.337154 78.866 164.9707
161.499023 78.762 165.1329
162.669312 78.660 165.3380
163.848081 78.560 165.5833
165.035392 78.462 165.8655
166.231306 78.368 166.1812
167.435887 78.276 166.5272
168.649196 78.189 166.9003
169.871298 78.105 167.2980
171.102255 78.024 167.7177
172.342133 77.948 168.1571
173.590995 77.877 168.6140
174.848907 77.809 169.0864
176.115934 77.746 169.5724
177.392143 77.688 170.0704
178.677599 77.635 170.5779
179.972371 77.586 171.0916
181.276525 77.543 171.6070
182.590129 77.504 172.1197
183.913252 77.470 172.6253
185.245964 77.441 173.1210
186.588332 77.416 173.6048
187.940428 77.396 174.0764
189.302322 77.379 174.5363
190.674085 77.366 174.9858
192.055788 77.357 175.4263
193.447503 77.351 175.8585
194.849303 77.349 176.2823
196.261262 77.350 176.6971
197.683452 77.353 177.1021
199.115948 77.358 177.4967
200.558824 77.365 177.8802
202.012156 77.373 178.2518
203.476019 77.381 178.6101
204.950490 77.389 178.9529
206.435646 77.397 179.2781
207.931564 77.405 179.5836
209.438322 77.413 179.8689
210.955998 77.420 -179.8654
212.484672 77.427 -179.6173
214.024424 77.433 -179.3834
215.575333 77.439 -179.1598
217.137481 77.446 -178.9420
218.710948 77.452 -178.7260
220.295818 77.460 -178.5084
221.892172 77.468 -178.2874
223.500094 77.477 -178.0626
225.119668 77.488 -177.8346
226.750978 77.501 -177.6049
228.394109 77.515 -177.3751
230.049147 77.532 -177.1463
231.716178 77.552 -176.9198
233.395289 77.574 -176.6958
235.086567 77.598 -176.4740
236.790102 77.624 -176.2536
238.505980 77.651 -176.0335
240.234293 77.681 -175.8129
241.975130 77.712 -175.5909
243.728581 77.744 -175.3668
245.494739 77.778 -175.1401
247.273695 77.814 -174.9112
249.065542 77.851 -174.6816
250.870374 77.889 -174.4534
252.688284 77.928 -174.2293
254.519367 77.969 -174.0117
256.363720 78.011 -173.8026
258.221437 78.054 -173.6033
260.092616 78.097 -173.4142
261.977354 78.141 -173.2346
263.875750 78.186 -173.0627
265.787903 78.231 -172.8965
267.713911 78.276 -172.7340
269.653877 78.322 -172.5740
271.607900 78.369 -172.4165
273.576083 78.417 -172.2622
275.558528 78.465 -172.1126
277.555338 78.514 -171.9700
279.566619 78.564 -171.8367
281.592474 78.615 -171.7154
283.633009 78.667 -171.6080
285.688331 78.720 -171.5158
287.758546 78.774 -171.4393
289.843763 78.830 -171.3782
291.944090 78.888 -171.3316
294.059638 78.947 -171.2983
296.190515 79.007 -171.2770
298.336833 79.068 -171.2665
300.498705 79.130 -171.2660
302.676243 79.192 -171.2749
304.869559 79.254 -171.2921
307.078770 79.315 -171.3165
309.303989 79.376 -171.3467
311.545334 79.437 -171.3816
313.802919 79.497 -171.4204
316.076865 79.555 -171.4630
318.367288 79.613 -171.5102
320.674309 79.670 -171.5635
322.998047 79.726 -171.6243
325.338624 79.781 -171.6942
327.696162 79.836 -171.7744
330.070783 79.890 -171.8655
332.462612 79.943 -171.9678
334.871773 79.995 -172.0810
337.298392 80.046 -172.2049
339.742595 80.096 -172.3388
342.204510 80.144 -172.4818
344.684265 80.189 -172.6327
347.181989 80.233 -172.7904
349.697813 80.274 -172.9537
352.231868 80.312 -173.1218
354.784285 80.348 -173.2940
357.355198 80.382 -173.4699
359.944741 80.412 -173.6496
362.553049 80.441 -173.8332
365.180258 80.467 -174.0210
367.826505 80.491 -174.2133
370.491927 80.514 -174.4104
373.176665 80.535 -174.6121
375.880856 80.554 -174.8184
378.604644 80.572 -175.0294
381.348169 80.588 -175.2450
384.111575 80.603 -175.4655
386.895006 80.617 -175.6909
389.698607 80.629 -175.9209
392.522524 80.639 -176.1548
395.366904 80.647 -176.3913
398.231895 80.653 -176.6286
401.117648 80.656 -176.8641
404.024312 80.657 -177.0954
406.952038 80.654 -177.3196
409.900981 80.650 -177.5344
412.871292 80.642 -177.7375
415.863128 80.632 -177.9274
418.876643 80.621 -178.1031
421.911996 80.607 -178.2648
424.969344 80.593 -178.4134
428.048847 80.578 -178.5508
431.150666 80.563 -178.6797
434.274961 80.547 -178.8035
437.421897 80.532 -178.9259
440.591636 80.516 -179.0508
443.784345 80.501 -179.1818
447.000189 80.486 -179.3217
450.239337 80.470 -179.4721
453.501956 80.454 -179.6337
456.788219 80.437 -179.8060
460.098294 80.419 -179.9879
463.432356 80.399 179.8220
466.790578 80.379 179.6257
470.173135 80.358 179.4248
473.580203 80.336 179.2209
477.011961 80.313 179.0155
480.468586 80.290 178.8094
483.950259 80.267 178.6035
487.457163 80.243 178.3979
490.989478 80.220 178.1926
494.547390 80.196 177.9871
498.131084 80.172 177.7809
501.740748 80.149 177.5733
505.376568 80.126 177.3638
509.038735 80.103 177.1517
512.727439 80.080 176.9366
516.442874 80.058 176.7180
520.185232 80.036 176.4958
523.954708 80.015 176.2701
527.751500 79.994 176.0411
531.575805 79.973 175.8096
535.427822 79.953 175.5765
539.307753 79.932 175.3428
543.215800 79.912 175.1100
547.152165 79.892 174.8795
551.117055 79.871 174.6526
555.110677 79.850 174.4310
559.133237 79.829 174.2164
563.184947 79.808 174.0105
567.266018 79.785 173.8150
571.376661 79.762 173.6316
575.517092 79.738 173.4617
579.687526 79.713 173.3064
583.888181 79.688 173.1667
588.119275 79.662 173.0428
592.381030 79.635 172.9349
596.673667 79.607 172.8426
600.997410 79.579 172.7650
605.352485 79.551 172.7010
609.739119 79.523 172.6493
614.157540 79.494 172.6082
618.607979 79.465 172.5756
623.090667 79.435 172.5494
627.605839 79.406 172.5273
632.153730 79.376 172.5069
636.734576 79.345 172.4860
641.348617 79.314 172.4625
645.996094 79.281 172.4347
650.677248 79.247 172.4011
655.392323 79.211 172.3607
660.141566 79.173 172.3132
664.925224 79.133 172.2586
669.743546 79.089 172.1977
674.596784 79.042 172.1318
679.485191 78.991 172.0631
684.409020 78.935 171.9945
689.368530 78.874 171.9296
694.363979 78.809 171.8726
699.395626 78.737 171.8284
704.463736 78.660 171.8024
709.568570 78.578 171.8002
714.710396 78.490 171.8276
719.889483 78.397 171.8903
725.106099 78.299 171.9937
730.360516 78.197 172.1428
735.653010 78.092 172.3417
740.983855 77.983 172.5941
746.353329 77.872 172.9026
751.761713 77.761 173.2691
757.209288 77.649 173.6943
762.696339 77.539 174.1783
768.223151 77.431 174.7200
773.790013 77.327 175.3171
779.397214 77.227 175.9664
785.045047 77.133 176.6635
790.733808 77.047 177.4025
796.463791 76.968 178.1769
802.235296 76.899 178.9788
808.048623 76.838 179.7997
813.904077 76.788 -179.3690
819.801961 76.749 -178.5361
825.742584 76.719 -177.7096
831.726255 76.700 -176.8970
837.753287 76.690 -176.1045
843.823992 76.689 -175.3375
849.938689 76.696 -174.6002
856.097695 76.711 -173.8957
862.301332 76.733 -173.2263
868.549922 76.760 -172.5933
874.843793 76.793 -171.9970
881.183272 76.830 -171.4370
887.568689 76.871 -170.9125
894.000378 76.915 -170.4220
900.478673 76.962 -169.9640
907.003913 77.011 -169.5365
913.576437 77.062 -169.1373
920.196588 77.115 -168.7642
926.864712 77.171 -168.4150
933.581156 77.229 -168.0875
940.346270 77.290 -167.7798
947.160407 77.353 -167.4903
954.023921 77.420 -167.2180
960.937172 77.490 -166.9628
967.900519 77.564 -166.7254
974.914325 77.642 -166.5073
981.978956 77.724 -166.3112
989.094780 77.811 -166.1403
996.262169 77.901 -165.9984
1003.481495 77.995 -165.8893
1010.753136 78.092 -165.8165
1018.077470 78.192 -165.7833
1025.454879 78.294 -165.7922
1032.885748 78.396 -165.8451
1040.370463 78.499 -165.9432
1047.909417 78.600 -166.0870
1055.503000 78.699 -166.2764
1063.151610 78.795 -166.5103
1070.855645 78.887 -166.7867
1078.615506 78.973 -167.1028
1086.431599 79.052 -167.4545
1094.304330 79.123 -167.8362
1102.234110 79.185 -168.2413
1110.221353 79.237 -168.6609
1118.266475 79.278 -169.0849
1126.369895 79.307 -169.5006
1134.532035 79.324 -169.8938
1142.753322 79.329 -170.2488
1151.034184 79.324 -170.5488
1159.375052 79.309 -170.7771
1167.776361 79.286 -170.9184
1176.238550 79.259 -170.9602
1184.762060 79.230 -170.8940
1193.347334 79.204 -170.7171
1201.994821 79.183 -170.4328
1210.704971 79.170 -170.0504
1219.478238 79.170 -169.5852
1228.315080 79.184 -169.0563
1237.215957 79.213 -168.4853
1246.181334 79.257 -167.8942
1255.211678 79.318 -167.3039
1264.307459 79.392 -166.7327
1273.469152 79.480 -166.1958
1282.697235 79.578 -165.7047
1291.992188 79.687 -165.2677
1301.354495 79.803 -164.8902
1310.784647 79.925 -164.5752
1320.283132 80.052 -164.3242
1329.850448 80.183 -164.1375
1339.487093 80.315 -164.0146
1349.193569 80.450 -163.9544
1358.970381 80.584 -163.9558
1368.818041 80.719 -164.0175
1378.737061 80.853 -164.1382
1388.727958 80.985 -164.3167
1398.791253 81.114 -164.5517
1408.927471 81.241 -164.8419
1419.137140 81.365 -165.1859
1429.420793 81.483 -165.5817
1439.778965 81.597 -166.0271
1450.212197 81.704 -166.5187
1460.721033 81.805 -167.0523
1471.306019 81.897 -167.6221
1481.967709 81.979 -168.2212
1492.706658 82.051 -168.8408
1503.523426 82.112 -169.4706
1514.418576 82.161 -170.0990
1525.392678 82.197 -170.7129
1536.446302 82.220 -171.2987
1547.580025 82.231 -171.8424
1558.794428 82.231 -172.3311
1570.090095 82.220 -172.7536
1581.467615 82.201 -173.1011
1592.927581 82.175 -173.3682
1604.470591 82.144 -173.5528
1616.097246 82.111 -173.6565
1627.808153 82.078 -173.6841
1639.603922 82.045 -173.6434
1651.485168 82.015 -173.5441
1663.452510 81.989 -173.3976
1675.506573 81.967 -173.2159
1687.647984 81.950 -173.0106
1699.877377 81.938 -172.7932
1712.195390 81.931 -172.5739
1724.602663 81.928 -172.3622
1737.099845 81.929 -172.1659
1749.687587 81.933 -171.9915
1762.366544 81.939 -171.8439
1775.137379 81.946 -171.7260
1788.000756 81.952 -171.6392
1800.957346 81.958 -171.5831
1814.007826 81.960 -171.5558
1827.152874 81.960 -171.5538
1840.393177 81.954 -171.5723
1853.729425 81.944 -171.6052
1867.162312 81.928 -171.6459
1880.692540 81.906 -171.6876
1894.320813 81.878 -171.7244
1908.047843 81.845 -171.7521
1921.874344 81.807 -171.7682
1935.801038 81.764 -171.7725
1949.828650 81.716 -171.7656
1963.957912 81.665 -171.7482
1978.189561 81.609 -171.7198
1992.524338 81.548 -171.6786
2006.962991 81.484 -171.6213
2021.506272 81.415 -171.5448
2036.154940 81.343 -171.4464
2050.909758 81.269 -171.3253
2065.771495 81.193 -171.1830
2080.740927 81.118 -171.0235
2095.818833 81.043 -170.8526
2111.006001 80.970 -170.6767
2126.303220 80.897 -170.5019
2141.711290 80.824 -170.3321
2157.231013 80.752 -170.1687
2172.863198 80.679 -170.0101
2188.608660 80.604 -169.8525
2204.468221 80.529 -169.6907
2220.442706 80.452 -169.5198
2236.532950 80.374 -169.3364
2252.739789 80.296 -169.1398
2269.064070 80.220 -168.9322
2285.506644 80.144 -168.7175
2302.068367 80.069 -168.5004
2318.750104 79.995 -168.2843
2335.552723 79.920 -168.0701
2352.477101 79.843 -167.8543
2369.524119 79.763 -167.6287
2386.694668 79.679 -167.3796
2403.989641 79.589 -167.0879
2421.409941 79.494 -166.7302
2438.956476 79.395 -166.2811
2456.630160 79.295 -165.7160
2474.431915 79.197 -165.0157
2492.362668 79.107 -164.1703
2510.423356 79.030 -163.1822
2528.614918 78.972 -162.0675
2546.938304 78.936 -160.8537
2565.394469 78.927 -159.5748
2583.984375 78.944 -158.2667
2602.708991 78.989 -156.9620
2621.569293 79.060 -155.6878
2640.566265 79.155 -154.4643
2659.700897 79.272 -153.3063
2678.974186 79.408 -152.2253
2698.387137 79.562 -151.2303
2717.940763 79.731 -150.3289
2737.636082 79.912 -149.5264
2757.474121 80.103 -148.8254
2777.455915 80.302 -148.2259
2797.582506 80.506 -147.7257
2817.854942 80.715 -147.3213
2838.274281 80.926 -147.0093
2858.841586 81.138 -146.7872
2879.557931 81.349 -146.6541
2900.424394 81.559 -146.6098
2921.442065 81.765 -146.6535
2942.612039 81.964 -146.7826
2963.935418 82.156 -146.9917
2985.413316 82.338 -147.2729
3007.046852 82.509 -147.6162
3028.837153 82.667 -148.0099
3050.785356 82.813 -148.4422
3072.892604 82.946 -148.9012
3095.160050 83.067 -149.3765
3117.588856 83.176 -149.8603
3140.180190 83.274 -150.3477
3162.935230 83.362 -150.8377
3185.855163 83.440 -151.3322
3208.941182 83.510 -151.8353
3232.194493 83.571 -152.3518
3255.616307 83.622 -152.8869
3279.207844 83.664 -153.4461
3302.970336 83.695 -154.0341
3326.905021 83.714 -154.6541
3351.013146 83.718 -155.3055
3375.295969 83.705 -155.9814
3399.754755 83.672 -156.6673
3424.390779 83.618 -157.3400
3449.205326 83.539 -157.9683
3474.199690 83.437 -158.5146
3499.375173 83.312 -158.9373
3524.733088 83.167 -159.1938
3550.274757 83.007 -159.2461
3576.001511 82.841 -159.0680
3601.914692 82.676 -158.6527
3628.015651 82.524 -158.0198
3654.305748 82.393 -157.2151
3680.786354 82.292 -156.3038
3707.458849 82.223 -155.3561
3734.324624 82.186 -154.4325
3761.385080 82.179 -153.5739
3788.641627 82.197 -152.7985
3816.095686 82.237 -152.1069
3843.748688 82.295 -151.4887
3871.602076 82.371 -150.9319
3899.657300 82.464 -150.4300
3927.915825 82.574 -149.9877
3956.379122 82.701 -149.6197
3985.048676 82.842 -149.3459
4013.925981 82.996 -149.1835
4043.012544 83.156 -149.1418
4072.309879 83.320 -149.2202
4101.819515 83.483 -149.4105
4131.542990 83.642 -149.6999
4161.481854 83.796 -150.0743
4191.637667 83.944 -150.5201
4222.012001 84.083 -151.0259
4252.606441 84.214 -151.5821
4283.422580 84.336 -152.1810
4314.462026 84.448 -152.8155
4345.726396 84.550 -153.4790
4377.217321 84.642 -154.1654
4408.936442 84.724 -154.8691
4440.885413 84.795 -155.5861
4473.065899 84.856 -156.3136
4505.479579 84.907 -157.0497
4538.128141 84.948 -157.7926
4571.013288 84.980 -158.5401
4604.136735 85.001 -159.2899
4637.500207 85.013 -160.0395
4671.105446 85.016 -160.7865
4704.954201 85.010 -161.5284
4739.048239 84.995 -162.2620
4773.389336 84.971 -162.9834
4807.979283 84.939 -163.6875
4842.819883 84.900 -164.3678
4877.912952 84.854 -165.0165
4913.260320 84.802 -165.6253
4948.863830 84.746 -166.1862
4984.725337 84.688 -166.6929
5020.846712 84.630 -167.1424
5057.229836 84.576 -167.5349
5093.876609 84.527 -167.8745
5130.788938 84.487 -168.1678
5167.968750 84.457 -168.4230
5205.417982 84.437 -168.6492
5243.138586 84.431 -168.8553
5281.132530 84.438 -169.0501
5319.401793 84.460 -169.2431
5357.948371 84.497 -169.4456
5396.774274 84.549 -169.6713
5435.881525 84.617 -169.9361
5475.272163 84.700 -170.2574
5514.948243 84.796 -170.6530
5554.911831 84.902 -171.1392
5595.165012 85.018 -171.7300
5635.709884 85.138 -172.4368
5676.548561 85.260 -173.2674
5717.683172 85.380 -174.2266
5759.115861 85.496 -175.3157
5800.848789 85.602 -176.5332
5842.884130 85.698 -177.8751
5885.224077 85.778 -179.3363
5927.870837 85.842 179.0893
5970.826633 85.884 177.4087
6014.093704 85.903 175.6312
6057.674306 85.895 173.7700
6101.570711 85.855 171.8429
6145.785208 85.782 169.8727
6190.320101 85.672 167.8860
6235.177712 85.523 165.9138
6280.360380 85.333 163.9907
6325.870460 85.101 162.1556
6371.710325 84.826 160.4522
6417.882365 84.509 158.9276
6464.388986 84.151 157.6310
6511.232613 83.756 156.6107
6558.415689 83.327 155.9113
6605.940673 82.872 155.5706
6653.810042 82.397 155.6183
6702.026292 81.911 156.0750
6750.591937 81.421 156.9515
6799.509509 80.938 158.2452
6848.781558 80.472 159.9348
6898.410653 80.033 161.9744
6948.399380 79.633 164.2924
6998.750346 79.277 166.7957
7049.466176 78.973 169.3814
7100.549514 78.722 171.9503
7152.003023 78.524 174.4186
7203.829385 78.373 176.7235
7256.031302 78.266 178.8221
7308.611496 78.197 -179.3123
7361.572708 78.157 -177.6968
7414.917698 78.141 -176.3425
7468.649249 78.141 -175.2563
7522.770160 78.149 -174.4399
7577.283253 78.157 -173.8868
7632.191371 78.154 -173.5793
7687.497376 78.133 -173.4853
7743.204151 78.083 -173.5544
7799.314600 77.998 -173.7161
7855.831649 77.873 -173.8791
7912.758244 77.706 -173.9320
7970.097352 77.497 -173.7433
8027.851962 77.255 -173.1604
8086.025087 76.990 -172.0071
8144.619758 76.720 -170.0880
8203.639030 76.469 -167.2069
8263.085980 76.267 -163.2137
8322.963708 76.148 -158.0906
8383.275334 76.138 -152.0552
8444.024002 76.256 -145.6023
8505.212881 76.500 -139.3906
8566.845160 76.854 -134.0072
8628.924051 77.291 -129.7880
8691.452792 77.777 -126.8039
8754.434642 78.285 -124.9526
8817.872884 78.791 -124.0580
8881.770826 79.277 -123.9318
8946.131799 79.734 -124.4008
9010.959157 80.155 -125.3168
9076.256282 80.540 -126.5600
9142.026576 80.889 -128.0374
9208.273470 81.205 -129.6796
9275.000415 81.494 -131.4380
9342.210891 81.758 -133.2805
9409.908403 82.001 -135.1876
9478.096478 82.227 -137.1494
9546.778672 82.440 -139.1620
9615.958566 82.640 -141.2258
9685.639765 82.832 -143.3439
9755.825904 83.017 -145.5212
9826.520640 83.198 -147.7648
9897.727659 83.377 -150.0845
9969.450674 83.556 -152.4945
10041.693423 83.737 -155.0136
10114.459673 83.921 -157.6649
10187.753217 84.106 -160.4750
10261.577877 84.289 -163.4709
10335.937500 84.466 -166.6772
10410.835964 84.629 -170.1126
10486.277173 84.771 -173.7885
10562.265060 84.882 -177.7066
10638.803587 84.955 178.1430
10715.896743 84.981 173.7827
10793.548548 84.951 169.2460
10871.763050 84.860 164.5759
10950.544327 84.704 159.8212
11029.896485 84.480 155.0338
11109.823662 84.189 150.2648
11190.330024 83.830 145.5612
11271.419768 83.407 140.9637
11353.097122 82.924 136.5046
11435.366344 82.385 132.2073
11518.231722 81.795 128.0859
11601.697577 81.159 124.1442
11685.768261 80.483 120.3766
11770.448155 79.773 116.7683
11855.741674 79.033 113.2959
11941.653265 78.268 109.9286
12028.187408 77.483 106.6307
12115.348612 76.681 103.3632
12203.141422 75.863 100.0858
12291.570415 75.033 96.7576
12380.640201 74.190 93.3359
12470.355424 73.334 89.7753
12560.720760 72.466 86.0241
12651.740920 71.585 82.0198
12743.420650 70.691 77.6795
12835.764729 69.784 72.8833
12928.777972 68.866 67.4444
13022.465227 67.942 61.0555
13116.831378 67.018 53.1872
13211.881345 66.108 42.9094
13307.620084 65.229 28.6660
13404.052584 64.407 8.5816
13501.183875 63.676 -16.7355
13599.019019 63.073 -41.1332
13697.563116 62.637 -59.4180
13796.821305 62.396 -71.8991
13896.798760 62.365 -80.5405
13997.500692 62.536 -86.8181
14098.932352 62.883 -91.6318
14201.099028 63.372 -95.5323
14304.006046 63.970 -98.8763
14407.658770 64.643 -101.9097
14512.062604 65.368 -104.8101
14617.222992 66.124 -107.7098
14723.145416 66.899 -110.7094
14829.835397 67.682 -113.8864
14937.298497 68.465 -117.3024
15045.540320 69.240 -121.0067
15154.566507 70.002 -125.0392
15264.382743 70.745 -129.4316
15374.994752 71.465 -134.2073
15486.408302 72.156 -139.3822
15598.629201 72.814 -144.9648
15711.663298 73.436 -150.9563
15825.516487 74.018 -157.3514
15940.194703 74.560 -164.1390
16055.703925 75.059 -171.3035
16172.050174 75.519 -178.8248
16289.239516 75.942 173.3186
16407.278061 76.333 165.1486
16526.171961 76.699 156.6846
16645.927415 77.050 147.9425
16766.550667 77.394 138.9307
16888.048005 77.742 129.6501
17010.425762 78.103 120.0917
17133.690320 78.482 110.2358
17257.848103 78.882 100.0528
17382.905584 79.301 89.5064
17508.869284 79.731 78.5568
17635.745768 80.163 67.1677
17763.541652 80.585 55.3143
17892.263597 80.987 42.9889
18021.918315 81.357 30.2081
18152.512564 81.690 17.0129
18284.053153 81.982 3.4642
18416.546939 82.233 -10.3707
18550.000830 82.444 -24.4490
18684.421783 82.618 -38.8008
18819.816805 82.758 -53.6367
18956.192956 82.866 -69.6138
19093.557344 82.943 -88.6641
19231.917131 82.990 -116.9203
19371.279531 83.012 -167.2817
19511.651807 83.013 144.0085
19653.041280 83.002 120.5072
19795.455318 82.987 109.3728
19938.901348 82.977 104.6350
