* Measurement data measured by REW V5.31.3
* Source: EXCL: Headset (USB-C to 3.5mm Headphone Jack Adapter), MICROPHONE (Master Volume), 0, volume: 0.750
* Format: 256k Log Swept Sine, 1 sweep at -12.0 dBFS with no timing reference
* Dated: Apr 7, 2025 5:03:20 PM
* REW Settings:
*  C-weighting compensation: Off
*  Target level: 75.0 dB
* Note: ; 
* Measurement: Maxwell (Wired) L1
* Smoothing: 1/6 octave
* Frequency Step: 96 ppo
* Start Frequency: 20.0 Hz
*
* Freq(Hz) SPL(dB) Phase(degrees)
20.187378 82.931 -30.1082
20.333664 82.954 -30.7550
20.481010 82.983 -31.6054
20.629424 83.014 -32.6129
20.778913 83.043 -33.7259
20.929486 83.070 -34.8914
21.081150 83.092 -36.0586
21.233912 83.111 -37.1820
21.387782 83.128 -38.2239
21.542767 83.147 -39.1570
21.698874 83.172 -39.9660
21.856113 83.207 -40.6496
22.014492 83.256 -41.2203
22.174018 83.320 -41.7030
22.334700 83.401 -42.1320
22.496546 83.496 -42.5468
22.659566 83.602 -42.9860
22.823766 83.714 -43.4828
22.989157 83.826 -44.0609
23.155745 83.932 -44.7319
23.323542 84.027 -45.4952
23.492554 84.107 -46.3394
23.662790 84.170 -47.2448
23.834261 84.215 -48.1871
24.006973 84.244 -49.1409
24.180938 84.260 -50.0841
24.356163 84.269 -51.0012
24.532658 84.275 -51.8862
24.710431 84.285 -52.7443
24.889493 84.303 -53.5920
25.069853 84.335 -54.4549
25.251519 84.380 -55.3642
25.434502 84.440 -56.3516
25.618811 84.511 -57.4451
25.804456 84.590 -58.6639
25.991445 84.673 -60.0165
26.179790 84.753 -61.4992
26.369500 84.828 -63.0970
26.560584 84.895 -64.7855
26.753053 84.951 -66.5332
26.946917 84.997 -68.3050
27.142185 85.035 -70.0651
27.338869 85.066 -71.7806
27.536977 85.094 -73.4242
27.736522 85.123 -74.9765
27.937512 85.155 -76.4277
28.139959 85.195 -77.7783
28.343872 85.243 -79.0379
28.549264 85.300 -80.2241
28.756143 85.365 -81.3592
28.964522 85.437 -82.4681
29.174411 85.513 -83.5745
29.385821 85.590 -84.6990
29.598763 85.665 -85.8567
29.813248 85.737 -87.0571
30.029287 85.803 -88.3027
30.246891 85.862 -89.5906
30.466073 85.914 -90.9126
30.686842 85.959 -92.2569
30.909212 85.999 -93.6094
31.133193 86.033 -94.9556
31.358797 86.063 -96.2818
31.586035 86.091 -97.5761
31.814921 86.116 -98.8296
32.045465 86.139 -100.0364
32.277680 86.161 -101.1932
32.511577 86.180 -102.2993
32.747169 86.197 -103.3554
32.984469 86.211 -104.3630
33.223488 86.223 -105.3242
33.464239 86.233 -106.2409
33.706735 86.242 -107.1149
33.950987 86.252 -107.9483
34.197010 86.265 -108.7435
34.444816 86.282 -109.5033
34.694417 86.305 -110.2310
34.945827 86.334 -110.9301
35.199059 86.371 -111.6044
35.454126 86.414 -112.2578
35.711041 86.464 -112.8939
35.969818 86.519 -113.5163
36.230470 86.579 -114.1290
36.493011 86.642 -114.7360
36.757455 86.708 -115.3417
37.023814 86.775 -115.9504
37.292104 86.844 -116.5658
37.562338 86.913 -117.1906
37.834530 86.982 -117.8256
38.108695 87.051 -118.4704
38.384846 87.120 -119.1228
38.662999 87.189 -119.7800
38.943167 87.259 -120.4394
39.225365 87.330 -121.0992
39.509608 87.401 -121.7593
39.795911 87.473 -122.4211
40.084289 87.545 -123.0871
40.374756 87.617 -123.7609
40.667328 87.688 -124.4457
40.962020 87.757 -125.1446
41.258848 87.825 -125.8603
41.557827 87.890 -126.5952
41.858972 87.955 -127.3518
42.162299 88.018 -128.1329
42.467824 88.081 -128.9422
42.775564 88.145 -129.7833
43.085533 88.210 -130.6600
43.397749 88.276 -131.5757
43.712227 88.343 -132.5325
44.028983 88.410 -133.5319
44.348036 88.477 -134.5740
44.669400 88.543 -135.6579
44.993093 88.605 -136.7814
45.319131 88.664 -137.9417
45.647532 88.717 -139.1352
45.978313 88.764 -140.3575
46.311491 88.804 -141.6040
46.647083 88.835 -142.8704
46.985107 88.858 -144.1527
47.325581 88.872 -145.4473
47.668521 88.877 -146.7515
48.013947 88.874 -148.0627
48.361876 88.863 -149.3786
48.712326 88.843 -150.6963
49.065315 88.816 -152.0130
49.420863 88.780 -153.3250
49.778987 88.738 -154.6280
50.139706 88.687 -155.9173
50.503039 88.630 -157.1879
50.869005 88.565 -158.4347
51.237623 88.493 -159.6531
51.608912 88.415 -160.8385
51.982891 88.331 -161.9874
52.359580 88.241 -163.0959
52.739000 88.146 -164.1609
53.121168 88.048 -165.1792
53.506106 87.946 -166.1485
53.893833 87.843 -167.0675
54.284370 87.738 -167.9362
54.677737 87.633 -168.7563
55.073955 87.526 -169.5307
55.473043 87.420 -170.2631
55.875024 87.312 -170.9575
56.279917 87.204 -171.6172
56.687745 87.096 -172.2451
57.098527 86.989 -172.8426
57.512287 86.883 -173.4099
57.929045 86.780 -173.9462
58.348822 86.680 -174.4506
58.771642 86.584 -174.9229
59.197525 86.492 -175.3644
59.626495 86.403 -175.7782
60.058573 86.316 -176.1686
60.493782 86.231 -176.5405
60.932145 86.149 -176.8987
61.373685 86.069 -177.2467
61.818424 85.992 -177.5873
62.266386 85.918 -177.9220
62.717593 85.847 -178.2518
63.172071 85.782 -178.5777
63.629842 85.720 -178.9007
64.090930 85.664 -179.2220
64.555359 85.612 -179.5422
65.023154 85.565 -179.8607
65.494339 85.522 179.8250
65.968938 85.484 179.5189
66.446976 85.451 179.2265
66.928478 85.421 178.9529
67.413469 85.395 178.7018
67.901975 85.373 178.4747
68.394021 85.352 178.2700
68.889632 85.333 178.0842
69.388835 85.315 177.9127
69.891655 85.296 177.7504
70.398118 85.278 177.5927
70.908252 85.258 177.4354
71.422083 85.238 177.2746
71.939636 85.218 177.1069
72.460941 85.197 176.9301
72.986023 85.175 176.7432
73.514909 85.154 176.5468
74.047629 85.132 176.3421
74.584208 85.110 176.1304
75.124676 85.088 175.9123
75.669061 85.065 175.6879
76.217390 85.041 175.4567
76.769692 85.016 175.2184
77.325997 84.991 174.9728
77.886333 84.965 174.7199
78.450730 84.938 174.4592
79.019216 84.910 174.1902
79.591822 84.882 173.9118
80.168577 84.854 173.6231
80.749512 84.825 173.3233
81.334656 84.796 173.0123
81.924040 84.766 172.6909
82.517696 84.736 172.3601
83.115653 84.704 172.0219
83.717943 84.671 171.6783
84.324598 84.637 171.3311
84.935649 84.601 170.9816
85.551128 84.564 170.6313
86.171066 84.525 170.2806
86.795497 84.485 169.9301
87.424453 84.443 169.5801
88.057967 84.400 169.2308
88.696071 84.355 168.8828
89.338800 84.309 168.5369
89.986185 84.262 168.1945
90.638262 84.213 167.8576
91.295065 84.163 167.5283
91.956626 84.113 167.2084
92.622982 84.061 166.8991
93.294166 84.009 166.6003
93.970214 83.956 166.3113
94.651161 83.902 166.0316
95.337042 83.847 165.7609
96.027894 83.793 165.4996
96.723752 83.738 165.2487
97.424652 83.683 165.0091
98.130631 83.629 164.7820
98.841726 83.575 164.5683
99.557974 83.523 164.3691
100.279412 83.471 164.1852
101.006078 83.422 164.0173
101.738010 83.374 163.8654
102.475245 83.327 163.7293
103.217823 83.283 163.6071
103.965782 83.241 163.4950
104.719161 83.200 163.3873
105.477999 83.160 163.2769
106.242336 83.122 163.1577
107.012212 83.085 163.0270
107.787666 83.049 162.8867
108.568740 83.015 162.7420
109.355474 82.983 162.5992
110.147909 82.954 162.4629
110.946086 82.926 162.3350
111.750047 82.902 162.2144
112.559834 82.880 162.0984
113.375489 82.860 161.9840
114.197055 82.844 161.8693
115.024574 82.829 161.7532
115.858089 82.816 161.6360
116.697645 82.805 161.5182
117.543284 82.795 161.3991
118.395051 82.787 161.2774
119.252990 82.779 161.1512
120.117147 82.771 161.0185
120.987565 82.764 160.8781
121.864291 82.757 160.7291
122.747370 82.750 160.5711
123.636848 82.744 160.4034
124.532771 82.737 160.2250
125.435187 82.730 160.0344
126.344142 82.724 159.8304
127.259684 82.717 159.6121
128.181860 82.710 159.3798
129.110718 82.701 159.1348
130.046308 82.691 158.8793
130.988677 82.680 158.6154
131.937875 82.666 158.3448
132.893951 82.649 158.0686
133.856956 82.629 157.7870
134.826938 82.607 157.4998
135.803950 82.581 157.2069
136.788041 82.553 156.9086
137.779264 82.520 156.6058
138.777669 82.485 156.3001
139.783309 82.445 155.9936
140.796237 82.400 155.6886
141.816504 82.351 155.3872
142.844165 82.298 155.0911
143.879273 82.240 154.8011
144.921881 82.178 154.5181
145.972045 82.111 154.2430
147.029819 82.040 153.9769
148.095257 81.965 153.7219
149.168417 81.887 153.4806
150.249353 81.806 153.2557
151.338121 81.722 153.0503
152.434780 81.637 152.8667
153.539385 81.549 152.7072
154.651995 81.460 152.5740
155.772667 81.370 152.4693
156.901460 81.280 152.3955
158.038432 81.189 152.3553
159.183644 81.098 152.3513
160.337154 81.009 152.3856
161.499023 80.921 152.4591
162.669312 80.835 152.5709
163.848081 80.752 152.7188
165.035392 80.671 152.9001
166.231306 80.594 153.1113
167.435887 80.522 153.3489
168.649196 80.453 153.6093
169.871298 80.390 153.8890
171.102255 80.330 154.1847
172.342133 80.275 154.4933
173.590995 80.224 154.8127
174.848907 80.177 155.1415
176.115934 80.134 155.4791
177.392143 80.093 155.8245
178.677599 80.055 156.1766
179.972371 80.021 156.5333
181.276525 79.989 156.8914
182.590129 79.960 157.2473
183.913252 79.934 157.5963
185.245964 79.912 157.9337
186.588332 79.893 158.2546
187.940428 79.877 158.5549
189.302322 79.864 158.8311
190.674085 79.854 159.0807
192.055788 79.848 159.3026
193.447503 79.844 159.4966
194.849303 79.843 159.6641
196.261262 79.844 159.8077
197.683452 79.848 159.9312
199.115948 79.852 160.0387
200.558824 79.857 160.1346
202.012156 79.863 160.2234
203.476019 79.868 160.3085
204.950490 79.873 160.3925
206.435646 79.877 160.4759
207.931564 79.881 160.5570
209.438322 79.884 160.6331
210.955998 79.887 160.7013
212.484672 79.889 160.7596
214.024424 79.891 160.8073
215.575333 79.893 160.8447
217.137481 79.895 160.8735
218.710948 79.897 160.8963
220.295818 79.900 160.9158
221.892172 79.904 160.9351
223.500094 79.910 160.9565
225.119668 79.916 160.9813
226.750978 79.923 161.0098
228.394109 79.931 161.0413
230.049147 79.940 161.0749
231.716178 79.949 161.1105
233.395289 79.958 161.1489
235.086567 79.968 161.1915
236.790102 79.978 161.2401
238.505980 79.988 161.2961
240.234293 80.000 161.3604
241.975130 80.013 161.4332
243.728581 80.028 161.5145
245.494739 80.044 161.6034
247.273695 80.062 161.6988
249.065542 80.081 161.7989
250.870374 80.103 161.9016
252.688284 80.125 162.0049
254.519367 80.150 162.1067
256.363720 80.177 162.2056
258.221437 80.206 162.3004
260.092616 80.237 162.3902
261.977354 80.270 162.4738
263.875750 80.306 162.5500
265.787903 80.345 162.6168
267.713911 80.387 162.6725
269.653877 80.431 162.7153
271.607900 80.477 162.7430
273.576083 80.526 162.7535
275.558528 80.576 162.7449
277.555338 80.627 162.7152
279.566619 80.678 162.6631
281.592474 80.729 162.5874
283.633009 80.780 162.4878
285.688331 80.829 162.3638
287.758546 80.877 162.2155
289.843763 80.924 162.0428
291.944090 80.968 161.8460
294.059638 81.010 161.6261
296.190515 81.050 161.3853
298.336833 81.087 161.1268
300.498705 81.121 160.8552
302.676243 81.153 160.5753
304.869559 81.181 160.2917
307.078770 81.206 160.0088
309.303989 81.227 159.7303
311.545334 81.245 159.4595
313.802919 81.259 159.1990
316.076865 81.269 158.9512
318.367288 81.276 158.7183
320.674309 81.280 158.5024
322.998047 81.282 158.3057
325.338624 81.281 158.1302
327.696162 81.278 157.9774
330.070783 81.274 157.8481
332.462612 81.269 157.7424
334.871773 81.264 157.6596
337.298392 81.259 157.5989
339.742595 81.253 157.5591
342.204510 81.248 157.5389
344.684265 81.242 157.5369
347.181989 81.238 157.5519
349.697813 81.233 157.5824
352.231868 81.230 157.6271
354.784285 81.227 157.6844
357.355198 81.225 157.7523
359.944741 81.225 157.8284
362.553049 81.225 157.9111
365.180258 81.227 157.9988
367.826505 81.231 158.0906
370.491927 81.236 158.1855
373.176665 81.244 158.2826
375.880856 81.254 158.3806
378.604644 81.267 158.4778
381.348169 81.283 158.5728
384.111575 81.302 158.6638
386.895006 81.325 158.7495
389.698607 81.351 158.8293
392.522524 81.380 158.9023
395.366904 81.412 158.9680
398.231895 81.447 159.0252
401.117648 81.484 159.0723
404.024312 81.523 159.1071
406.952038 81.564 159.1272
409.900981 81.606 159.1297
412.871292 81.649 159.1120
415.863128 81.692 159.0717
418.876643 81.736 159.0067
421.911996 81.780 158.9157
424.969344 81.823 158.7978
428.048847 81.866 158.6530
431.150666 81.908 158.4815
434.274961 81.948 158.2843
437.421897 81.986 158.0621
440.591636 82.022 157.8155
443.784345 82.056 157.5449
447.000189 82.088 157.2507
450.239337 82.118 156.9335
453.501956 82.145 156.5938
456.788219 82.170 156.2329
460.098294 82.193 155.8518
463.432356 82.215 155.4516
466.790578 82.234 155.0330
470.173135 82.252 154.5966
473.580203 82.268 154.1425
477.011961 82.281 153.6709
480.468586 82.293 153.1821
483.950259 82.301 152.6771
487.457163 82.307 152.1572
490.989478 82.310 151.6242
494.547390 82.309 151.0806
498.131084 82.305 150.5291
501.740748 82.298 149.9725
505.376568 82.286 149.4142
509.038735 82.271 148.8574
512.727439 82.252 148.3055
516.442874 82.230 147.7619
520.185232 82.205 147.2299
523.954708 82.177 146.7128
527.751500 82.147 146.2134
531.575805 82.116 145.7341
535.427822 82.083 145.2769
539.307753 82.051 144.8427
543.215800 82.019 144.4321
547.152165 81.988 144.0448
551.117055 81.959 143.6800
555.110677 81.932 143.3363
559.133237 81.908 143.0118
563.184947 81.887 142.7039
567.266018 81.868 142.4093
571.376661 81.853 142.1246
575.517092 81.840 141.8463
579.687526 81.830 141.5712
583.888181 81.821 141.2960
588.119275 81.815 141.0182
592.381030 81.809 140.7355
596.673667 81.804 140.4465
600.997410 81.798 140.1498
605.352485 81.792 139.8449
609.739119 81.785 139.5313
614.157540 81.776 139.2089
618.607979 81.765 138.8775
623.090667 81.751 138.5374
627.605839 81.734 138.1888
632.153730 81.714 137.8322
636.734576 81.690 137.4686
641.348617 81.662 137.0989
645.996094 81.630 136.7246
650.677248 81.594 136.3472
655.392323 81.552 135.9685
660.141566 81.506 135.5907
664.925224 81.455 135.2162
669.743546 81.399 134.8478
674.596784 81.337 134.4885
679.485191 81.270 134.1415
684.409020 81.198 133.8101
689.368530 81.120 133.4974
694.363979 81.038 133.2069
699.395626 80.949 132.9418
704.463736 80.857 132.7056
709.568570 80.759 132.5014
714.710396 80.657 132.3325
719.889483 80.550 132.2018
725.106099 80.440 132.1126
730.360516 80.326 132.0679
735.653010 80.208 132.0711
740.983855 80.088 132.1258
746.353329 79.965 132.2357
751.761713 79.841 132.4044
757.209288 79.717 132.6347
762.696339 79.594 132.9285
768.223151 79.472 133.2861
773.790013 79.355 133.7061
779.397214 79.242 134.1846
785.045047 79.136 134.7159
790.733808 79.038 135.2928
796.463791 78.949 135.9062
802.235296 78.870 136.5467
808.048623 78.802 137.2045
813.904077 78.744 137.8702
819.801961 78.696 138.5351
825.742584 78.659 139.1916
831.726255 78.632 139.8331
837.753287 78.614 140.4541
843.823992 78.606 141.0497
849.938689 78.606 141.6160
856.097695 78.614 142.1497
862.301332 78.629 142.6485
868.549922 78.651 143.1107
874.843793 78.678 143.5355
881.183272 78.710 143.9231
887.568689 78.747 144.2743
894.000378 78.788 144.5903
900.478673 78.832 144.8727
907.003913 78.880 145.1227
913.576437 78.932 145.3409
920.196588 78.986 145.5276
926.864712 79.044 145.6822
933.581156 79.105 145.8035
940.346270 79.169 145.8899
947.160407 79.236 145.9395
954.023921 79.306 145.9505
960.937172 79.377 145.9216
967.900519 79.449 145.8524
974.914325 79.521 145.7435
981.978956 79.592 145.5970
989.094780 79.663 145.4167
996.262169 79.731 145.2074
1003.481495 79.797 144.9748
1010.753136 79.860 144.7250
1018.077470 79.922 144.4631
1025.454879 79.981 144.1928
1032.885748 80.040 143.9157
1040.370463 80.098 143.6312
1047.909417 80.156 143.3370
1055.503000 80.212 143.0305
1063.151610 80.268 142.7090
1070.855645 80.321 142.3718
1078.615506 80.372 142.0199
1086.431599 80.418 141.6564
1094.304330 80.459 141.2864
1102.234110 80.495 140.9167
1110.221353 80.524 140.5550
1118.266475 80.548 140.2094
1126.369895 80.565 139.8879
1134.532035 80.577 139.5985
1142.753322 80.584 139.3483
1151.034184 80.586 139.1440
1159.375052 80.586 138.9913
1167.776361 80.584 138.8946
1176.238550 80.582 138.8569
1184.762060 80.582 138.8790
1193.347334 80.585 138.9590
1201.994821 80.593 139.0923
1210.704971 80.607 139.2714
1219.478238 80.630 139.4870
1228.315080 80.661 139.7290
1237.215957 80.700 139.9875
1246.181334 80.748 140.2543
1255.211678 80.804 140.5233
1264.307459 80.868 140.7905
1273.469152 80.939 141.0538
1282.697235 81.018 141.3107
1291.992188 81.106 141.5573
1301.354495 81.202 141.7867
1310.784647 81.307 141.9890
1320.283132 81.420 142.1523
1329.850448 81.540 142.2645
1339.487093 81.667 142.3147
1349.193569 81.798 142.2946
1358.970381 81.932 142.1990
1368.818041 82.067 142.0255
1378.737061 82.201 141.7744
1388.727958 82.334 141.4476
1398.791253 82.462 141.0491
1408.927471 82.586 140.5838
1419.137140 82.704 140.0576
1429.420793 82.815 139.4772
1439.778965 82.918 138.8500
1450.212197 83.013 138.1844
1460.721033 83.099 137.4890
1471.306019 83.175 136.7739
1481.967709 83.240 136.0502
1492.706658 83.294 135.3306
1503.523426 83.336 134.6292
1514.418576 83.369 133.9608
1525.392678 83.392 133.3400
1536.446302 83.407 132.7783
1547.580025 83.416 132.2829
1558.794428 83.423 131.8544
1570.090095 83.429 131.4868
1581.467615 83.435 131.1693
1592.927581 83.442 130.8884
1604.470591 83.451 130.6308
1616.097246 83.460 130.3852
1627.808153 83.468 130.1436
1639.603922 83.474 129.9015
1651.485168 83.476 129.6576
1663.452510 83.475 129.4131
1675.506573 83.470 129.1705
1687.647984 83.460 128.9335
1699.877377 83.446 128.7058
1712.195390 83.427 128.4911
1724.602663 83.403 128.2928
1737.099845 83.376 128.1144
1749.687587 83.346 127.9596
1762.366544 83.313 127.8310
1775.137379 83.279 127.7301
1788.000756 83.245 127.6552
1800.957346 83.212 127.6006
1814.007826 83.181 127.5571
1827.152874 83.153 127.5129
1840.393177 83.126 127.4571
1853.729425 83.100 127.3810
1867.162312 83.074 127.2803
1880.692540 83.044 127.1548
1894.320813 83.010 127.0082
1908.047843 82.970 126.8469
1921.874344 82.923 126.6786
1935.801038 82.869 126.5116
1949.828650 82.806 126.3539
1963.957912 82.736 126.2134
1978.189561 82.659 126.0980
1992.524338 82.573 126.0160
2006.962991 82.481 125.9764
2021.506272 82.382 125.9883
2036.154940 82.280 126.0590
2050.909758 82.174 126.1930
2065.771495 82.069 126.3897
2080.740927 81.966 126.6435
2095.818833 81.867 126.9440
2111.006001 81.775 127.2783
2126.303220 81.690 127.6328
2141.711290 81.612 127.9948
2157.231013 81.542 128.3535
2172.863198 81.479 128.6997
2188.608660 81.423 129.0260
2204.468221 81.372 129.3264
2220.442706 81.327 129.5964
2236.532950 81.286 129.8333
2252.739789 81.248 130.0357
2269.064070 81.212 130.2042
2285.506644 81.176 130.3408
2302.068367 81.139 130.4488
2318.750104 81.102 130.5332
2335.552723 81.062 130.6001
2352.477101 81.019 130.6566
2369.524119 80.973 130.7096
2386.694668 80.924 130.7660
2403.989641 80.871 130.8321
2421.409941 80.815 130.9150
2438.956476 80.755 131.0238
2456.630160 80.690 131.1711
2474.431915 80.621 131.3737
2492.362668 80.550 131.6523
2510.423356 80.476 132.0292
2528.614918 80.404 132.5256
2546.938304 80.338 133.1581
2565.394469 80.283 133.9349
2583.984375 80.245 134.8530
2602.708991 80.229 135.8963
2621.569293 80.239 137.0359
2640.566265 80.279 138.2324
2659.700897 80.351 139.4407
2678.974186 80.452 140.6160
2698.387137 80.581 141.7189
2717.940763 80.733 142.7192
2737.636082 80.904 143.5975
2757.474121 81.089 144.3444
2777.455915 81.284 144.9591
2797.582506 81.485 145.4464
2817.854942 81.691 145.8134
2838.274281 81.897 146.0681
2858.841586 82.103 146.2176
2879.557931 82.306 146.2683
2900.424394 82.504 146.2276
2921.442065 82.695 146.1044
2942.612039 82.877 145.9100
2963.935418 83.050 145.6583
2985.413316 83.212 145.3644
3007.046852 83.364 145.0441
3028.837153 83.505 144.7114
3050.785356 83.638 144.3769
3072.892604 83.764 144.0467
3095.160050 83.885 143.7213
3117.588856 84.001 143.3960
3140.180190 84.114 143.0620
3162.935230 84.224 142.7084
3185.855163 84.330 142.3234
3208.941182 84.432 141.8957
3232.194493 84.529 141.4150
3255.616307 84.619 140.8725
3279.207844 84.701 140.2610
3302.970336 84.772 139.5755
3326.905021 84.830 138.8135
3351.013146 84.872 137.9767
3375.295969 84.894 137.0730
3399.754755 84.893 136.1184
3424.390779 84.864 135.1383
3449.205326 84.805 134.1687
3474.199690 84.713 133.2559
3499.375173 84.587 132.4549
3524.733088 84.430 131.8268
3550.274757 84.245 131.4330
3576.001511 84.039 131.3270
3601.914692 83.823 131.5439
3628.015651 83.609 132.0897
3654.305748 83.412 132.9353
3680.786354 83.244 134.0195
3707.458849 83.114 135.2615
3734.324624 83.028 136.5781
3761.385080 82.988 137.8978
3788.641627 82.995 139.1663
3816.095686 83.044 140.3433
3843.748688 83.133 141.3971
3871.602076 83.258 142.2994
3899.657300 83.413 143.0270
3927.915825 83.592 143.5647
3956.379122 83.789 143.9068
3985.048676 83.997 144.0562
4013.925981 84.213 144.0197
4043.012544 84.430 143.8048
4072.309879 84.645 143.4179
4101.819515 84.855 142.8656
4131.542990 85.053 142.1572
4161.481854 85.237 141.3075
4191.637667 85.403 140.3364
4222.012001 85.548 139.2676
4252.606441 85.672 138.1260
4283.422580 85.773 136.9350
4314.462026 85.851 135.7147
4345.726396 85.908 134.4827
4377.217321 85.942 133.2543
4408.936442 85.954 132.0442
4440.885413 85.944 130.8673
4473.065899 85.914 129.7379
4505.479579 85.865 128.6690
4538.128141 85.798 127.6705
4571.013288 85.715 126.7483
4604.136735 85.620 125.9051
4637.500207 85.512 125.1411
4671.105446 85.395 124.4556
4704.954201 85.269 123.8489
4739.048239 85.134 123.3232
4773.389336 84.993 122.8820
4807.979283 84.846 122.5301
4842.819883 84.695 122.2723
4877.912952 84.542 122.1132
4913.260320 84.389 122.0563
4948.863830 84.239 122.1040
4984.725337 84.095 122.2559
5020.846712 83.959 122.5084
5057.229836 83.836 122.8534
5093.876609 83.728 123.2785
5130.788938 83.638 123.7684
5167.968750 83.568 124.3055
5205.417982 83.520 124.8716
5243.138586 83.495 125.4472
5281.132530 83.494 126.0122
5319.401793 83.516 126.5452
5357.948371 83.561 127.0247
5396.774274 83.629 127.4290
5435.881525 83.717 127.7375
5475.272163 83.822 127.9304
5514.948243 83.943 127.9881
5554.911831 84.075 127.8922
5595.165012 84.215 127.6256
5635.709884 84.357 127.1748
5676.548561 84.495 126.5312
5717.683172 84.625 125.6924
5759.115861 84.741 124.6624
5800.848789 84.837 123.4507
5842.884130 84.908 122.0720
5885.224077 84.950 120.5451
5927.870837 84.957 118.8935
5970.826633 84.927 117.1447
6014.093704 84.854 115.3308
6057.674306 84.737 113.4883
6101.570711 84.572 111.6579
6145.785208 84.358 109.8840
6190.320101 84.095 108.2145
6235.177712 83.781 106.7004
6280.360380 83.417 105.3955
6325.870460 83.006 104.3572
6371.710325 82.550 103.6456
6417.882365 82.053 103.3233
6464.388986 81.519 103.4538
6511.232613 80.957 104.1006
6558.415689 80.374 105.3246
6605.940673 79.779 107.1808
6653.810042 79.185 109.7134
6702.026292 78.603 112.9481
6750.591937 78.050 116.8842
6799.509509 77.539 121.4853
6848.781558 77.087 126.6717
6898.410653 76.707 132.3179
6948.399380 76.410 138.2600
6998.750346 76.207 144.3126
7049.466176 76.099 150.2917
7100.549514 76.087 156.0352
7152.003023 76.164 161.4163
7203.829385 76.323 166.3451
7256.031302 76.551 170.7653
7308.611496 76.837 174.6464
7361.572708 77.169 177.9769
7414.917698 77.532 -179.2417
7468.649249 77.916 -176.9998
7522.770160 78.307 -175.2826
7577.283253 78.695 -174.0713
7632.191371 79.067 -173.3415
7687.497376 79.412 -173.0595
7743.204151 79.718 -173.1774
7799.314600 79.973 -173.6290
7855.831649 80.169 -174.3258
7912.758244 80.298 -175.1545
7970.097352 80.355 -175.9752
8027.851962 80.340 -176.6200
8086.025087 80.257 -176.8939
8144.619758 80.120 -176.5806
8203.639030 79.948 -175.4587
8263.085980 79.766 -173.3358
8322.963708 79.609 -170.1101
8383.275334 79.507 -165.8561
8444.024002 79.488 -160.8905
8505.212881 79.567 -155.7411
8566.845160 79.739 -150.9842
8628.924051 79.987 -147.0473
8691.452792 80.284 -144.1142
8754.434642 80.600 -142.1570
8817.872884 80.912 -141.0239
8881.770826 81.202 -140.5167
8946.131799 81.458 -140.4380
9010.959157 81.678 -140.6134
9076.256282 81.862 -140.8999
9142.026576 82.018 -141.1881
9208.273470 82.153 -141.4018
9275.000415 82.278 -141.4970
9342.210891 82.403 -141.4603
9409.908403 82.537 -141.3050
9478.096478 82.688 -141.0661
9546.778672 82.860 -140.7928
9615.958566 83.055 -140.5409
9685.639765 83.270 -140.3644
9755.825904 83.504 -140.3099
9826.520640 83.753 -140.4139
9897.727659 84.012 -140.7039
9969.450674 84.278 -141.1995
10041.693423 84.545 -141.9125
10114.459673 84.810 -142.8484
10187.753217 85.069 -144.0086
10261.577877 85.319 -145.3926
10335.937500 85.558 -146.9995
10410.835964 85.783 -148.8284
10486.277173 85.989 -150.8782
10562.265060 86.174 -153.1473
10638.803587 86.333 -155.6320
10715.896743 86.462 -158.3253
10793.548548 86.557 -161.2162
10871.763050 86.613 -164.2891
10950.544327 86.626 -167.5238
11029.896485 86.593 -170.8957
11109.823662 86.509 -174.3757
11190.330024 86.373 -177.9320
11271.419768 86.181 178.4702
11353.097122 85.933 174.8680
11435.366344 85.628 171.2998
11518.231722 85.265 167.8041
11601.697577 84.846 164.4165
11685.768261 84.374 161.1670
11770.448155 83.852 158.0772
11855.741674 83.284 155.1578
11941.653265 82.677 152.4070
12028.187408 82.037 149.8101
12115.348612 81.369 147.3383
12203.141422 80.681 144.9484
12291.570415 79.980 142.5830
12380.640201 79.271 140.1715
12470.355424 78.562 137.6325
12560.720760 77.857 134.8769
12651.740920 77.160 131.8094
12743.420650 76.473 128.3293
12835.764729 75.796 124.3265
12928.777972 75.132 119.6726
13022.465227 74.478 114.2065
13116.831378 73.836 107.7125
13211.881345 73.210 99.8946
13307.620084 72.607 90.3606
13404.052584 72.036 78.6656
13501.183875 71.513 64.5240
13599.019019 71.054 48.2722
13697.563116 70.677 31.2409
13796.821305 70.395 15.2506
13896.798760 70.215 1.5006
13997.500692 70.137 -9.8024
14098.932352 70.153 -19.0168
14201.099028 70.248 -26.6271
14304.006046 70.405 -33.0542
14407.658770 70.606 -38.6204
14512.062604 70.837 -43.5619
14617.222992 71.084 -48.0513
14723.145416 71.337 -52.2157
14829.835397 71.588 -56.1500
14937.298497 71.831 -59.9255
15045.540320 72.063 -63.5964
15154.566507 72.282 -67.2043
15264.382743 72.487 -70.7812
15374.994752 72.679 -74.3527
15486.408302 72.859 -77.9401
15598.629201 73.031 -81.5623
15711.663298 73.198 -85.2374
15825.516487 73.365 -88.9846
15940.194703 73.537 -92.8248
16055.703925 73.720 -96.7816
16172.050174 73.917 -100.8821
16289.239516 74.135 -105.1564
16407.278061 74.376 -109.6376
16526.171961 74.643 -114.3615
16645.927415 74.935 -119.3652
16766.550667 75.250 -124.6879
16888.048005 75.584 -130.3671
17010.425762 75.930 -136.4384
17133.690320 76.282 -142.9314
17257.848103 76.631 -149.8674
17382.905584 76.971 -157.2560
17508.869284 77.299 -165.0939
17635.745768 77.614 -173.3653
17763.541652 77.920 177.9557
17892.263597 78.225 168.8986
18021.918315 78.539 159.4873
18152.512564 78.873 149.7268
18284.053153 79.234 139.5864
18416.546939 79.622 128.9793
18550.000830 80.033 117.7278
18684.421783 80.452 105.5049
18819.816805 80.865 91.7083
18956.192956 81.255 75.2221
19093.557344 81.607 54.1465
19231.917131 81.911 26.6492
19371.279531 82.160 -4.3350
19511.651807 82.353 -30.2688
19653.041280 82.492 -47.5361
19795.455318 82.580 -57.6509
19938.901348 82.623 -62.3146
