* Measurement data measured by REW V5.31.3
* Source: EXCL: Headset (USB-C to 3.5mm Headphone Jack Adapter), MICROPHONE (Master Volume), 0, volume: 0.750
* Format: 256k Log Swept Sine, 1 sweep at -12.0 dBFS with no timing reference
* Dated: Apr 7, 2025 5:01:23 PM
* REW Settings:
*  C-weighting compensation: Off
*  Target level: 75.0 dB
* Note: ; 
* Measurement: Maxwell (Wired) R7
* Smoothing: 1/6 octave
* Frequency Step: 96 ppo
* Start Frequency: 20.0 Hz
*
* Freq(Hz) SPL(dB) Phase(degrees)
20.187378 79.349 -28.6836
20.333664 79.370 -28.9297
20.481010 79.402 -29.2392
20.629424 79.448 -29.5790
20.778913 79.512 -29.9186
20.929486 79.597 -30.2362
21.081150 79.706 -30.5229
21.233912 79.842 -30.7848
21.387782 80.004 -31.0426
21.542767 80.191 -31.3277
21.698874 80.400 -31.6773
21.856113 80.624 -32.1284
22.014492 80.857 -32.7120
22.174018 81.092 -33.4486
22.334700 81.322 -34.3458
22.496546 81.541 -35.3977
22.659566 81.745 -36.5864
22.823766 81.931 -37.8846
22.989157 82.098 -39.2583
23.155745 82.246 -40.6710
23.323542 82.379 -42.0875
23.492554 82.499 -43.4774
23.662790 82.610 -44.8184
23.834261 82.717 -46.0987
24.006973 82.822 -47.3176
24.180938 82.929 -48.4852
24.356163 83.037 -49.6199
24.532658 83.147 -50.7450
24.710431 83.255 -51.8844
24.889493 83.357 -53.0588
25.069853 83.450 -54.2827
25.251519 83.530 -55.5624
25.434502 83.593 -56.8962
25.618811 83.638 -58.2752
25.804456 83.665 -59.6855
25.991445 83.675 -61.1108
26.179790 83.673 -62.5349
26.369500 83.663 -63.9453
26.560584 83.653 -65.3347
26.753053 83.649 -66.7032
26.946917 83.656 -68.0579
27.142185 83.680 -69.4127
27.338869 83.723 -70.7853
27.536977 83.785 -72.1944
27.736522 83.864 -73.6563
27.937512 83.956 -75.1820
28.139959 84.054 -76.7759
28.343872 84.154 -78.4349
28.549264 84.249 -80.1494
28.756143 84.336 -81.9043
28.964522 84.411 -83.6813
29.174411 84.473 -85.4601
29.385821 84.521 -87.2204
29.598763 84.556 -88.9431
29.813248 84.581 -90.6112
30.029287 84.597 -92.2106
30.246891 84.607 -93.7303
30.466073 84.614 -95.1627
30.686842 84.621 -96.5031
30.909212 84.630 -97.7501
31.133193 84.643 -98.9048
31.358797 84.660 -99.9712
31.586035 84.682 -100.9555
31.814921 84.710 -101.8663
32.045465 84.742 -102.7147
32.277680 84.780 -103.5142
32.511577 84.821 -104.2803
32.747169 84.867 -105.0303
32.984469 84.917 -105.7825
33.223488 84.969 -106.5552
33.464239 85.024 -107.3654
33.706735 85.080 -108.2279
33.950987 85.138 -109.1537
34.197010 85.195 -110.1494
34.444816 85.251 -111.2164
34.694417 85.305 -112.3507
34.945827 85.356 -113.5432
35.199059 85.403 -114.7805
35.454126 85.445 -116.0454
35.711041 85.482 -117.3191
35.969818 85.514 -118.5819
36.230470 85.542 -119.8152
36.493011 85.565 -121.0028
36.757455 85.584 -122.1317
37.023814 85.599 -123.1929
37.292104 85.612 -124.1808
37.562338 85.623 -125.0929
37.834530 85.632 -125.9291
38.108695 85.640 -126.6905
38.384846 85.647 -127.3794
38.662999 85.655 -127.9995
38.943167 85.666 -128.5565
39.225365 85.680 -129.0590
39.509608 85.701 -129.5192
39.795911 85.730 -129.9529
40.084289 85.768 -130.3784
40.374756 85.816 -130.8146
40.667328 85.873 -131.2788
40.962020 85.937 -131.7848
41.258848 86.008 -132.3417
41.557827 86.084 -132.9538
41.858972 86.163 -133.6214
42.162299 86.245 -134.3426
42.467824 86.328 -135.1147
42.775564 86.413 -135.9354
43.085533 86.497 -136.8038
43.397749 86.582 -137.7195
43.712227 86.665 -138.6830
44.028983 86.746 -139.6942
44.348036 86.822 -140.7521
44.669400 86.892 -141.8541
44.993093 86.955 -142.9965
45.319131 87.009 -144.1751
45.647532 87.056 -145.3860
45.978313 87.094 -146.6264
46.311491 87.126 -147.8947
46.647083 87.152 -149.1907
46.985107 87.172 -150.5139
47.325581 87.188 -151.8632
47.668521 87.199 -153.2353
48.013947 87.206 -154.6244
48.361876 87.206 -156.0227
48.712326 87.200 -157.4211
49.065315 87.186 -158.8099
49.420863 87.163 -160.1799
49.778987 87.130 -161.5227
50.139706 87.087 -162.8310
50.503039 87.034 -164.0987
50.869005 86.971 -165.3212
51.237623 86.898 -166.4957
51.608912 86.815 -167.6211
51.982891 86.725 -168.6979
52.359580 86.627 -169.7272
52.739000 86.522 -170.7109
53.121168 86.411 -171.6507
53.506106 86.295 -172.5494
53.893833 86.175 -173.4105
54.284370 86.053 -174.2382
54.677737 85.931 -175.0374
55.073955 85.810 -175.8123
55.473043 85.692 -176.5659
55.875024 85.579 -177.2996
56.279917 85.471 -178.0136
56.687745 85.369 -178.7073
57.098527 85.275 -179.3793
57.512287 85.187 179.9715
57.929045 85.104 179.3465
58.348822 85.026 178.7463
58.771642 84.949 178.1709
59.197525 84.873 177.6194
59.626495 84.794 177.0912
60.058573 84.712 176.5860
60.493782 84.627 176.1041
60.932145 84.538 175.6456
61.373685 84.447 175.2100
61.818424 84.358 174.7959
62.266386 84.271 174.4012
62.717593 84.189 174.0246
63.172071 84.113 173.6649
63.629842 84.044 173.3215
64.090930 83.981 172.9936
64.555359 83.926 172.6793
65.023154 83.877 172.3770
65.494339 83.833 172.0855
65.968938 83.795 171.8046
66.446976 83.760 171.5350
66.928478 83.730 171.2771
67.413469 83.701 171.0300
67.901975 83.676 170.7912
68.394021 83.652 170.5568
68.889632 83.631 170.3226
69.388835 83.612 170.0855
69.891655 83.595 169.8441
70.398118 83.582 169.5993
70.908252 83.571 169.3538
71.422083 83.562 169.1108
71.939636 83.554 168.8726
72.460941 83.547 168.6403
72.986023 83.538 168.4122
73.514909 83.528 168.1855
74.047629 83.515 167.9558
74.584208 83.500 167.7192
75.124676 83.483 167.4726
75.669061 83.464 167.2146
76.217390 83.444 166.9450
76.769692 83.423 166.6642
77.325997 83.401 166.3726
77.886333 83.379 166.0702
78.450730 83.356 165.7568
79.019216 83.334 165.4321
79.591822 83.310 165.0959
80.168577 83.287 164.7485
80.749512 83.263 164.3901
81.334656 83.239 164.0203
81.924040 83.215 163.6389
82.517696 83.190 163.2455
83.115653 83.165 162.8411
83.717943 83.138 162.4267
84.324598 83.111 162.0046
84.935649 83.083 161.5767
85.551128 83.053 161.1448
86.171066 83.022 160.7099
86.795497 82.990 160.2724
87.424453 82.955 159.8327
88.057967 82.919 159.3917
88.696071 82.880 158.9504
89.338800 82.840 158.5099
89.986185 82.797 158.0713
90.638262 82.753 157.6354
91.295065 82.706 157.2033
91.956626 82.659 156.7762
92.622982 82.609 156.3550
93.294166 82.559 155.9400
93.970214 82.508 155.5309
94.651161 82.456 155.1271
95.337042 82.404 154.7283
96.027894 82.352 154.3345
96.723752 82.300 153.9460
97.424652 82.248 153.5635
98.130631 82.196 153.1877
98.841726 82.144 152.8189
99.557974 82.091 152.4573
100.279412 82.037 152.1029
101.006078 81.982 151.7552
101.738010 81.927 151.4139
102.475245 81.871 151.0784
103.217823 81.815 150.7491
103.965782 81.760 150.4271
104.719161 81.707 150.1156
105.477999 81.657 149.8187
106.242336 81.611 149.5411
107.012212 81.569 149.2856
107.787666 81.532 149.0526
108.568740 81.500 148.8398
109.355474 81.470 148.6435
110.147909 81.444 148.4585
110.946086 81.420 148.2799
111.750047 81.398 148.1031
112.559834 81.377 147.9248
113.375489 81.358 147.7426
114.197055 81.340 147.5557
115.024574 81.323 147.3641
115.858089 81.306 147.1683
116.697645 81.291 146.9683
117.543284 81.277 146.7640
118.395051 81.265 146.5541
119.252990 81.254 146.3372
120.117147 81.245 146.1108
120.987565 81.238 145.8732
121.864291 81.233 145.6226
122.747370 81.228 145.3582
123.636848 81.222 145.0798
124.532771 81.217 144.7874
125.435187 81.210 144.4812
126.344142 81.201 144.1614
127.259684 81.190 143.8279
128.181860 81.177 143.4803
129.110718 81.161 143.1184
130.046308 81.143 142.7422
130.988677 81.122 142.3518
131.937875 81.098 141.9477
132.893951 81.071 141.5306
133.856956 81.040 141.1019
134.826938 81.007 140.6633
135.803950 80.970 140.2165
136.788041 80.929 139.7636
137.779264 80.884 139.3073
138.777669 80.836 138.8501
139.783309 80.782 138.3951
140.796237 80.724 137.9451
141.816504 80.661 137.5028
142.844165 80.594 137.0701
143.879273 80.522 136.6489
144.921881 80.445 136.2408
145.972045 80.365 135.8476
147.029819 80.280 135.4714
148.095257 80.192 135.1141
149.168417 80.100 134.7772
150.249353 80.005 134.4622
151.338121 79.908 134.1696
152.434780 79.809 133.8998
153.539385 79.708 133.6532
154.651995 79.606 133.4306
155.772667 79.503 133.2339
156.901460 79.400 133.0660
158.038432 79.297 132.9303
159.183644 79.195 132.8299
160.337154 79.094 132.7670
161.499023 78.995 132.7424
162.669312 78.897 132.7553
163.848081 78.801 132.8044
165.035392 78.706 132.8872
166.231306 78.614 133.0010
167.435887 78.524 133.1424
168.649196 78.436 133.3078
169.871298 78.351 133.4940
171.102255 78.270 133.6984
172.342133 78.192 133.9192
173.590995 78.117 134.1560
174.848907 78.047 134.4095
176.115934 77.982 134.6809
177.392143 77.921 134.9714
178.677599 77.865 135.2809
179.972371 77.814 135.6086
181.276525 77.769 135.9520
182.590129 77.729 136.3076
183.913252 77.695 136.6708
185.245964 77.665 137.0366
186.588332 77.640 137.4000
187.940428 77.620 137.7559
189.302322 77.603 138.0994
190.674085 77.589 138.4258
192.055788 77.578 138.7306
193.447503 77.570 139.0103
194.849303 77.563 139.2618
196.261262 77.559 139.4832
197.683452 77.556 139.6740
199.115948 77.555 139.8353
200.558824 77.555 139.9708
202.012156 77.557 140.0857
203.476019 77.560 140.1862
204.950490 77.564 140.2770
206.435646 77.570 140.3612
207.931564 77.576 140.4393
209.438322 77.582 140.5104
210.955998 77.589 140.5731
212.484672 77.596 140.6260
214.024424 77.604 140.6694
215.575333 77.612 140.7050
217.137481 77.620 140.7354
218.710948 77.631 140.7634
220.295818 77.642 140.7911
221.892172 77.655 140.8198
223.500094 77.668 140.8500
225.119668 77.683 140.8814
226.750978 77.698 140.9126
228.394109 77.714 140.9420
230.049147 77.730 140.9684
231.716178 77.747 140.9912
233.395289 77.764 141.0115
235.086567 77.781 141.0309
236.790102 77.799 141.0508
238.505980 77.817 141.0716
240.234293 77.837 141.0928
241.975130 77.859 141.1136
243.728581 77.882 141.1335
245.494739 77.907 141.1523
247.273695 77.933 141.1698
249.065542 77.962 141.1854
250.870374 77.991 141.1982
252.688284 78.023 141.2068
254.519367 78.055 141.2096
256.363720 78.089 141.2048
258.221437 78.125 141.1910
260.092616 78.162 141.1673
261.977354 78.201 141.1338
263.875750 78.242 141.0912
265.787903 78.284 141.0406
267.713911 78.328 140.9828
269.653877 78.372 140.9182
271.607900 78.418 140.8468
273.576083 78.465 140.7681
275.558528 78.512 140.6811
277.555338 78.561 140.5849
279.566619 78.609 140.4786
281.592474 78.659 140.3614
283.633009 78.710 140.2327
285.688331 78.762 140.0922
287.758546 78.815 139.9402
289.843763 78.868 139.7773
291.944090 78.923 139.6040
294.059638 78.978 139.4212
296.190515 79.033 139.2293
298.336833 79.088 139.0288
300.498705 79.144 138.8199
302.676243 79.200 138.6029
304.869559 79.256 138.3777
307.078770 79.313 138.1439
309.303989 79.370 137.9003
311.545334 79.427 137.6459
313.802919 79.483 137.3796
316.076865 79.540 137.1007
318.367288 79.596 136.8089
320.674309 79.651 136.5043
322.998047 79.706 136.1875
325.338624 79.759 135.8594
327.696162 79.811 135.5208
330.070783 79.862 135.1730
332.462612 79.912 134.8168
334.871773 79.960 134.4535
337.298392 80.006 134.0840
339.742595 80.050 133.7089
342.204510 80.093 133.3290
344.684265 80.132 132.9445
347.181989 80.170 132.5552
349.697813 80.206 132.1605
352.231868 80.239 131.7594
354.784285 80.270 131.3508
357.355198 80.298 130.9336
359.944741 80.324 130.5069
362.553049 80.348 130.0705
365.180258 80.370 129.6247
367.826505 80.389 129.1705
370.491927 80.407 128.7094
373.176665 80.423 128.2428
375.880856 80.436 127.7723
378.604644 80.448 127.2992
381.348169 80.458 126.8249
384.111575 80.467 126.3509
386.895006 80.473 125.8788
389.698607 80.478 125.4103
392.522524 80.481 124.9471
395.366904 80.481 124.4905
398.231895 80.480 124.0417
401.117648 80.476 123.6019
404.024312 80.471 123.1721
406.952038 80.463 122.7535
409.900981 80.454 122.3471
412.871292 80.443 121.9536
415.863128 80.431 121.5735
418.876643 80.418 121.2063
421.911996 80.405 120.8507
424.969344 80.392 120.5043
428.048847 80.380 120.1636
431.150666 80.369 119.8249
434.274961 80.358 119.4838
437.421897 80.348 119.1358
440.591636 80.339 118.7770
443.784345 80.330 118.4043
447.000189 80.322 118.0156
450.239337 80.313 117.6099
453.501956 80.304 117.1873
456.788219 80.294 116.7489
460.098294 80.284 116.2964
463.432356 80.272 115.8318
466.790578 80.259 115.3575
470.173135 80.246 114.8757
473.580203 80.231 114.3886
477.011961 80.216 113.8977
480.468586 80.200 113.4040
483.950259 80.184 112.9081
487.457163 80.167 112.4100
490.989478 80.151 111.9093
494.547390 80.135 111.4054
498.131084 80.119 110.8975
501.740748 80.104 110.3846
505.376568 80.089 109.8660
509.038735 80.075 109.3411
512.727439 80.060 108.8096
516.442874 80.046 108.2711
520.185232 80.032 107.7256
523.954708 80.018 107.1731
527.751500 80.004 106.6138
531.575805 79.989 106.0482
535.427822 79.975 105.4767
539.307753 79.960 104.9003
543.215800 79.944 104.3203
547.152165 79.929 103.7383
551.117055 79.912 103.1561
555.110677 79.896 102.5758
559.133237 79.879 101.9997
563.184947 79.861 101.4300
567.266018 79.842 100.8686
571.376661 79.822 100.3171
575.517092 79.801 99.7769
579.687526 79.780 99.2487
583.888181 79.757 98.7332
588.119275 79.733 98.2304
592.381030 79.708 97.7406
596.673667 79.683 97.2633
600.997410 79.656 96.7980
605.352485 79.629 96.3440
609.739119 79.601 95.8999
614.157540 79.572 95.4643
618.607979 79.543 95.0355
623.090667 79.513 94.6116
627.605839 79.482 94.1907
632.153730 79.450 93.7710
636.734576 79.417 93.3506
641.348617 79.383 92.9279
645.996094 79.347 92.5014
650.677248 79.309 92.0701
655.392323 79.269 91.6334
660.141566 79.226 91.1911
664.925224 79.179 90.7438
669.743546 79.129 90.2924
674.596784 79.075 89.8388
679.485191 79.017 89.3855
684.409020 78.953 88.9358
689.368530 78.884 88.4937
694.363979 78.809 88.0638
699.395626 78.729 87.6516
704.463736 78.643 87.2626
709.568570 78.551 86.9030
714.710396 78.454 86.5789
719.889483 78.351 86.2962
725.106099 78.245 86.0608
730.360516 78.135 85.8775
735.653010 78.021 85.7505
740.983855 77.906 85.6828
746.353329 77.791 85.6761
751.761713 77.675 85.7309
757.209288 77.562 85.8461
762.696339 77.451 86.0193
768.223151 77.345 86.2463
773.790013 77.244 86.5217
779.397214 77.150 86.8390
785.045047 77.065 87.1903
790.733808 76.987 87.5676
796.463791 76.919 87.9621
802.235296 76.861 88.3654
808.048623 76.813 88.7693
813.904077 76.774 89.1665
819.801961 76.745 89.5505
825.742584 76.724 89.9160
831.726255 76.712 90.2587
837.753287 76.708 90.5756
843.823992 76.712 90.8641
849.938689 76.721 91.1228
856.097695 76.737 91.3505
862.301332 76.758 91.5467
868.549922 76.784 91.7113
874.843793 76.814 91.8444
881.183272 76.848 91.9465
887.568689 76.886 92.0183
894.000378 76.927 92.0607
900.478673 76.970 92.0748
907.003913 77.016 92.0623
913.576437 77.065 92.0244
920.196588 77.117 91.9630
926.864712 77.171 91.8792
933.581156 77.229 91.7742
940.346270 77.290 91.6487
947.160407 77.354 91.5025
954.023921 77.422 91.3350
960.937172 77.495 91.1448
967.900519 77.571 90.9300
974.914325 77.652 90.6880
981.978956 77.737 90.4156
989.094780 77.826 90.1097
996.262169 77.919 89.7668
1003.481495 78.015 89.3837
1010.753136 78.112 88.9576
1018.077470 78.212 88.4863
1025.454879 78.312 87.9681
1032.885748 78.411 87.4020
1040.370463 78.508 86.7878
1047.909417 78.602 86.1266
1055.503000 78.692 85.4202
1063.151610 78.776 84.6721
1070.855645 78.853 83.8872
1078.615506 78.922 83.0721
1086.431599 78.981 82.2353
1094.304330 79.030 81.3866
1102.234110 79.068 80.5380
1110.221353 79.095 79.7024
1118.266475 79.110 78.8940
1126.369895 79.114 78.1272
1134.532035 79.108 77.4163
1142.753322 79.095 76.7742
1151.034184 79.075 76.2116
1159.375052 79.051 75.7363
1167.776361 79.027 75.3524
1176.238550 79.006 75.0598
1184.762060 78.989 74.8542
1193.347334 78.980 74.7277
1201.994821 78.980 74.6687
1210.704971 78.993 74.6634
1219.478238 79.018 74.6962
1228.315080 79.056 74.7513
1237.215957 79.108 74.8134
1246.181334 79.173 74.8680
1255.211678 79.249 74.9028
1264.307459 79.337 74.9072
1273.469152 79.435 74.8724
1282.697235 79.542 74.7916
1291.992188 79.655 74.6594
1301.354495 79.775 74.4720
1310.784647 79.899 74.2267
1320.283132 80.027 73.9218
1329.850448 80.157 73.5564
1339.487093 80.288 73.1306
1349.193569 80.419 72.6447
1358.970381 80.549 72.0998
1368.818041 80.677 71.4974
1378.737061 80.804 70.8394
1388.727958 80.927 70.1279
1398.791253 81.046 69.3659
1408.927471 81.161 68.5565
1419.137140 81.270 67.7039
1429.420793 81.374 66.8129
1439.778965 81.471 65.8895
1450.212197 81.562 64.9405
1460.721033 81.645 63.9733
1471.306019 81.720 62.9957
1481.967709 81.787 62.0155
1492.706658 81.847 61.0403
1503.523426 81.899 60.0768
1514.418576 81.943 59.1311
1525.392678 81.981 58.2083
1536.446302 82.011 57.3129
1547.580025 82.035 56.4489
1558.794428 82.053 55.6204
1570.090095 82.065 54.8306
1581.467615 82.071 54.0825
1592.927581 82.074 53.3776
1604.470591 82.072 52.7163
1616.097246 82.068 52.0972
1627.808153 82.063 51.5173
1639.603922 82.056 50.9722
1651.485168 82.050 50.4563
1663.452510 82.043 49.9634
1675.506573 82.037 49.4870
1687.647984 82.032 49.0207
1699.877377 82.027 48.5587
1712.195390 82.023 48.0961
1724.602663 82.019 47.6288
1737.099845 82.014 47.1545
1749.687587 82.008 46.6722
1762.366544 82.000 46.1826
1775.137379 81.990 45.6880
1788.000756 81.977 45.1920
1800.957346 81.962 44.6988
1814.007826 81.944 44.2124
1827.152874 81.923 43.7360
1840.393177 81.901 43.2705
1853.729425 81.878 42.8144
1867.162312 81.856 42.3631
1880.692540 81.832 41.9098
1894.320813 81.809 41.4471
1908.047843 81.784 40.9685
1921.874344 81.757 40.4702
1935.801038 81.726 39.9519
1949.828650 81.689 39.4169
1963.957912 81.645 38.8716
1978.189561 81.594 38.3246
1992.524338 81.536 37.7850
2006.962991 81.470 37.2615
2021.506272 81.398 36.7614
2036.154940 81.321 36.2892
2050.909758 81.240 35.8470
2065.771495 81.156 35.4344
2080.740927 81.071 35.0489
2095.818833 80.986 34.6867
2111.006001 80.901 34.3439
2126.303220 80.817 34.0165
2141.711290 80.734 33.7007
2157.231013 80.653 33.3927
2172.863198 80.574 33.0887
2188.608660 80.495 32.7850
2204.468221 80.419 32.4785
2220.442706 80.342 32.1674
2236.532950 80.265 31.8521
2252.739789 80.188 31.5344
2269.064070 80.109 31.2177
2285.506644 80.027 30.9066
2302.068367 79.943 30.6062
2318.750104 79.856 30.3229
2335.552723 79.766 30.0648
2352.477101 79.671 29.8424
2369.524119 79.572 29.6688
2386.694668 79.470 29.5601
2403.989641 79.366 29.5336
2421.409941 79.262 29.6059
2438.956476 79.160 29.7898
2456.630160 79.066 30.0912
2474.431915 78.984 30.5080
2492.362668 78.917 31.0296
2510.423356 78.870 31.6391
2528.614918 78.846 32.3152
2546.938304 78.846 33.0343
2565.394469 78.870 33.7728
2583.984375 78.920 34.5088
2602.708991 78.994 35.2235
2621.569293 79.092 35.9010
2640.566265 79.211 36.5279
2659.700897 79.350 37.0923
2678.974186 79.507 37.5832
2698.387137 79.682 37.9904
2717.940763 79.870 38.3052
2737.636082 80.070 38.5209
2757.474121 80.280 38.6333
2777.455915 80.496 38.6403
2797.582506 80.718 38.5419
2817.854942 80.942 38.3393
2838.274281 81.167 38.0342
2858.841586 81.390 37.6287
2879.557931 81.610 37.1258
2900.424394 81.824 36.5300
2921.442065 82.031 35.8481
2942.612039 82.228 35.0890
2963.935418 82.414 34.2637
2985.413316 82.588 33.3845
3007.046852 82.750 32.4641
3028.837153 82.900 31.5144
3050.785356 83.037 30.5458
3072.892604 83.164 29.5662
3095.160050 83.280 28.5800
3117.588856 83.386 27.5882
3140.180190 83.483 26.5890
3162.935230 83.571 25.5788
3185.855163 83.650 24.5536
3208.941182 83.720 23.5099
3232.194493 83.779 22.4451
3255.616307 83.827 21.3572
3279.207844 83.862 20.2451
3302.970336 83.884 19.1086
3326.905021 83.890 17.9512
3351.013146 83.878 16.7806
3375.295969 83.846 15.6112
3399.754755 83.792 14.4633
3424.390779 83.714 13.3640
3449.205326 83.612 12.3456
3474.199690 83.487 11.4448
3499.375173 83.341 10.6997
3524.733088 83.179 10.1455
3550.274757 83.008 9.8079
3576.001511 82.837 9.6958
3601.914692 82.676 9.7957
3628.015651 82.533 10.0707
3654.305748 82.417 10.4659
3680.786354 82.332 10.9193
3707.458849 82.279 11.3745
3734.324624 82.255 11.7907
3761.385080 82.258 12.1469
3788.641627 82.283 12.4391
3816.095686 82.329 12.6737
3843.748688 82.394 12.8589
3871.602076 82.479 12.9973
3899.657300 82.583 13.0812
3927.915825 82.707 13.0936
3956.379122 82.848 13.0134
3985.048676 83.003 12.8220
4013.925981 83.166 12.5087
4043.012544 83.335 12.0720
4072.309879 83.504 11.5187
4101.819515 83.672 10.8596
4131.542990 83.834 10.1077
4161.481854 83.989 9.2756
4191.637667 84.137 8.3746
4222.012001 84.276 7.4151
4252.606441 84.404 6.4062
4283.422580 84.522 5.3575
4314.462026 84.628 4.2778
4345.726396 84.723 3.1755
4377.217321 84.806 2.0572
4408.936442 84.877 0.9275
4440.885413 84.937 -0.2104
4473.065899 84.985 -1.3539
4505.479579 85.021 -2.4997
4538.128141 85.046 -3.6437
4571.013288 85.057 -4.7809
4604.136735 85.057 -5.9058
4637.500207 85.044 -7.0127
4671.105446 85.020 -8.0964
4704.954201 84.985 -9.1516
4739.048239 84.939 -10.1725
4773.389336 84.883 -11.1528
4807.979283 84.818 -12.0852
4842.819883 84.745 -12.9610
4877.912952 84.665 -13.7712
4913.260320 84.580 -14.5073
4948.863830 84.493 -15.1627
4984.725337 84.406 -15.7345
5020.846712 84.323 -16.2230
5057.229836 84.246 -16.6321
5093.876609 84.178 -16.9680
5130.788938 84.121 -17.2382
5167.968750 84.077 -17.4510
5205.417982 84.049 -17.6145
5243.138586 84.036 -17.7374
5281.132530 84.042 -17.8302
5319.401793 84.067 -17.9056
5357.948371 84.112 -17.9799
5396.774274 84.179 -18.0717
5435.881525 84.266 -18.2017
5475.272163 84.372 -18.3911
5514.948243 84.496 -18.6599
5554.911831 84.635 -19.0259
5595.165012 84.785 -19.5043
5635.709884 84.944 -20.1068
5676.548561 85.108 -20.8419
5717.683172 85.273 -21.7152
5759.115861 85.436 -22.7296
5800.848789 85.594 -23.8862
5842.884130 85.743 -25.1854
5885.224077 85.880 -26.6268
5927.870837 86.001 -28.2090
5970.826633 86.102 -29.9274
6014.093704 86.179 -31.7737
6057.674306 86.227 -33.7341
6101.570711 86.242 -35.7894
6145.785208 86.219 -37.9150
6190.320101 86.156 -40.0803
6235.177712 86.048 -42.2492
6280.360380 85.894 -44.3801
6325.870460 85.691 -46.4264
6371.710325 85.439 -48.3374
6417.882365 85.139 -50.0599
6464.388986 84.793 -51.5401
6511.232613 84.404 -52.7256
6558.415689 83.979 -53.5667
6605.940673 83.522 -54.0165
6653.810042 83.040 -54.0326
6702.026292 82.543 -53.5778
6750.591937 82.040 -52.6255
6799.509509 81.543 -51.1650
6848.781558 81.062 -49.2087
6898.410653 80.612 -46.7965
6948.399380 80.205 -43.9963
6998.750346 79.851 -40.9003
7049.466176 79.561 -37.6160
7100.549514 79.338 -34.2557
7152.003023 79.187 -30.9271
7203.829385 79.106 -27.7272
7256.031302 79.093 -24.7397
7308.611496 79.140 -22.0353
7361.572708 79.240 -19.6721
7414.917698 79.382 -17.6966
7468.649249 79.555 -16.1409
7522.770160 79.746 -15.0219
7577.283253 79.941 -14.3400
7632.191371 80.127 -14.0792
7687.497376 80.291 -14.2059
7743.204151 80.421 -14.6694
7799.314600 80.506 -15.4026
7855.831649 80.537 -16.3239
7912.758244 80.509 -17.3384
7970.097352 80.417 -18.3380
8027.851962 80.260 -19.2018
8086.025087 80.040 -19.7953
8144.619758 79.763 -19.9717
8203.639030 79.439 -19.5740
8263.085980 79.085 -18.4411
8322.963708 78.719 -16.4231
8383.275334 78.370 -13.4113
8444.024002 78.066 -9.3878
8505.212881 77.837 -4.4823
8566.845160 77.708 1.0004
8628.924051 77.694 6.6235
8691.452792 77.794 11.9340
8754.434642 77.995 16.5880
8817.872884 78.275 20.4122
8881.770826 78.610 23.3878
8946.131799 78.977 25.5940
9010.959157 79.358 27.1523
9076.256282 79.741 28.1884
9142.026576 80.119 28.8128
9208.273470 80.488 29.1147
9275.000415 80.846 29.1607
9342.210891 81.193 28.9986
9409.908403 81.530 28.6597
9478.096478 81.858 28.1630
9546.778672 82.179 27.5184
9615.958566 82.493 26.7289
9685.639765 82.802 25.7933
9755.825904 83.106 24.7072
9826.520640 83.406 23.4632
9897.727659 83.701 22.0513
9969.450674 83.991 20.4591
10041.693423 84.274 18.6730
10114.459673 84.549 16.6782
10187.753217 84.812 14.4600
10261.577877 85.057 12.0049
10335.937500 85.280 9.3037
10410.835964 85.472 6.3528
10486.277173 85.627 3.1572
10562.265060 85.735 -0.2666
10638.803587 85.789 -3.8903
10715.896743 85.782 -7.6727
10793.548548 85.708 -11.5632
10871.763050 85.564 -15.5037
10950.544327 85.346 -19.4329
11029.896485 85.057 -23.2905
11109.823662 84.697 -27.0204
11190.330024 84.272 -30.5748
11271.419768 83.784 -33.9163
11353.097122 83.242 -37.0187
11435.366344 82.652 -39.8691
11518.231722 82.020 -42.4678
11601.697577 81.354 -44.8279
11685.768261 80.661 -46.9752
11770.448155 79.947 -48.9459
11855.741674 79.220 -50.7854
11941.653265 78.483 -52.5449
12028.187408 77.742 -54.2783
12115.348612 76.998 -56.0397
12203.141422 76.255 -57.8812
12291.570415 75.513 -59.8533
12380.640201 74.771 -62.0057
12470.355424 74.030 -64.3895
12560.720760 73.287 -67.0596
12651.740920 72.544 -70.0785
12743.420650 71.797 -73.5198
12835.764729 71.049 -77.4723
12928.777972 70.297 -82.0444
13022.465227 69.544 -87.3671
13116.831378 68.792 -93.5939
13211.881345 68.047 -100.8885
13307.620084 67.315 -109.3834
13404.052584 66.612 -119.0909
13501.183875 65.956 -129.7756
13599.019019 65.373 -140.8748
13697.563116 64.895 -151.6030
13796.821305 64.557 -161.2421
13896.798760 64.385 -169.3899
13997.500692 64.397 -175.9928
14098.932352 64.588 178.7730
14201.099028 64.939 174.6353
14304.006046 65.418 171.3116
14407.658770 65.993 168.5510
14512.062604 66.633 166.1472
14617.222992 67.314 163.9382
14723.145416 68.017 161.8005
14829.835397 68.732 159.6402
14937.298497 69.448 157.3856
15045.540320 70.159 154.9805
15154.566507 70.862 152.3801
15264.382743 71.550 149.5475
15374.994752 72.222 146.4528
15486.408302 72.873 143.0720
15598.629201 73.498 139.3864
15711.663298 74.095 135.3828
15825.516487 74.660 131.0530
15940.194703 75.190 126.3939
16055.703925 75.680 121.4081
16172.050174 76.131 116.1037
16289.239516 76.539 110.4943
16407.278061 76.908 104.5973
16526.171961 77.238 98.4327
16645.927415 77.537 92.0212
16766.550667 77.810 85.3807
16888.048005 78.069 78.5250
17010.425762 78.324 71.4606
17133.690320 78.586 64.1847
17257.848103 78.867 56.6833
17382.905584 79.175 48.9313
17508.869284 79.512 40.8917
17635.745768 79.878 32.5190
17763.541652 80.263 23.7636
17892.263597 80.657 14.5760
18021.918315 81.045 4.9138
18152.512564 81.415 -5.2571
18284.053153 81.754 -15.9644
18416.546939 82.054 -27.2411
18550.000830 82.311 -39.1535
18684.421783 82.523 -51.8457
18819.816805 82.691 -65.6201
18956.192956 82.818 -81.0647
19093.557344 82.906 -99.2011
19231.917131 82.962 -121.3292
19371.279531 82.988 -147.4031
19511.651807 82.993 -173.2548
19653.041280 82.984 166.7019
19795.455318 82.971 154.1484
19938.901348 82.962 148.2579
