* Measurement data measured by REW V5.31.3
* Source: EXCL: Headset (USB-C to 3.5mm Headphone Jack Adapter), MICROPHONE (Master Volume), 0, volume: 0.750
* Format: 256k Log Swept Sine, 1 sweep at -12.0 dBFS with no timing reference
* Dated: Apr 7, 2025 5:14:26 PM
* REW Settings:
*  C-weighting compensation: Off
*  Target level: 75.0 dB
* Note: ; 
* Measurement: Maxwell (Wired) WC R7
* Smoothing: 1/6 octave
* Frequency Step: 96 ppo
* Start Frequency: 20.0 Hz
*
* Freq(Hz) SPL(dB) Phase(degrees)
20.187378 79.619 -18.3773
20.333664 79.683 -18.7177
20.481010 79.773 -19.1946
20.629424 79.893 -19.8185
20.778913 80.047 -20.5968
20.929486 80.237 -21.5298
21.081150 80.464 -22.6095
21.233912 80.726 -23.8191
21.387782 81.019 -25.1340
21.542767 81.339 -26.5247
21.698874 81.680 -27.9602
21.856113 82.033 -29.4106
22.014492 82.392 -30.8503
22.174018 82.749 -32.2590
22.334700 83.097 -33.6225
22.496546 83.429 -34.9324
22.659566 83.740 -36.1849
22.823766 84.025 -37.3803
22.989157 84.281 -38.5214
23.155745 84.505 -39.6136
23.323542 84.695 -40.6639
23.492554 84.852 -41.6813
23.662790 84.975 -42.6767
23.834261 85.066 -43.6631
24.006973 85.128 -44.6560
24.180938 85.162 -45.6727
24.356163 85.174 -46.7322
24.532658 85.166 -47.8540
24.710431 85.142 -49.0569
24.889493 85.108 -50.3564
25.069853 85.068 -51.7635
25.251519 85.024 -53.2823
25.434502 84.983 -54.9089
25.618811 84.947 -56.6307
25.804456 84.920 -58.4269
25.991445 84.904 -60.2703
26.179790 84.903 -62.1301
26.369500 84.918 -63.9749
26.560584 84.948 -65.7768
26.753053 84.994 -67.5139
26.946917 85.053 -69.1723
27.142185 85.123 -70.7466
27.338869 85.198 -72.2390
27.536977 85.275 -73.6579
27.736522 85.349 -75.0148
27.937512 85.414 -76.3229
28.139959 85.468 -77.5943
28.343872 85.507 -78.8396
28.549264 85.531 -80.0669
28.756143 85.541 -81.2820
28.964522 85.538 -82.4895
29.174411 85.526 -83.6935
29.385821 85.511 -84.8980
29.598763 85.498 -86.1082
29.813248 85.491 -87.3300
30.029287 85.497 -88.5698
30.246891 85.516 -89.8332
30.466073 85.550 -91.1241
30.686842 85.598 -92.4434
30.909212 85.655 -93.7886
31.133193 85.719 -95.1538
31.358797 85.783 -96.5305
31.586035 85.843 -97.9087
31.814921 85.896 -99.2783
32.045465 85.938 -100.6305
32.277680 85.968 -101.9586
32.511577 85.985 -103.2582
32.747169 85.992 -104.5277
32.984469 85.991 -105.7672
33.223488 85.984 -106.9775
33.464239 85.976 -108.1598
33.706735 85.969 -109.3140
33.950987 85.968 -110.4387
34.197010 85.975 -111.5317
34.444816 85.994 -112.5903
34.694417 86.025 -113.6123
34.945827 86.068 -114.5977
35.199059 86.123 -115.5486
35.454126 86.187 -116.4701
35.711041 86.258 -117.3691
35.969818 86.332 -118.2541
36.230470 86.406 -119.1340
36.493011 86.477 -120.0176
36.757455 86.544 -120.9129
37.023814 86.606 -121.8267
37.292104 86.661 -122.7644
37.562338 86.710 -123.7292
37.834530 86.754 -124.7212
38.108695 86.793 -125.7371
38.384846 86.829 -126.7699
38.662999 86.862 -127.8100
38.943167 86.895 -128.8464
39.225365 86.927 -129.8697
39.509608 86.962 -130.8737
39.795911 86.998 -131.8575
40.084289 87.037 -132.8251
40.374756 87.078 -133.7838
40.667328 87.120 -134.7427
40.962020 87.160 -135.7096
41.258848 87.198 -136.6898
41.557827 87.232 -137.6861
41.858972 87.263 -138.6987
42.162299 87.291 -139.7267
42.467824 87.317 -140.7685
42.775564 87.341 -141.8219
43.085533 87.366 -142.8829
43.397749 87.391 -143.9456
43.712227 87.417 -145.0022
44.028983 87.447 -146.0435
44.348036 87.480 -147.0611
44.669400 87.519 -148.0488
44.993093 87.563 -149.0043
45.319131 87.612 -149.9284
45.647532 87.664 -150.8247
45.978313 87.716 -151.6980
46.311491 87.765 -152.5531
46.647083 87.805 -153.3944
46.985107 87.832 -154.2266
47.325581 87.843 -155.0553
47.668521 87.835 -155.8880
48.013947 87.806 -156.7340
48.361876 87.756 -157.6043
48.712326 87.685 -158.5103
49.065315 87.595 -159.4623
49.420863 87.490 -160.4680
49.778987 87.371 -161.5301
50.139706 87.244 -162.6459
50.503039 87.111 -163.8073
50.869005 86.977 -165.0015
51.237623 86.842 -166.2135
51.608912 86.710 -167.4267
51.982891 86.580 -168.6246
52.359580 86.451 -169.7899
52.739000 86.321 -170.9045
53.121168 86.189 -171.9497
53.506106 86.053 -172.9080
53.893833 85.915 -173.7663
54.284370 85.776 -174.5194
54.677737 85.638 -175.1724
55.073955 85.505 -175.7411
55.473043 85.377 -176.2496
55.875024 85.257 -176.7262
56.279917 85.144 -177.1975
56.687745 85.035 -177.6848
57.098527 84.929 -178.2008
57.512287 84.824 -178.7489
57.929045 84.718 -179.3241
58.348822 84.610 -179.9152
58.771642 84.502 179.4922
59.197525 84.394 178.9129
59.626495 84.288 178.3605
60.058573 84.187 177.8452
60.493782 84.090 177.3746
60.932145 83.998 176.9529
61.373685 83.910 176.5829
61.818424 83.828 176.2657
62.266386 83.750 176.0019
62.717593 83.677 175.7905
63.172071 83.609 175.6283
63.629842 83.547 175.5095
64.090930 83.491 175.4262
64.555359 83.440 175.3709
65.023154 83.393 175.3376
65.494339 83.349 175.3225
65.968938 83.308 175.3240
66.446976 83.269 175.3419
66.928478 83.231 175.3784
67.413469 83.197 175.4371
67.901975 83.165 175.5214
68.394021 83.137 175.6294
68.889632 83.116 175.7523
69.388835 83.100 175.8740
69.891655 83.090 175.9760
70.398118 83.086 176.0413
70.908252 83.086 176.0573
71.422083 83.087 176.0168
71.939636 83.088 175.9196
72.460941 83.086 175.7731
72.986023 83.079 175.5903
73.514909 83.067 175.3865
74.047629 83.051 175.1757
74.584208 83.030 174.9691
75.124676 83.006 174.7755
75.669061 82.982 174.6009
76.217390 82.959 174.4457
76.769692 82.939 174.3047
77.325997 82.923 174.1677
77.886333 82.911 174.0233
78.450730 82.902 173.8620
79.019216 82.897 173.6772
79.591822 82.893 173.4650
80.168577 82.890 173.2236
80.749512 82.887 172.9537
81.334656 82.883 172.6569
81.924040 82.876 172.3353
82.517696 82.867 171.9904
83.115653 82.854 171.6238
83.717943 82.837 171.2377
84.324598 82.817 170.8353
84.935649 82.793 170.4210
85.551128 82.766 170.0000
86.171066 82.736 169.5783
86.795497 82.703 169.1619
87.424453 82.668 168.7557
88.057967 82.630 168.3627
88.696071 82.590 167.9844
89.338800 82.547 167.6221
89.986185 82.501 167.2787
90.638262 82.451 166.9590
91.295065 82.397 166.6673
91.956626 82.340 166.4045
92.622982 82.280 166.1680
93.294166 82.217 165.9529
93.970214 82.150 165.7552
94.651161 82.079 165.5725
95.337042 82.006 165.4015
96.027894 81.930 165.2358
96.723752 81.853 165.0652
97.424652 81.776 164.8793
98.130631 81.699 164.6706
98.841726 81.622 164.4379
99.557974 81.547 164.1858
100.279412 81.474 163.9217
101.006078 81.405 163.6541
101.738010 81.341 163.3911
102.475245 81.284 163.1406
103.217823 81.231 162.9103
103.965782 81.183 162.7067
104.719161 81.140 162.5330
105.477999 81.098 162.3886
106.242336 81.058 162.2695
107.012212 81.018 162.1702
107.787666 80.979 162.0859
108.568740 80.939 162.0138
109.355474 80.901 161.9531
110.147909 80.865 161.9029
110.946086 80.834 161.8600
111.750047 80.807 161.8181
112.559834 80.787 161.7684
113.375489 80.770 161.7021
114.197055 80.756 161.6137
115.024574 80.742 161.5028
115.858089 80.726 161.3746
116.697645 80.707 161.2385
117.543284 80.685 161.1059
118.395051 80.660 160.9871
119.252990 80.633 160.8887
120.117147 80.606 160.8120
120.987565 80.579 160.7520
121.864291 80.553 160.6998
122.747370 80.529 160.6448
123.636848 80.506 160.5775
124.532771 80.485 160.4907
125.435187 80.464 160.3800
126.344142 80.442 160.2438
127.259684 80.419 160.0829
128.181860 80.393 159.9011
129.110718 80.364 159.7031
130.046308 80.332 159.4946
130.988677 80.297 159.2801
131.937875 80.258 159.0627
132.893951 80.217 158.8439
133.856956 80.174 158.6237
134.826938 80.130 158.4006
135.803950 80.085 158.1730
136.788041 80.041 157.9396
137.779264 79.997 157.7005
138.777669 79.953 157.4579
139.783309 79.910 157.2158
140.796237 79.868 156.9793
141.816504 79.825 156.7537
142.844165 79.781 156.5440
143.879273 79.736 156.3534
144.921881 79.688 156.1837
145.972045 79.638 156.0351
147.029819 79.584 155.9073
148.095257 79.526 155.7997
149.168417 79.464 155.7126
150.249353 79.397 155.6478
151.338121 79.328 155.6083
152.434780 79.254 155.5979
153.539385 79.177 155.6202
154.651995 79.097 155.6768
155.772667 79.013 155.7667
156.901460 78.927 155.8863
158.038432 78.837 156.0303
159.183644 78.745 156.1934
160.337154 78.652 156.3716
161.499023 78.560 156.5639
162.669312 78.471 156.7727
163.848081 78.386 157.0023
165.035392 78.305 157.2577
166.231306 78.229 157.5424
167.435887 78.157 157.8576
168.649196 78.090 158.2021
169.871298 78.026 158.5732
171.102255 77.966 158.9689
172.342133 77.910 159.3877
173.590995 77.858 159.8290
174.848907 77.810 160.2922
176.115934 77.766 160.7762
177.392143 77.726 161.2789
178.677599 77.691 161.7971
179.972371 77.660 162.3271
181.276525 77.634 162.8649
182.590129 77.612 163.4062
183.913252 77.595 163.9463
185.245964 77.582 164.4797
186.588332 77.573 165.0010
187.940428 77.568 165.5057
189.302322 77.567 165.9904
190.674085 77.569 166.4524
192.055788 77.573 166.8906
193.447503 77.580 167.3048
194.849303 77.589 167.6960
196.261262 77.601 168.0659
197.683452 77.616 168.4161
199.115948 77.633 168.7495
200.558824 77.655 169.0688
202.012156 77.681 169.3768
203.476019 77.711 169.6747
204.950490 77.744 169.9626
206.435646 77.779 170.2394
207.931564 77.815 170.5032
209.438322 77.850 170.7527
210.955998 77.884 170.9868
212.484672 77.916 171.2054
214.024424 77.946 171.4101
215.575333 77.973 171.6030
217.137481 77.999 171.7863
218.710948 78.024 171.9619
220.295818 78.049 172.1307
221.892172 78.074 172.2931
223.500094 78.101 172.4492
225.119668 78.129 172.5992
226.750978 78.159 172.7437
228.394109 78.192 172.8836
230.049147 78.227 173.0203
231.716178 78.266 173.1546
233.395289 78.307 173.2878
235.086567 78.350 173.4210
236.790102 78.396 173.5558
238.505980 78.443 173.6936
240.234293 78.493 173.8354
241.975130 78.543 173.9816
243.728581 78.595 174.1312
245.494739 78.649 174.2827
247.273695 78.704 174.4338
249.065542 78.760 174.5828
250.870374 78.818 174.7280
252.688284 78.877 174.8685
254.519367 78.938 175.0039
256.363720 79.001 175.1343
258.221437 79.065 175.2599
260.092616 79.131 175.3804
261.977354 79.199 175.4946
263.875750 79.269 175.6008
265.787903 79.341 175.6968
267.713911 79.416 175.7806
269.653877 79.492 175.8509
271.607900 79.570 175.9064
273.576083 79.649 175.9471
275.558528 79.728 175.9728
277.555338 79.808 175.9842
279.566619 79.888 175.9812
281.592474 79.969 175.9640
283.633009 80.050 175.9326
285.688331 80.132 175.8873
287.758546 80.214 175.8287
289.843763 80.296 175.7571
291.944090 80.379 175.6727
294.059638 80.463 175.5751
296.190515 80.548 175.4636
298.336833 80.634 175.3373
300.498705 80.720 175.1955
302.676243 80.807 175.0376
304.869559 80.895 174.8632
307.078770 80.984 174.6721
309.303989 81.073 174.4643
311.545334 81.161 174.2399
313.802919 81.250 173.9994
316.076865 81.339 173.7432
318.367288 81.427 173.4717
320.674309 81.515 173.1849
322.998047 81.602 172.8826
325.338624 81.689 172.5643
327.696162 81.774 172.2296
330.070783 81.859 171.8780
332.462612 81.942 171.5088
334.871773 82.023 171.1214
337.298392 82.103 170.7152
339.742595 82.181 170.2900
342.204510 82.256 169.8458
344.684265 82.329 169.3828
347.181989 82.399 168.9020
349.697813 82.467 168.4045
352.231868 82.531 167.8914
354.784285 82.592 167.3639
357.355198 82.650 166.8229
359.944741 82.704 166.2692
362.553049 82.754 165.7034
365.180258 82.801 165.1264
367.826505 82.844 164.5386
370.491927 82.884 163.9411
373.176665 82.919 163.3350
375.880856 82.951 162.7217
378.604644 82.978 162.1031
381.348169 83.001 161.4804
384.111575 83.020 160.8549
386.895006 83.035 160.2279
389.698607 83.045 159.6010
392.522524 83.051 158.9759
395.366904 83.053 158.3550
398.231895 83.051 157.7410
401.117648 83.045 157.1367
404.024312 83.035 156.5447
406.952038 83.022 155.9676
409.900981 83.005 155.4071
412.871292 82.985 154.8643
415.863128 82.963 154.3396
418.876643 82.938 153.8327
421.911996 82.912 153.3428
424.969344 82.884 152.8684
428.048847 82.855 152.4077
431.150666 82.825 151.9584
434.274961 82.795 151.5182
437.421897 82.764 151.0844
440.591636 82.734 150.6541
443.784345 82.703 150.2246
447.000189 82.672 149.7933
450.239337 82.642 149.3577
453.501956 82.611 148.9160
456.788219 82.579 148.4668
460.098294 82.547 148.0098
463.432356 82.514 147.5450
466.790578 82.481 147.0728
470.173135 82.446 146.5935
473.580203 82.410 146.1077
477.011961 82.373 145.6162
480.468586 82.335 145.1198
483.950259 82.295 144.6195
487.457163 82.255 144.1167
490.989478 82.213 143.6126
494.547390 82.171 143.1083
498.131084 82.128 142.6049
501.740748 82.085 142.1031
505.376568 82.041 141.6032
509.038735 81.996 141.1054
512.727439 81.952 140.6095
516.442874 81.908 140.1155
520.185232 81.863 139.6234
523.954708 81.818 139.1335
527.751500 81.773 138.6462
531.575805 81.728 138.1624
535.427822 81.682 137.6833
539.307753 81.636 137.2100
543.215800 81.590 136.7438
547.152165 81.543 136.2858
551.117055 81.497 135.8367
555.110677 81.450 135.3972
559.133237 81.402 134.9680
563.184947 81.354 134.5495
567.266018 81.306 134.1422
571.376661 81.257 133.7465
575.517092 81.207 133.3628
579.687526 81.157 132.9915
583.888181 81.105 132.6330
588.119275 81.053 132.2875
592.381030 81.000 131.9552
596.673667 80.946 131.6364
600.997410 80.890 131.3312
605.352485 80.834 131.0397
609.739119 80.775 130.7621
614.157540 80.716 130.4985
618.607979 80.655 130.2488
623.090667 80.592 130.0126
627.605839 80.528 129.7894
632.153730 80.462 129.5782
636.734576 80.395 129.3779
641.348617 80.326 129.1871
645.996094 80.256 129.0045
650.677248 80.184 128.8289
655.392323 80.110 128.6592
660.141566 80.035 128.4950
664.925224 79.957 128.3362
669.743546 79.877 128.1832
674.596784 79.795 128.0372
679.485191 79.709 127.9002
684.409020 79.620 127.7747
689.368530 79.528 127.6639
694.363979 79.431 127.5714
699.395626 79.331 127.5014
704.463736 79.226 127.4584
709.568570 79.118 127.4473
714.710396 79.005 127.4730
719.889483 78.888 127.5407
725.106099 78.768 127.6554
730.360516 78.645 127.8223
735.653010 78.519 128.0459
740.983855 78.392 128.3304
746.353329 78.265 128.6788
751.761713 78.138 129.0930
757.209288 78.014 129.5726
762.696339 77.893 130.1158
768.223151 77.777 130.7184
773.790013 77.668 131.3745
779.397214 77.567 132.0758
785.045047 77.475 132.8131
790.733808 77.393 133.5758
796.463791 77.321 134.3527
802.235296 77.260 135.1328
808.048623 77.211 135.9057
813.904077 77.172 136.6620
819.801961 77.143 137.3938
825.742584 77.123 138.0947
831.726255 77.112 138.7602
837.753287 77.108 139.3877
843.823992 77.111 139.9762
849.938689 77.119 140.5258
856.097695 77.132 141.0381
862.301332 77.149 141.5150
868.549922 77.170 141.9591
874.843793 77.193 142.3731
881.183272 77.219 142.7599
887.568689 77.248 143.1226
894.000378 77.279 143.4638
900.478673 77.311 143.7864
907.003913 77.346 144.0930
913.576437 77.383 144.3857
920.196588 77.423 144.6667
926.864712 77.465 144.9375
933.581156 77.511 145.1993
940.346270 77.559 145.4529
947.160407 77.612 145.6981
954.023921 77.670 145.9342
960.937172 77.732 146.1596
967.900519 77.800 146.3717
974.914325 77.873 146.5671
981.978956 77.953 146.7418
989.094780 78.038 146.8915
996.262169 78.129 147.0120
1003.481495 78.225 147.0995
1010.753136 78.325 147.1503
1018.077470 78.430 147.1614
1025.454879 78.538 147.1306
1032.885748 78.648 147.0557
1040.370463 78.760 146.9354
1047.909417 78.873 146.7689
1055.503000 78.986 146.5558
1063.151610 79.097 146.2965
1070.855645 79.207 145.9923
1078.615506 79.314 145.6451
1086.431599 79.416 145.2578
1094.304330 79.514 144.8345
1102.234110 79.605 144.3800
1110.221353 79.690 143.9001
1118.266475 79.768 143.4017
1126.369895 79.839 142.8923
1134.532035 79.901 142.3797
1142.753322 79.957 141.8716
1151.034184 80.005 141.3749
1159.375052 80.047 140.8946
1167.776361 80.084 140.4338
1176.238550 80.116 139.9933
1184.762060 80.145 139.5723
1193.347334 80.169 139.1693
1201.994821 80.191 138.7829
1210.704971 80.208 138.4135
1219.478238 80.221 138.0641
1228.315080 80.230 137.7403
1237.215957 80.235 137.4503
1246.181334 80.237 137.2041
1255.211678 80.236 137.0115
1264.307459 80.236 136.8809
1273.469152 80.237 136.8169
1282.697235 80.243 136.8191
1291.992188 80.257 136.8813
1301.354495 80.281 136.9918
1310.784647 80.315 137.1339
1320.283132 80.363 137.2888
1329.850448 80.422 137.4368
1339.487093 80.492 137.5592
1349.193569 80.572 137.6405
1358.970381 80.660 137.6684
1368.818041 80.754 137.6343
1378.737061 80.852 137.5334
1388.727958 80.952 137.3636
1398.791253 81.051 137.1259
1408.927471 81.149 136.8229
1419.137140 81.243 136.4595
1429.420793 81.333 136.0419
1439.778965 81.416 135.5778
1450.212197 81.492 135.0762
1460.721033 81.561 134.5474
1471.306019 81.621 134.0024
1481.967709 81.672 133.4529
1492.706658 81.715 132.9105
1503.523426 81.749 132.3861
1514.418576 81.776 131.8897
1525.392678 81.796 131.4296
1536.446302 81.811 131.0121
1547.580025 81.821 130.6419
1558.794428 81.828 130.3215
1570.090095 81.832 130.0511
1581.467615 81.835 129.8289
1592.927581 81.838 129.6503
1604.470591 81.841 129.5085
1616.097246 81.845 129.3950
1627.808153 81.850 129.3005
1639.603922 81.856 129.2157
1651.485168 81.862 129.1320
1663.452510 81.869 129.0426
1675.506573 81.874 128.9427
1687.647984 81.878 128.8291
1699.877377 81.879 128.7010
1712.195390 81.877 128.5590
1724.602663 81.872 128.4052
1737.099845 81.863 128.2428
1749.687587 81.851 128.0760
1762.366544 81.834 127.9092
1775.137379 81.813 127.7469
1788.000756 81.789 127.5935
1800.957346 81.761 127.4528
1814.007826 81.731 127.3281
1827.152874 81.699 127.2215
1840.393177 81.664 127.1340
1853.729425 81.629 127.0651
1867.162312 81.594 127.0120
1880.692540 81.559 126.9693
1894.320813 81.524 126.9292
1908.047843 81.491 126.8821
1921.874344 81.457 126.8188
1935.801038 81.422 126.7318
1949.828650 81.384 126.6170
1963.957912 81.341 126.4749
1978.189561 81.291 126.3100
1992.524338 81.234 126.1311
2006.962991 81.168 125.9493
2021.506272 81.092 125.7775
2036.154940 81.008 125.6281
2050.909758 80.915 125.5120
2065.771495 80.817 125.4371
2080.740927 80.713 125.4077
2095.818833 80.607 125.4244
2111.006001 80.500 125.4850
2126.303220 80.392 125.5855
2141.711290 80.286 125.7217
2157.231013 80.181 125.8900
2172.863198 80.079 126.0869
2188.608660 79.979 126.3097
2204.468221 79.883 126.5547
2220.442706 79.792 126.8174
2236.532950 79.704 127.0925
2252.739789 79.621 127.3741
2269.064070 79.543 127.6568
2285.506644 79.468 127.9354
2302.068367 79.397 128.2057
2318.750104 79.330 128.4642
2335.552723 79.264 128.7090
2352.477101 79.199 128.9402
2369.524119 79.135 129.1613
2386.694668 79.069 129.3793
2403.989641 79.001 129.6055
2421.409941 78.931 129.8539
2438.956476 78.860 130.1387
2456.630160 78.789 130.4720
2474.431915 78.720 130.8607
2492.362668 78.657 131.3057
2510.423356 78.600 131.8026
2528.614918 78.553 132.3435
2546.938304 78.515 132.9189
2565.394469 78.488 133.5192
2583.984375 78.471 134.1364
2602.708991 78.465 134.7648
2621.569293 78.468 135.4021
2640.566265 78.481 136.0494
2659.700897 78.503 136.7101
2678.974186 78.535 137.3878
2698.387137 78.577 138.0843
2717.940763 78.631 138.7980
2737.636082 78.697 139.5230
2757.474121 78.776 140.2496
2777.455915 78.869 140.9654
2797.582506 78.975 141.6565
2817.854942 79.094 142.3086
2838.274281 79.222 142.9074
2858.841586 79.360 143.4404
2879.557931 79.503 143.8974
2900.424394 79.649 144.2729
2921.442065 79.796 144.5663
2942.612039 79.939 144.7823
2963.935418 80.077 144.9301
2985.413316 80.209 145.0218
3007.046852 80.332 145.0704
3028.837153 80.448 145.0884
3050.785356 80.555 145.0872
3072.892604 80.654 145.0755
3095.160050 80.746 145.0595
3117.588856 80.831 145.0414
3140.180190 80.911 145.0200
3162.935230 80.986 144.9903
3185.855163 81.056 144.9454
3208.941182 81.121 144.8776
3232.194493 81.182 144.7787
3255.616307 81.236 144.6412
3279.207844 81.285 144.4574
3302.970336 81.325 144.2198
3326.905021 81.356 143.9228
3351.013146 81.375 143.5644
3375.295969 81.378 143.1488
3399.754755 81.363 142.6888
3424.390779 81.326 142.2066
3449.205326 81.265 141.7338
3474.199690 81.177 141.3110
3499.375173 81.063 140.9866
3524.733088 80.924 140.8138
3550.274757 80.764 140.8460
3576.001511 80.589 141.1295
3601.914692 80.408 141.6924
3628.015651 80.234 142.5345
3654.305748 80.078 143.6202
3680.786354 79.950 144.8808
3707.458849 79.857 146.2274
3734.324624 79.801 147.5717
3761.385080 79.780 148.8441
3788.641627 79.789 150.0050
3816.095686 79.822 151.0443
3843.748688 79.875 151.9736
3871.602076 79.944 152.8133
3899.657300 80.028 153.5807
3927.915825 80.128 154.2818
3956.379122 80.243 154.9091
3985.048676 80.372 155.4464
4013.925981 80.512 155.8765
4043.012544 80.658 156.1885
4072.309879 80.808 156.3810
4101.819515 80.955 156.4615
4131.542990 81.098 156.4434
4161.481854 81.235 156.3431
4191.637667 81.362 156.1765
4222.012001 81.480 155.9582
4252.606441 81.587 155.7004
4283.422580 81.684 155.4141
4314.462026 81.768 155.1097
4345.726396 81.841 154.7966
4377.217321 81.902 154.4835
4408.936442 81.951 154.1771
4440.885413 81.989 153.8830
4473.065899 82.015 153.6051
4505.479579 82.030 153.3471
4538.128141 82.034 153.1129
4571.013288 82.028 152.9073
4604.136735 82.010 152.7356
4637.500207 81.984 152.6037
4671.105446 81.948 152.5172
4704.954201 81.905 152.4816
4739.048239 81.855 152.5016
4773.389336 81.799 152.5816
4807.979283 81.740 152.7253
4842.819883 81.679 152.9360
4877.912952 81.618 153.2165
4913.260320 81.557 153.5695
4948.863830 81.500 153.9965
4984.725337 81.449 154.4974
5020.846712 81.406 155.0696
5057.229836 81.374 155.7077
5093.876609 81.354 156.4036
5130.788938 81.349 157.1471
5167.968750 81.360 157.9269
5205.417982 81.388 158.7311
5243.138586 81.434 159.5483
5281.132530 81.498 160.3679
5319.401793 81.581 161.1794
5357.948371 81.682 161.9713
5396.774274 81.801 162.7308
5435.881525 81.938 163.4436
5475.272163 82.092 164.0941
5514.948243 82.261 164.6667
5554.911831 82.443 165.1469
5595.165012 82.635 165.5219
5635.709884 82.834 165.7811
5676.548561 83.039 165.9160
5717.683172 83.245 165.9208
5759.115861 83.450 165.7918
5800.848789 83.651 165.5277
5842.884130 83.844 165.1295
5885.224077 84.026 164.5995
5927.870837 84.196 163.9420
5970.826633 84.349 163.1623
6014.093704 84.482 162.2689
6057.674306 84.593 161.2733
6101.570711 84.678 160.1909
6145.785208 84.735 159.0407
6190.320101 84.763 157.8445
6235.177712 84.759 156.6255
6280.360380 84.724 155.4072
6325.870460 84.657 154.2126
6371.710325 84.557 153.0645
6417.882365 84.426 151.9857
6464.388986 84.262 151.0004
6511.232613 84.068 150.1342
6558.415689 83.843 149.4150
6605.940673 83.588 148.8738
6653.810042 83.305 148.5457
6702.026292 82.996 148.4711
6750.591937 82.665 148.6954
6799.509509 82.316 149.2673
6848.781558 81.955 150.2350
6898.410653 81.593 151.6410
6948.399380 81.239 153.5168
6998.750346 80.907 155.8773
7049.466176 80.611 158.7141
7100.549514 80.365 161.9886
7152.003023 80.186 165.6244
7203.829385 80.084 169.5018
7256.031302 80.069 173.4622
7308.611496 80.143 177.3230
7361.572708 80.302 -179.0987
7414.917698 80.535 -175.9619
7468.649249 80.827 -173.3832
7522.770160 81.159 -171.4313
7577.283253 81.513 -170.1298
7632.191371 81.869 -169.4665
7687.497376 82.211 -169.4022
7743.204151 82.523 -169.8791
7799.314600 82.794 -170.8274
7855.831649 83.013 -172.1700
7912.758244 83.173 -173.8257
7970.097352 83.268 -175.7119
8027.851962 83.296 -177.7463
8086.025087 83.254 -179.8484
8144.619758 83.142 178.0596
8203.639030 82.962 176.0540
8263.085980 82.716 174.2103
8322.963708 82.408 172.6066
8383.275334 82.041 171.3272
8444.024002 81.621 170.4676
8505.212881 81.155 170.1410
8566.845160 80.653 170.4854
8628.924051 80.129 171.6687
8691.452792 79.600 173.8853
8754.434642 79.092 177.3321
8817.872884 78.634 -177.8543
8881.770826 78.260 -171.7093
8946.131799 78.003 -164.5616
9010.959157 77.885 -157.0485
9076.256282 77.912 -149.9281
9142.026576 78.073 -143.7977
9208.273470 78.342 -138.9399
9275.000415 78.687 -135.3609
9342.210891 79.077 -132.9144
9409.908403 79.486 -131.4070
9478.096478 79.895 -130.6550
9546.778672 80.289 -130.5045
9615.958566 80.660 -130.8323
9685.639765 81.002 -131.5406
9755.825904 81.310 -132.5518
9826.520640 81.584 -133.8044
9897.727659 81.823 -135.2506
9969.450674 82.027 -136.8548
10041.693423 82.198 -138.5902
10114.459673 82.336 -140.4353
10187.753217 82.440 -142.3721
10261.577877 82.512 -144.3844
10335.937500 82.552 -146.4576
10410.835964 82.560 -148.5787
10486.277173 82.538 -150.7365
10562.265060 82.485 -152.9211
10638.803587 82.402 -155.1230
10715.896743 82.290 -157.3338
10793.548548 82.151 -159.5459
10871.763050 81.984 -161.7536
10950.544327 81.791 -163.9525
11029.896485 81.575 -166.1404
11109.823662 81.336 -168.3175
11190.330024 81.076 -170.4877
11271.419768 80.798 -172.6582
11353.097122 80.503 -174.8400
11435.366344 80.193 -177.0471
11518.231722 79.870 -179.2953
11601.697577 79.534 178.3979
11685.768261 79.185 176.0152
11770.448155 78.823 173.5405
11855.741674 78.447 170.9602
11941.653265 78.054 168.2643
12028.187408 77.642 165.4468
12115.348612 77.209 162.5063
12203.141422 76.753 159.4456
12291.570415 76.269 156.2715
12380.640201 75.757 152.9942
12470.355424 75.214 149.6266
12560.720760 74.640 146.1831
12651.740920 74.035 142.6771
12743.420650 73.400 139.1201
12835.764729 72.741 135.5180
12928.777972 72.062 131.8688
13022.465227 71.373 128.1600
13116.831378 70.688 124.3672
13211.881345 70.022 120.4550
13307.620084 69.395 116.3804
13404.052584 68.830 112.0997
13501.183875 68.348 107.5779
13599.019019 67.965 102.7971
13697.563116 67.690 97.7642
13796.821305 67.522 92.5125
13896.798760 67.451 87.0985
13997.500692 67.458 81.5950
14098.932352 67.523 76.0821
14201.099028 67.629 70.6393
14304.006046 67.761 65.3380
14407.658770 67.912 60.2369
14512.062604 68.080 55.3772
14617.222992 68.268 50.7779
14723.145416 68.483 46.4337
14829.835397 68.730 42.3140
14937.298497 69.013 38.3655
15045.540320 69.332 34.5182
15154.566507 69.682 30.6938
15264.382743 70.052 26.8154
15374.994752 70.430 22.8165
15486.408302 70.803 18.6471
15598.629201 71.157 14.2783
15711.663298 71.480 9.7041
15825.516487 71.766 4.9406
15940.194703 72.008 0.0238
16055.703925 72.210 -4.9948
16172.050174 72.377 -10.0541
16289.239516 72.527 -15.0947
16407.278061 72.682 -20.0714
16526.171961 72.869 -24.9694
16645.927415 73.117 -29.8171
16766.550667 73.448 -34.6922
16888.048005 73.869 -39.7118
17010.425762 74.376 -45.0149
17133.690320 74.951 -50.7383
17257.848103 75.571 -56.9977
17382.905584 76.214 -63.8769
17508.869284 76.857 -71.4285
17635.745768 77.484 -79.6775
17763.541652 78.080 -88.6279
17892.263597 78.637 -98.2670
18021.918315 79.143 -108.5663
18152.512564 79.593 -119.4833
18284.053153 79.980 -130.9594
18416.546939 80.299 -142.9185
18550.000830 80.548 -155.2709
18684.421783 80.724 -167.9177
18819.816805 80.829 179.2311
18956.192956 80.866 166.2196
19093.557344 80.843 152.9678
19231.917131 80.771 139.0980
19371.279531 80.666 123.5240
19511.651807 80.545 103.5496
19653.041280 80.429 74.8128
19795.455318 80.337 42.0543
19938.901348 80.287 23.2792
