* Measurement data measured by REW V5.31.3
* Source: EXCL: Headset (USB-C to 3.5mm Headphone Jack Adapter), MICROPHONE (Master Volume), 0, volume: 0.750
* Format: 256k Log Swept Sine, 1 sweep at -12.0 dBFS with no timing reference
* Dated: Apr 7, 2025 5:11:19 PM
* REW Settings:
*  C-weighting compensation: Off
*  Target level: 75.0 dB
* Note: ; 
* Measurement: Maxwell (Wired) WC L6
* Smoothing: 1/6 octave
* Frequency Step: 96 ppo
* Start Frequency: 20.0 Hz
*
* Freq(Hz) SPL(dB) Phase(degrees)
20.187378 79.907 -22.2298
20.333664 79.978 -22.7124
20.481010 80.072 -23.3636
20.629424 80.186 -24.1724
20.778913 80.315 -25.1258
20.929486 80.456 -26.2091
21.081150 80.605 -27.4059
21.233912 80.758 -28.6981
21.387782 80.914 -30.0660
21.542767 81.071 -31.4884
21.698874 81.227 -32.9429
21.856113 81.382 -34.4067
22.014492 81.536 -35.8574
22.174018 81.687 -37.2736
22.334700 81.838 -38.6367
22.496546 81.988 -39.9312
22.659566 82.138 -41.1460
22.823766 82.287 -42.2750
22.989157 82.438 -43.3171
23.155745 82.589 -44.2760
23.323542 82.740 -45.1600
23.492554 82.891 -45.9809
23.662790 83.041 -46.7532
23.834261 83.190 -47.4928
24.006973 83.336 -48.2165
24.180938 83.481 -48.9407
24.356163 83.621 -49.6814
24.532658 83.759 -50.4535
24.710431 83.893 -51.2707
24.889493 84.022 -52.1452
25.069853 84.148 -53.0873
25.251519 84.269 -54.1054
25.434502 84.384 -55.2051
25.618811 84.493 -56.3897
25.804456 84.595 -57.6588
25.991445 84.690 -59.0091
26.179790 84.775 -60.4341
26.369500 84.852 -61.9247
26.560584 84.919 -63.4696
26.753053 84.977 -65.0564
26.946917 85.027 -66.6726
27.142185 85.071 -68.3064
27.338869 85.109 -69.9477
27.536977 85.144 -71.5891
27.736522 85.178 -73.2253
27.937512 85.213 -74.8537
28.139959 85.249 -76.4733
28.343872 85.287 -78.0843
28.549264 85.326 -79.6861
28.756143 85.365 -81.2771
28.964522 85.402 -82.8537
29.174411 85.436 -84.4098
29.385821 85.464 -85.9373
29.598763 85.485 -87.4270
29.813248 85.499 -88.8697
30.029287 85.504 -90.2576
30.246891 85.503 -91.5858
30.466073 85.496 -92.8533
30.686842 85.485 -94.0637
30.909212 85.473 -95.2252
31.133193 85.462 -96.3498
31.358797 85.454 -97.4520
31.586035 85.450 -98.5470
31.814921 85.452 -99.6488
32.045465 85.459 -100.7686
32.277680 85.473 -101.9133
32.511577 85.493 -103.0851
32.747169 85.517 -104.2818
32.984469 85.546 -105.4970
33.223488 85.579 -106.7213
33.464239 85.615 -107.9436
33.706735 85.654 -109.1524
33.950987 85.694 -110.3364
34.197010 85.735 -111.4860
34.444816 85.777 -112.5936
34.694417 85.819 -113.6545
34.945827 85.861 -114.6668
35.199059 85.902 -115.6314
35.454126 85.941 -116.5522
35.711041 85.979 -117.4350
35.969818 86.015 -118.2872
36.230470 86.048 -119.1167
36.493011 86.079 -119.9315
36.757455 86.107 -120.7390
37.023814 86.133 -121.5457
37.292104 86.156 -122.3573
37.562338 86.178 -123.1784
37.834530 86.199 -124.0126
38.108695 86.219 -124.8621
38.384846 86.240 -125.7272
38.662999 86.261 -126.6059
38.943167 86.284 -127.4943
39.225365 86.308 -128.3861
39.509608 86.335 -129.2743
39.795911 86.365 -130.1519
40.084289 86.399 -131.0136
40.374756 86.437 -131.8564
40.667328 86.480 -132.6802
40.962020 86.527 -133.4868
41.258848 86.576 -134.2796
41.557827 86.627 -135.0614
41.858972 86.676 -135.8344
42.162299 86.722 -136.5997
42.467824 86.764 -137.3584
42.775564 86.801 -138.1121
43.085533 86.832 -138.8652
43.397749 86.859 -139.6245
43.712227 86.882 -140.3999
44.028983 86.902 -141.2027
44.348036 86.919 -142.0436
44.669400 86.934 -142.9304
44.993093 86.947 -143.8671
45.319131 86.956 -144.8528
45.647532 86.962 -145.8826
45.978313 86.964 -146.9493
46.311491 86.961 -148.0453
46.647083 86.953 -149.1642
46.985107 86.940 -150.3015
47.325581 86.921 -151.4548
47.668521 86.895 -152.6226
48.013947 86.863 -153.8029
48.361876 86.824 -154.9930
48.712326 86.777 -156.1879
49.065315 86.725 -157.3809
49.420863 86.666 -158.5642
49.778987 86.602 -159.7299
50.139706 86.533 -160.8705
50.503039 86.459 -161.9807
50.869005 86.382 -163.0573
51.237623 86.299 -164.0996
51.608912 86.213 -165.1088
51.982891 86.121 -166.0868
52.359580 86.023 -167.0351
52.739000 85.919 -167.9538
53.121168 85.810 -168.8415
53.506106 85.695 -169.6954
53.893833 85.575 -170.5125
54.284370 85.452 -171.2900
54.677737 85.327 -172.0258
55.073955 85.200 -172.7184
55.473043 85.072 -173.3663
55.875024 84.943 -173.9686
56.279917 84.815 -174.5246
56.687745 84.687 -175.0359
57.098527 84.559 -175.5060
57.512287 84.433 -175.9404
57.929045 84.309 -176.3456
58.348822 84.188 -176.7276
58.771642 84.071 -177.0914
59.197525 83.961 -177.4407
59.626495 83.859 -177.7787
60.058573 83.767 -178.1082
60.493782 83.686 -178.4308
60.932145 83.616 -178.7468
61.373685 83.555 -179.0547
61.818424 83.503 -179.3520
62.266386 83.458 -179.6363
62.717593 83.419 -179.9061
63.172071 83.383 179.8387
63.629842 83.350 179.5974
64.090930 83.320 179.3693
64.555359 83.291 179.1538
65.023154 83.263 178.9500
65.494339 83.237 178.7569
65.968938 83.212 178.5734
66.446976 83.189 178.3990
66.928478 83.165 178.2338
67.413469 83.143 178.0782
67.901975 83.120 177.9330
68.394021 83.098 177.7984
68.889632 83.077 177.6744
69.388835 83.056 177.5601
69.891655 83.035 177.4539
70.398118 83.017 177.3532
70.908252 82.999 177.2544
71.422083 82.983 177.1533
71.939636 82.968 177.0456
72.460941 82.954 176.9275
72.986023 82.939 176.7957
73.514909 82.924 176.6478
74.047629 82.907 176.4824
74.584208 82.888 176.2991
75.124676 82.867 176.0988
75.669061 82.844 175.8835
76.217390 82.819 175.6561
76.769692 82.792 175.4196
77.325997 82.765 175.1767
77.886333 82.736 174.9301
78.450730 82.706 174.6816
79.019216 82.675 174.4323
79.591822 82.643 174.1825
80.168577 82.611 173.9321
80.749512 82.578 173.6808
81.334656 82.543 173.4283
81.924040 82.508 173.1747
82.517696 82.473 172.9199
83.115653 82.437 172.6638
83.717943 82.401 172.4061
84.324598 82.366 172.1461
84.935649 82.331 171.8834
85.551128 82.296 171.6174
86.171066 82.261 171.3481
86.795497 82.226 171.0756
87.424453 82.190 170.7999
88.057967 82.153 170.5212
88.696071 82.115 170.2400
89.338800 82.076 169.9564
89.986185 82.036 169.6710
90.638262 81.995 169.3842
91.295065 81.952 169.0969
91.956626 81.909 168.8105
92.622982 81.863 168.5265
93.294166 81.817 168.2464
93.970214 81.769 167.9716
94.651161 81.719 167.7032
95.337042 81.668 167.4420
96.027894 81.615 167.1887
96.723752 81.562 166.9444
97.424652 81.508 166.7103
98.130631 81.454 166.4876
98.841726 81.400 166.2769
99.557974 81.347 166.0785
100.279412 81.294 165.8923
101.006078 81.243 165.7180
101.738010 81.192 165.5551
102.475245 81.142 165.4031
103.217823 81.093 165.2612
103.965782 81.045 165.1288
104.719161 80.998 165.0054
105.477999 80.953 164.8903
106.242336 80.909 164.7824
107.012212 80.868 164.6808
107.787666 80.828 164.5846
108.568740 80.792 164.4930
109.355474 80.757 164.4058
110.147909 80.725 164.3233
110.946086 80.696 164.2459
111.750047 80.669 164.1739
112.559834 80.646 164.1074
113.375489 80.624 164.0459
114.197055 80.605 163.9885
115.024574 80.588 163.9341
115.858089 80.573 163.8810
116.697645 80.559 163.8275
117.543284 80.546 163.7714
118.395051 80.533 163.7108
119.252990 80.520 163.6443
120.117147 80.508 163.5709
120.987565 80.495 163.4900
121.864291 80.483 163.4012
122.747370 80.472 163.3036
123.636848 80.461 163.1960
124.532771 80.450 163.0768
125.435187 80.440 162.9446
126.344142 80.431 162.7984
127.259684 80.421 162.6380
128.181860 80.412 162.4639
129.110718 80.401 162.2775
130.046308 80.388 162.0806
130.988677 80.372 161.8753
131.937875 80.353 161.6635
132.893951 80.330 161.4464
133.856956 80.301 161.2252
134.826938 80.268 161.0014
135.803950 80.230 160.7771
136.788041 80.188 160.5554
137.779264 80.142 160.3390
138.777669 80.093 160.1298
139.783309 80.040 159.9281
140.796237 79.985 159.7332
141.816504 79.928 159.5436
142.844165 79.868 159.3585
143.879273 79.806 159.1781
144.921881 79.741 159.0037
145.972045 79.674 158.8376
147.029819 79.605 158.6827
148.095257 79.533 158.5418
149.168417 79.459 158.4179
150.249353 79.383 158.3143
151.338121 79.305 158.2341
152.434780 79.226 158.1808
153.539385 79.144 158.1576
154.651995 79.062 158.1672
155.772667 78.979 158.2114
156.901460 78.895 158.2912
158.038432 78.812 158.4062
159.183644 78.729 158.5555
160.337154 78.647 158.7371
161.499023 78.567 158.9492
162.669312 78.489 159.1894
163.848081 78.415 159.4552
165.035392 78.344 159.7440
166.231306 78.277 160.0530
167.435887 78.214 160.3797
168.649196 78.156 160.7217
169.871298 78.102 161.0778
171.102255 78.053 161.4468
172.342133 78.008 161.8286
173.590995 77.968 162.2225
174.848907 77.932 162.6281
176.115934 77.901 163.0439
177.392143 77.874 163.4676
178.677599 77.851 163.8963
179.972371 77.832 164.3267
181.276525 77.817 164.7556
182.590129 77.804 165.1806
183.913252 77.795 165.5994
185.245964 77.790 166.0104
186.588332 77.788 166.4117
187.940428 77.790 166.8016
189.302322 77.796 167.1777
190.674085 77.805 167.5377
192.055788 77.819 167.8792
193.447503 77.836 168.2001
194.849303 77.856 168.4991
196.261262 77.879 168.7753
197.683452 77.903 169.0283
199.115948 77.929 169.2574
200.558824 77.954 169.4626
202.012156 77.980 169.6442
203.476019 78.005 169.8040
204.950490 78.030 169.9448
206.435646 78.054 170.0697
207.931564 78.078 170.1820
209.438322 78.100 170.2842
210.955998 78.121 170.3784
212.484672 78.140 170.4662
214.024424 78.157 170.5486
215.575333 78.173 170.6270
217.137481 78.187 170.7019
218.710948 78.201 170.7737
220.295818 78.214 170.8422
221.892172 78.228 170.9073
223.500094 78.242 170.9689
225.119668 78.257 171.0267
226.750978 78.273 171.0809
228.394109 78.290 171.1314
230.049147 78.308 171.1788
231.716178 78.328 171.2241
233.395289 78.348 171.2684
235.086567 78.370 171.3132
236.790102 78.393 171.3599
238.505980 78.418 171.4095
240.234293 78.445 171.4632
241.975130 78.475 171.5217
243.728581 78.507 171.5856
245.494739 78.541 171.6550
247.273695 78.577 171.7296
249.065542 78.617 171.8087
250.870374 78.658 171.8916
252.688284 78.702 171.9777
254.519367 78.749 172.0664
256.363720 78.799 172.1573
258.221437 78.851 172.2497
260.092616 78.907 172.3427
261.977354 78.965 172.4348
263.875750 79.025 172.5236
265.787903 79.087 172.6057
267.713911 79.151 172.6777
269.653877 79.216 172.7362
271.607900 79.283 172.7781
273.576083 79.350 172.8000
275.558528 79.419 172.7987
277.555338 79.488 172.7710
279.566619 79.558 172.7143
281.592474 79.629 172.6267
283.633009 79.700 172.5073
285.688331 79.772 172.3558
287.758546 79.843 172.1724
289.843763 79.913 171.9579
291.944090 79.981 171.7134
294.059638 80.048 171.4405
296.190515 80.112 171.1417
298.336833 80.173 170.8205
300.498705 80.231 170.4811
302.676243 80.286 170.1285
304.869559 80.337 169.7673
307.078770 80.384 169.4019
309.303989 80.426 169.0359
311.545334 80.464 168.6723
313.802919 80.498 168.3133
316.076865 80.527 167.9614
318.367288 80.552 167.6189
320.674309 80.574 167.2886
322.998047 80.592 166.9732
325.338624 80.607 166.6755
327.696162 80.620 166.3977
330.070783 80.631 166.1416
332.462612 80.641 165.9080
334.871773 80.650 165.6972
337.298392 80.660 165.5087
339.742595 80.669 165.3410
342.204510 80.679 165.1924
344.684265 80.689 165.0601
347.181989 80.700 164.9415
349.697813 80.712 164.8335
352.231868 80.724 164.7334
354.784285 80.738 164.6382
357.355198 80.753 164.5453
359.944741 80.770 164.4523
362.553049 80.788 164.3577
365.180258 80.807 164.2601
367.826505 80.828 164.1592
370.491927 80.850 164.0543
373.176665 80.874 163.9447
375.880856 80.899 163.8295
378.604644 80.925 163.7070
381.348169 80.952 163.5759
384.111575 80.981 163.4346
386.895006 81.010 163.2820
389.698607 81.040 163.1172
392.522524 81.070 162.9399
395.366904 81.100 162.7499
398.231895 81.131 162.5469
401.117648 81.161 162.3305
404.024312 81.191 162.0999
406.952038 81.220 161.8544
409.900981 81.248 161.5932
412.871292 81.276 161.3161
415.863128 81.302 161.0229
418.876643 81.327 160.7139
421.911996 81.350 160.3892
424.969344 81.371 160.0493
428.048847 81.390 159.6944
431.150666 81.407 159.3249
434.274961 81.421 158.9410
437.421897 81.433 158.5433
440.591636 81.442 158.1320
443.784345 81.449 157.7077
447.000189 81.453 157.2712
450.239337 81.454 156.8232
453.501956 81.453 156.3647
456.788219 81.449 155.8970
460.098294 81.443 155.4211
463.432356 81.434 154.9384
466.790578 81.423 154.4493
470.173135 81.410 153.9546
473.580203 81.395 153.4540
477.011961 81.378 152.9474
480.468586 81.359 152.4346
483.950259 81.339 151.9151
487.457163 81.316 151.3889
490.989478 81.292 150.8558
494.547390 81.267 150.3165
498.131084 81.240 149.7715
501.740748 81.210 149.2220
505.376568 81.179 148.6697
509.038735 81.146 148.1164
512.727439 81.110 147.5649
516.442874 81.072 147.0180
520.185232 81.031 146.4791
523.954708 80.988 145.9517
527.751500 80.942 145.4392
531.575805 80.895 144.9451
535.427822 80.845 144.4728
539.307753 80.794 144.0251
543.215800 80.743 143.6044
547.152165 80.691 143.2121
551.117055 80.641 142.8488
555.110677 80.592 142.5140
559.133237 80.546 142.2065
563.184947 80.503 141.9240
567.266018 80.463 141.6636
571.376661 80.427 141.4215
575.517092 80.395 141.1938
579.687526 80.366 140.9761
583.888181 80.341 140.7642
588.119275 80.319 140.5537
592.381030 80.300 140.3410
596.673667 80.283 140.1226
600.997410 80.268 139.8954
605.352485 80.253 139.6568
609.739119 80.239 139.4048
614.157540 80.225 139.1376
618.607979 80.211 138.8537
623.090667 80.195 138.5519
627.605839 80.178 138.2311
632.153730 80.158 137.8906
636.734576 80.136 137.5299
641.348617 80.111 137.1485
645.996094 80.082 136.7464
650.677248 80.049 136.3238
655.392323 80.012 135.8811
660.141566 79.968 135.4195
664.925224 79.919 134.9408
669.743546 79.863 134.4476
674.596784 79.800 133.9435
679.485191 79.728 133.4328
684.409020 79.648 132.9208
689.368530 79.558 132.4138
694.363979 79.459 131.9184
699.395626 79.350 131.4427
704.463736 79.230 130.9952
709.568570 79.100 130.5852
714.710396 78.960 130.2227
719.889483 78.810 129.9183
725.106099 78.651 129.6822
730.360516 78.483 129.5244
735.653010 78.308 129.4542
740.983855 78.127 129.4793
746.353329 77.941 129.6058
751.761713 77.754 129.8375
757.209288 77.566 130.1762
762.696339 77.379 130.6210
768.223151 77.197 131.1688
773.790013 77.020 131.8146
779.397214 76.851 132.5515
785.045047 76.691 133.3716
790.733808 76.543 134.2655
796.463791 76.407 135.2229
802.235296 76.285 136.2324
808.048623 76.178 137.2812
813.904077 76.088 138.3559
819.801961 76.013 139.4419
825.742584 75.955 140.5247
831.726255 75.914 141.5901
837.753287 75.888 142.6252
843.823992 75.877 143.6187
849.938689 75.880 144.5618
856.097695 75.894 145.4481
862.301332 75.919 146.2740
868.549922 75.952 147.0384
874.843793 75.993 147.7427
881.183272 76.040 148.3903
887.568689 76.092 148.9858
894.000378 76.148 149.5345
900.478673 76.209 150.0413
907.003913 76.274 150.5101
913.576437 76.344 150.9433
920.196588 76.418 151.3409
926.864712 76.498 151.7011
933.581156 76.584 152.0198
940.346270 76.675 152.2919
947.160407 76.771 152.5114
954.023921 76.871 152.6724
960.937172 76.975 152.7703
967.900519 77.080 152.8018
974.914325 77.186 152.7661
981.978956 77.290 152.6648
989.094780 77.391 152.5024
996.262169 77.488 152.2859
1003.481495 77.579 152.0250
1010.753136 77.663 151.7312
1018.077470 77.742 151.4167
1025.454879 77.815 151.0940
1032.885748 77.883 150.7734
1040.370463 77.947 150.4630
1047.909417 78.009 150.1674
1055.503000 78.070 149.8877
1063.151610 78.131 149.6216
1070.855645 78.193 149.3640
1078.615506 78.257 149.1083
1086.431599 78.322 148.8469
1094.304330 78.387 148.5730
1102.234110 78.451 148.2814
1110.221353 78.512 147.9693
1118.266475 78.571 147.6371
1126.369895 78.624 147.2883
1134.532035 78.671 146.9295
1142.753322 78.711 146.5698
1151.034184 78.744 146.2201
1159.375052 78.770 145.8920
1167.776361 78.790 145.5972
1176.238550 78.805 145.3458
1184.762060 78.817 145.1456
1193.347334 78.829 145.0009
1201.994821 78.842 144.9119
1210.704971 78.859 144.8740
1219.478238 78.882 144.8788
1228.315080 78.912 144.9144
1237.215957 78.950 144.9673
1246.181334 78.996 145.0237
1255.211678 79.049 145.0715
1264.307459 79.108 145.1013
1273.469152 79.172 145.1074
1282.697235 79.239 145.0880
1291.992188 79.309 145.0446
1301.354495 79.381 144.9810
1310.784647 79.456 144.9018
1320.283132 79.532 144.8105
1329.850448 79.612 144.7076
1339.487093 79.696 144.5894
1349.193569 79.785 144.4479
1358.970381 79.879 144.2722
1368.818041 79.978 144.0504
1378.737061 80.080 143.7713
1388.727958 80.185 143.4260
1398.791253 80.290 143.0082
1408.927471 80.393 142.5146
1419.137140 80.493 141.9445
1429.420793 80.589 141.2990
1439.778965 80.677 140.5814
1450.212197 80.757 139.7969
1460.721033 80.825 138.9523
1471.306019 80.882 138.0567
1481.967709 80.924 137.1210
1492.706658 80.950 136.1585
1503.523426 80.958 135.1849
1514.418576 80.947 134.2183
1525.392678 80.915 133.2797
1536.446302 80.864 132.3925
1547.580025 80.791 131.5826
1558.794428 80.700 130.8773
1570.090095 80.591 130.3032
1581.467615 80.467 129.8845
1592.927581 80.334 129.6394
1604.470591 80.195 129.5786
1616.097246 80.055 129.7040
1627.808153 79.920 130.0087
1639.603922 79.794 130.4783
1651.485168 79.681 131.0921
1663.452510 79.584 131.8235
1675.506573 79.507 132.6415
1687.647984 79.450 133.5124
1699.877377 79.414 134.4014
1712.195390 79.398 135.2752
1724.602663 79.401 136.1046
1737.099845 79.421 136.8658
1749.687587 79.454 137.5419
1762.366544 79.496 138.1231
1775.137379 79.545 138.6061
1788.000756 79.598 138.9935
1800.957346 79.651 139.2925
1814.007826 79.702 139.5137
1827.152874 79.750 139.6682
1840.393177 79.793 139.7664
1853.729425 79.832 139.8162
1867.162312 79.865 139.8232
1880.692540 79.891 139.7922
1894.320813 79.911 139.7282
1908.047843 79.924 139.6380
1921.874344 79.929 139.5290
1935.801038 79.926 139.4085
1949.828650 79.917 139.2817
1963.957912 79.901 139.1511
1978.189561 79.879 139.0164
1992.524338 79.852 138.8760
2006.962991 79.820 138.7286
2021.506272 79.782 138.5744
2036.154940 79.739 138.4164
2050.909758 79.690 138.2596
2065.771495 79.635 138.1095
2080.740927 79.576 137.9713
2095.818833 79.513 137.8476
2111.006001 79.447 137.7385
2126.303220 79.379 137.6417
2141.711290 79.310 137.5539
2157.231013 79.240 137.4719
2172.863198 79.170 137.3932
2188.608660 79.100 137.3159
2204.468221 79.029 137.2379
2220.442706 78.960 137.1563
2236.532950 78.890 137.0667
2252.739789 78.821 136.9638
2269.064070 78.753 136.8427
2285.506644 78.683 136.6994
2302.068367 78.612 136.5315
2318.750104 78.538 136.3386
2335.552723 78.460 136.1228
2352.477101 78.376 135.8886
2369.524119 78.284 135.6437
2386.694668 78.184 135.3983
2403.989641 78.075 135.1656
2421.409941 77.955 134.9611
2438.956476 77.824 134.8020
2456.630160 77.682 134.7076
2474.431915 77.530 134.7000
2492.362668 77.367 134.8053
2510.423356 77.195 135.0546
2528.614918 77.016 135.4843
2546.938304 76.834 136.1332
2565.394469 76.655 137.0379
2583.984375 76.486 138.2243
2602.708991 76.338 139.6984
2621.569293 76.220 141.4384
2640.566265 76.142 143.3915
2659.700897 76.111 145.4791
2678.974186 76.129 147.6083
2698.387137 76.196 149.6886
2717.940763 76.306 151.6453
2737.636082 76.453 153.4277
2757.474121 76.629 155.0101
2777.455915 76.826 156.3867
2797.582506 77.039 157.5647
2817.854942 77.262 158.5576
2838.274281 77.491 159.3800
2858.841586 77.723 160.0446
2879.557931 77.955 160.5620
2900.424394 78.184 160.9420
2921.442065 78.406 161.1957
2942.612039 78.619 161.3378
2963.935418 78.821 161.3868
2985.413316 79.010 161.3646
3007.046852 79.186 161.2947
3028.837153 79.351 161.1992
3050.785356 79.504 161.0965
3072.892604 79.650 160.9984
3095.160050 79.790 160.9085
3117.588856 79.925 160.8225
3140.180190 80.059 160.7289
3162.935230 80.191 160.6129
3185.855163 80.321 160.4581
3208.941182 80.447 160.2502
3232.194493 80.569 159.9771
3255.616307 80.684 159.6298
3279.207844 80.792 159.2019
3302.970336 80.888 158.6897
3326.905021 80.972 158.0920
3351.013146 81.040 157.4113
3375.295969 81.090 156.6541
3399.754755 81.118 155.8333
3424.390779 81.122 154.9688
3449.205326 81.098 154.0885
3474.199690 81.044 153.2280
3499.375173 80.959 152.4305
3524.733088 80.844 151.7458
3550.274757 80.700 151.2266
3576.001511 80.533 150.9235
3601.914692 80.348 150.8773
3628.015651 80.157 151.1100
3654.305748 79.969 151.6174
3680.786354 79.797 152.3674
3707.458849 79.649 153.3059
3734.324624 79.531 154.3690
3761.385080 79.448 155.4966
3788.641627 79.401 156.6404
3816.095686 79.388 157.7653
3843.748688 79.409 158.8445
3871.602076 79.461 159.8541
3899.657300 79.543 160.7706
3927.915825 79.650 161.5724
3956.379122 79.778 162.2436
3985.048676 79.923 162.7757
4013.925981 80.079 163.1674
4043.012544 80.242 163.4225
4072.309879 80.408 163.5466
4101.819515 80.573 163.5466
4131.542990 80.735 163.4310
4161.481854 80.888 163.2120
4191.637667 81.032 162.9057
4222.012001 81.162 162.5316
4252.606441 81.279 162.1096
4283.422580 81.382 161.6579
4314.462026 81.470 161.1916
4345.726396 81.545 160.7228
4377.217321 81.606 160.2628
4408.936442 81.653 159.8228
4440.885413 81.686 159.4149
4473.065899 81.708 159.0501
4505.479579 81.719 158.7374
4538.128141 81.722 158.4825
4571.013288 81.717 158.2879
4604.136735 81.708 158.1538
4637.500207 81.695 158.0785
4671.105446 81.680 158.0594
4704.954201 81.665 158.0931
4739.048239 81.651 158.1764
4773.389336 81.640 158.3058
4807.979283 81.632 158.4782
4842.819883 81.629 158.6908
4877.912952 81.633 158.9404
4913.260320 81.645 159.2236
4948.863830 81.667 159.5363
4984.725337 81.701 159.8728
5020.846712 81.748 160.2252
5057.229836 81.811 160.5825
5093.876609 81.890 160.9310
5130.788938 81.986 161.2554
5167.968750 82.098 161.5400
5205.417982 82.227 161.7715
5243.138586 82.371 161.9395
5281.132530 82.529 162.0365
5319.401793 82.701 162.0562
5357.948371 82.884 161.9932
5396.774274 83.078 161.8421
5435.881525 83.283 161.5980
5475.272163 83.496 161.2562
5514.948243 83.717 160.8118
5554.911831 83.946 160.2575
5595.165012 84.180 159.5826
5635.709884 84.418 158.7729
5676.548561 84.657 157.8129
5717.683172 84.893 156.6889
5759.115861 85.121 155.3929
5800.848789 85.338 153.9233
5842.884130 85.538 152.2841
5885.224077 85.718 150.4836
5927.870837 85.874 148.5334
5970.826633 86.003 146.4478
6014.093704 86.102 144.2435
6057.674306 86.168 141.9386
6101.570711 86.201 139.5526
6145.785208 86.196 137.1060
6190.320101 86.154 134.6210
6235.177712 86.071 132.1212
6280.360380 85.948 129.6322
6325.870460 85.783 127.1817
6371.710325 85.575 124.7996
6417.882365 85.324 122.5167
6464.388986 85.032 120.3641
6511.232613 84.701 118.3699
6558.415689 84.334 116.5572
6605.940673 83.934 114.9409
6653.810042 83.505 113.5261
6702.026292 83.053 112.3087
6750.591937 82.580 111.2810
6799.509509 82.087 110.4365
6848.781558 81.577 109.7749
6898.410653 81.049 109.3030
6948.399380 80.504 109.0349
6998.750346 79.941 108.9919
7049.466176 79.361 109.2019
7100.549514 78.765 109.6986
7152.003023 78.154 110.5220
7203.829385 77.532 111.7183
7256.031302 76.902 113.3408
7308.611496 76.271 115.4485
7361.572708 75.645 118.1035
7414.917698 75.035 121.3629
7468.649249 74.454 125.2641
7522.770160 73.918 129.7993
7577.283253 73.445 134.8828
7632.191371 73.052 140.3266
7687.497376 72.752 145.8467
7743.204151 72.553 151.1156
7799.314600 72.451 155.8411
7855.831649 72.432 159.8293
7912.758244 72.478 163.0058
7970.097352 72.564 165.4008
8027.851962 72.669 167.1207
8086.025087 72.776 168.3265
8144.619758 72.870 169.2286
8203.639030 72.948 170.0992
8263.085980 73.010 171.3087
8322.963708 73.068 173.3962
8383.275334 73.138 177.1908
8444.024002 73.242 -176.0445
8505.212881 73.404 -164.7567
8566.845160 73.642 -148.6382
8628.924051 73.962 -131.3052
8691.452792 74.361 -117.8437
8754.434642 74.822 -109.5790
8817.872884 75.323 -105.2267
8881.770826 75.844 -103.3499
8946.131799 76.366 -102.9744
9010.959157 76.877 -103.5052
9076.256282 77.368 -104.5832
9142.026576 77.834 -105.9910
9208.273470 78.272 -107.5961
9275.000415 78.680 -109.3174
9342.210891 79.058 -111.1031
9409.908403 79.403 -112.9156
9478.096478 79.714 -114.7225
9546.778672 79.992 -116.4893
9615.958566 80.238 -118.1768
9685.639765 80.458 -119.7416
9755.825904 80.659 -121.1425
9826.520640 80.855 -122.3536
9897.727659 81.062 -123.3794
9969.450674 81.295 -124.2641
10041.693423 81.563 -125.0874
10114.459673 81.872 -125.9522
10187.753217 82.217 -126.9667
10261.577877 82.589 -128.2290
10335.937500 82.975 -129.8157
10410.835964 83.358 -131.7766
10486.277173 83.721 -134.1342
10562.265060 84.051 -136.8858
10638.803587 84.333 -140.0060
10715.896743 84.555 -143.4497
10793.548548 84.707 -147.1556
10871.763050 84.784 -151.0505
10950.544327 84.782 -155.0546
11029.896485 84.700 -159.0882
11109.823662 84.543 -163.0779
11190.330024 84.315 -166.9617
11271.419768 84.024 -170.6930
11353.097122 83.679 -174.2411
11435.366344 83.289 -177.5915
11518.231722 82.865 179.2563
11601.697577 82.416 176.2902
11685.768261 81.951 173.4874
11770.448155 81.480 170.8151
11855.741674 81.011 168.2309
11941.653265 80.554 165.6844
12028.187408 80.116 163.1185
12115.348612 79.703 160.4724
12203.141422 79.321 157.6830
12291.570415 78.974 154.6878
12380.640201 78.663 151.4249
12470.355424 78.389 147.8336
12560.720760 78.151 143.8549
12651.740920 77.943 139.4305
12743.420650 77.759 134.5045
12835.764729 77.592 129.0227
12928.777972 77.430 122.9337
13022.465227 77.262 116.1885
13116.831378 77.078 108.7409
13211.881345 76.867 100.5468
13307.620084 76.621 91.5663
13404.052584 76.333 81.7691
13501.183875 76.001 71.1472
13599.019019 75.623 59.7385
13697.563116 75.201 47.6579
13796.821305 74.739 35.1234
13896.798760 74.244 22.4532
13997.500692 73.721 10.0205
14098.932352 73.178 -1.8253
14201.099028 72.624 -12.8265
14304.006046 72.067 -22.8446
14407.658770 71.515 -31.8461
14512.062604 70.975 -39.8685
14617.222992 70.456 -46.9877
14723.145416 69.965 -53.2937
14829.835397 69.509 -58.8773
14937.298497 69.098 -63.8243
15045.540320 68.740 -68.2144
15154.566507 68.445 -72.1232
15264.382743 68.225 -75.6265
15374.994752 68.092 -78.8046
15486.408302 68.057 -81.7459
15598.629201 68.126 -84.5471
15711.663298 68.302 -87.3110
15825.516487 68.579 -90.1417
15940.194703 68.946 -93.1387
16055.703925 69.385 -96.3939
16172.050174 69.879 -99.9891
16289.239516 70.406 -103.9955
16407.278061 70.946 -108.4724
16526.171961 71.480 -113.4656
16645.927415 71.991 -119.0033
16766.550667 72.463 -125.0938
16888.048005 72.886 -131.7217
17010.425762 73.249 -138.8480
17133.690320 73.552 -146.4111
17257.848103 73.796 -154.3306
17382.905584 73.991 -162.5132
17508.869284 74.153 -170.8620
17635.745768 74.304 -179.2870
17763.541652 74.471 172.2811
17892.263597 74.680 163.8741
18021.918315 74.947 155.4683
18152.512564 75.282 146.9659
18284.053153 75.674 138.1866
18416.546939 76.105 128.8694
18550.000830 76.548 118.6753
18684.421783 76.976 107.1700
18819.816805 77.364 93.7470
18956.192956 77.698 77.4879
19093.557344 77.968 57.1482
19231.917131 78.172 32.1297
19371.279531 78.315 5.1929
19511.651807 78.408 -17.9473
19653.041280 78.461 -34.3157
19795.455318 78.487 -44.3318
19938.901348 78.497 -49.0480
