* Measurement data measured by REW V5.31.3
* Source: EXCL: Headset (USB-C to 3.5mm Headphone Jack Adapter), MICROPHONE (Master Volume), 0, volume: 0.260
* Format: 256k Log Swept Sine, 1 sweep at -12.0 dBFS with no timing reference
* Dated: Mar 5, 2025 10:56:55 AM
* REW Settings:
*  C-weighting compensation: Off
*  Target level: 75.0 dB
* Note: ; 
* Measurement: Ouroboros Reprint R6
* Smoothing: 1/6 octave
* Frequency Step: 96 ppo
* Start Frequency: 20.0 Hz
*
* Freq(Hz) SPL(dB) Phase(degrees)
20.141602 97.826 -116.7438
20.287556 97.815 -116.9876
20.434568 97.800 -117.3129
20.582645 97.782 -117.7086
20.731796 97.762 -118.1623
20.882027 97.741 -118.6619
21.033346 97.718 -119.1960
21.185763 97.696 -119.7545
21.339284 97.674 -120.3291
21.493917 97.652 -120.9128
21.649671 97.630 -121.5003
21.806553 97.608 -122.0873
21.964572 97.586 -122.6707
22.123737 97.564 -123.2484
22.284054 97.540 -123.8185
22.445534 97.515 -124.3801
22.608183 97.488 -124.9324
22.772012 97.459 -125.4753
22.937027 97.428 -126.0088
23.103238 97.394 -126.5336
23.270654 97.357 -127.0508
23.439282 97.316 -127.5616
23.609133 97.273 -128.0679
23.780215 97.225 -128.5713
23.952536 97.174 -129.0738
24.126106 97.119 -129.5771
24.300934 97.060 -130.0829
24.477028 96.996 -130.5923
24.654399 96.929 -131.1068
24.833055 96.859 -131.6274
25.013005 96.786 -132.1557
25.194260 96.712 -132.6935
25.376828 96.639 -133.2430
25.560719 96.569 -133.8073
25.745942 96.503 -134.3895
25.932508 96.445 -134.9927
26.120426 96.395 -135.6197
26.309705 96.356 -136.2716
26.500356 96.327 -136.9475
26.692388 96.310 -137.6440
26.885812 96.304 -138.3546
27.080638 96.308 -139.0701
27.276876 96.319 -139.7790
27.474535 96.336 -140.4687
27.673627 96.357 -141.1265
27.874161 96.379 -141.7410
28.076149 96.400 -142.3035
28.279600 96.417 -142.8091
28.484526 96.428 -143.2569
28.690937 96.433 -143.6503
28.898843 96.429 -143.9969
29.108256 96.416 -144.3070
29.319186 96.392 -144.5930
29.531645 96.359 -144.8676
29.745644 96.316 -145.1426
29.961193 96.263 -145.4278
30.178304 96.203 -145.7300
30.396989 96.137 -146.0526
30.617258 96.067 -146.3955
30.839123 95.995 -146.7555
31.062596 95.924 -147.1268
31.287688 95.855 -147.5019
31.514412 95.791 -147.8725
31.742778 95.733 -148.2304
31.972800 95.681 -148.5686
32.204488 95.635 -148.8814
32.437855 95.596 -149.1650
32.672913 95.562 -149.4179
32.909674 95.533 -149.6404
33.148151 95.508 -149.8345
33.388356 95.486 -150.0033
33.630302 95.466 -150.1506
33.874001 95.449 -150.2802
34.119466 95.433 -150.3951
34.366710 95.418 -150.4971
34.615745 95.404 -150.5865
34.866585 95.391 -150.6625
35.119243 95.377 -150.7226
35.373731 95.363 -150.7642
35.630064 95.347 -150.7847
35.888254 95.327 -150.7822
36.148315 95.304 -150.7562
36.410261 95.277 -150.7077
36.674104 95.244 -150.6393
36.939860 95.205 -150.5543
37.207542 95.160 -150.4570
37.477163 95.110 -150.3514
37.748738 95.055 -150.2410
38.022281 94.997 -150.1287
38.297806 94.937 -150.0159
38.575327 94.876 -149.9029
38.854860 94.815 -149.7884
39.136419 94.757 -149.6703
39.420017 94.701 -149.5451
39.705671 94.648 -149.4097
39.993395 94.600 -149.2609
40.283203 94.555 -149.0969
40.575112 94.515 -148.9175
40.869136 94.479 -148.7239
41.165290 94.448 -148.5185
41.463591 94.423 -148.3044
41.764053 94.403 -148.0847
42.066693 94.389 -147.8622
42.371525 94.382 -147.6388
42.678567 94.382 -147.4163
42.987834 94.389 -147.1959
43.299341 94.404 -146.9788
43.613106 94.426 -146.7657
43.929145 94.455 -146.5576
44.247473 94.491 -146.3556
44.568109 94.533 -146.1613
44.891068 94.580 -145.9774
45.216367 94.633 -145.8072
45.544023 94.692 -145.6548
45.874054 94.756 -145.5234
46.206476 94.825 -145.4153
46.541307 94.899 -145.3306
46.878565 94.977 -145.2685
47.218266 95.059 -145.2270
47.560429 95.144 -145.2050
47.905072 95.233 -145.2020
48.252212 95.323 -145.2189
48.601867 95.416 -145.2571
48.954056 95.510 -145.3177
49.308798 95.604 -145.4020
49.666109 95.698 -145.5106
50.026010 95.792 -145.6443
50.388520 95.886 -145.8038
50.753656 95.981 -145.9899
51.121437 96.074 -146.2028
51.491884 96.167 -146.4422
51.865016 96.259 -146.7074
52.240851 96.349 -146.9978
52.619410 96.438 -147.3134
53.000712 96.524 -147.6551
53.384777 96.608 -148.0238
53.771625 96.688 -148.4204
54.161276 96.765 -148.8440
54.553751 96.839 -149.2928
54.949070 96.908 -149.7634
55.347254 96.974 -150.2523
55.748323 97.036 -150.7564
56.152298 97.093 -151.2736
56.559201 97.148 -151.8029
56.969052 97.200 -152.3442
57.381873 97.249 -152.8970
57.797686 97.297 -153.4603
58.216512 97.343 -154.0317
58.638373 97.388 -154.6077
59.063291 97.433 -155.1845
59.491288 97.477 -155.7590
59.922386 97.521 -156.3298
60.356608 97.565 -156.8976
60.793977 97.609 -157.4647
61.234515 97.651 -158.0341
61.678246 97.692 -158.6088
62.125192 97.730 -159.1906
62.575377 97.764 -159.7805
63.028824 97.795 -160.3784
63.485557 97.822 -160.9837
63.945599 97.846 -161.5952
64.408975 97.865 -162.2118
64.875709 97.880 -162.8324
65.345825 97.891 -163.4557
65.819348 97.899 -164.0804
66.296302 97.903 -164.7054
66.776713 97.905 -165.3293
67.260604 97.905 -165.9512
67.748002 97.903 -166.5702
68.238932 97.899 -167.1857
68.733420 97.894 -167.7973
69.231490 97.888 -168.4052
69.733170 97.881 -169.0094
70.238485 97.871 -169.6105
70.747463 97.861 -170.2085
71.260128 97.849 -170.8035
71.776508 97.835 -171.3951
72.296630 97.819 -171.9824
72.820521 97.801 -172.5645
73.348209 97.782 -173.1398
73.879720 97.761 -173.7070
74.415083 97.738 -174.2645
74.954326 97.714 -174.8107
75.497475 97.689 -175.3445
76.044561 97.663 -175.8649
76.595612 97.635 -176.3712
77.150655 97.607 -176.8631
77.709720 97.577 -177.3405
78.272837 97.546 -177.8035
78.840034 97.513 -178.2523
79.411342 97.480 -178.6873
79.986789 97.446 -179.1088
80.566406 97.410 -179.5169
81.150224 97.374 -179.9122
81.738272 97.337 179.7054
82.330581 97.300 179.3353
82.927182 97.263 178.9773
83.528107 97.226 178.6309
84.133386 97.190 178.2953
84.743051 97.154 177.9702
85.357134 97.119 177.6543
85.975667 97.085 177.3468
86.598682 97.052 177.0467
87.226212 97.020 176.7527
87.858289 96.990 176.4639
88.494946 96.962 176.1791
89.136217 96.936 175.8976
89.782135 96.913 175.6185
90.432733 96.891 175.3409
91.088046 96.872 175.0643
91.748108 96.854 174.7881
92.412952 96.839 174.5121
93.082615 96.824 174.2361
93.757130 96.810 173.9598
94.436533 96.797 173.6829
95.120859 96.783 173.4048
95.810144 96.768 173.1251
96.504423 96.752 172.8431
97.203734 96.735 172.5580
97.908112 96.716 172.2691
98.617595 96.696 171.9762
99.332219 96.674 171.6790
100.052021 96.650 171.3775
100.777039 96.625 171.0717
101.507311 96.599 170.7617
102.242875 96.572 170.4471
102.983769 96.544 170.1281
103.730032 96.517 169.8044
104.481702 96.489 169.4761
105.238820 96.461 169.1434
106.001424 96.434 168.8061
106.769554 96.407 168.4646
107.543250 96.381 168.1190
108.322553 96.355 167.7697
109.107503 96.330 167.4169
109.898141 96.306 167.0610
110.694508 96.282 166.7018
111.496646 96.257 166.3393
112.304596 96.231 165.9731
113.118402 96.205 165.6028
113.938104 96.177 165.2286
114.763747 96.147 164.8506
115.595372 96.115 164.4695
116.433024 96.081 164.0869
117.276746 96.044 163.7050
118.126581 96.003 163.3264
118.982575 95.960 162.9540
119.844772 95.914 162.5903
120.713217 95.865 162.2369
121.587954 95.813 161.8939
122.469031 95.759 161.5607
123.356492 95.704 161.2359
124.250384 95.647 160.9184
125.150753 95.590 160.6071
126.057647 95.532 160.3015
126.971113 95.475 160.0011
127.891198 95.418 159.7061
128.817950 95.361 159.4167
129.751418 95.305 159.1339
130.691651 95.249 158.8586
131.638696 95.194 158.5920
132.592604 95.139 158.3351
133.553425 95.084 158.0885
134.521208 95.029 157.8530
135.496004 94.973 157.6288
136.477864 94.916 157.4162
137.466839 94.858 157.2151
138.462981 94.799 157.0255
139.466340 94.737 156.8472
140.476971 94.674 156.6799
141.494925 94.607 156.5235
142.520256 94.538 156.3780
143.553016 94.466 156.2435
144.593260 94.391 156.1203
145.641043 94.314 156.0086
146.696418 94.235 155.9088
147.759441 94.155 155.8212
148.830166 94.074 155.7456
149.908651 93.994 155.6823
150.994951 93.914 155.6311
152.089123 93.835 155.5918
153.191223 93.758 155.5643
154.301310 93.683 155.5483
155.419441 93.609 155.5437
156.545674 93.538 155.5504
157.680069 93.469 155.5683
158.822683 93.401 155.5973
159.973578 93.334 155.6371
161.132813 93.269 155.6874
162.300447 93.205 155.7476
163.476543 93.141 155.8173
164.661162 93.078 155.8963
165.854364 93.015 155.9844
167.056213 92.953 156.0818
168.266772 92.892 156.1885
169.486102 92.831 156.3051
170.714268 92.770 156.4318
171.951334 92.710 156.5691
173.197364 92.650 156.7176
174.452424 92.591 156.8774
175.716578 92.533 157.0490
176.989893 92.475 157.2320
178.272434 92.417 157.4264
179.564270 92.360 157.6317
180.865467 92.303 157.8471
182.176092 92.246 158.0718
183.496216 92.190 158.3048
184.825905 92.134 158.5452
186.165229 92.078 158.7920
187.514259 92.022 159.0444
188.873065 91.967 159.3019
190.241717 91.911 159.5640
191.620287 91.855 159.8305
193.008847 91.799 160.1010
194.407468 91.743 160.3751
195.816225 91.687 160.6519
197.235190 91.630 160.9308
198.664438 91.574 161.2109
200.104042 91.518 161.4911
201.554078 91.462 161.7707
203.014622 91.407 162.0487
204.485750 91.354 162.3246
205.967538 91.304 162.5975
207.460064 91.256 162.8670
208.963405 91.211 163.1325
210.477640 91.170 163.3938
212.002848 91.135 163.6507
213.539108 91.104 163.9033
215.086500 91.079 164.1519
216.645105 91.061 164.3966
218.215005 91.048 164.6376
219.796281 91.041 164.8747
221.389015 91.040 165.1078
222.993292 91.044 165.3368
224.609193 91.054 165.5612
226.236804 91.067 165.7809
227.876209 91.085 165.9956
229.527494 91.106 166.2051
231.190745 91.130 166.4095
232.866048 91.156 166.6088
234.553491 91.184 166.8030
236.253163 91.214 166.9921
237.965150 91.245 167.1761
239.689544 91.277 167.3547
241.426433 91.310 167.5278
243.175909 91.342 167.6953
244.938062 91.375 167.8578
246.712984 91.407 168.0159
248.500768 91.438 168.1704
250.301507 91.468 168.3224
252.115295 91.497 168.4728
253.942226 91.524 168.6222
255.782396 91.551 168.7710
257.635901 91.576 168.9194
259.502837 91.601 169.0675
261.383301 91.624 169.2153
263.277392 91.647 169.3630
265.185209 91.668 169.5107
267.106850 91.689 169.6587
269.042417 91.708 169.8076
270.992009 91.726 169.9578
272.955729 91.742 170.1099
274.933678 91.757 170.2643
276.925961 91.769 170.4210
278.932681 91.779 170.5794
280.953942 91.786 170.7386
282.989850 91.791 170.8972
285.040511 91.792 171.0536
287.106032 91.790 171.2061
289.186521 91.785 171.3528
291.282086 91.778 171.4922
293.392836 91.767 171.6233
295.518881 91.755 171.7450
297.660333 91.741 171.8567
299.817302 91.725 171.9577
301.989902 91.709 172.0475
304.178245 91.692 172.1256
306.382446 91.675 172.1913
308.602620 91.659 172.2444
310.838882 91.645 172.2846
313.091348 91.631 172.3118
315.360137 91.620 172.3259
317.645367 91.611 172.3272
319.947156 91.605 172.3161
322.265625 91.601 172.2928
324.600895 91.601 172.2579
326.953086 91.605 172.2117
329.322323 91.612 172.1549
331.708729 91.623 172.0883
334.112427 91.638 172.0125
336.533543 91.657 171.9286
338.972204 91.680 171.8377
341.428536 91.706 171.7406
343.902668 91.736 171.6383
346.394729 91.770 171.5316
348.904848 91.806 171.4214
351.433156 91.843 171.3087
353.979786 91.882 171.1943
356.544869 91.920 171.0789
359.128540 91.958 170.9634
361.730934 91.994 170.8481
364.352185 92.027 170.7337
366.992431 92.057 170.6206
369.651810 92.082 170.5091
372.330459 92.103 170.3995
375.028519 92.118 170.2921
377.746130 92.128 170.1870
380.483434 92.132 170.0844
383.240574 92.130 169.9842
386.017693 92.122 169.8865
388.814937 92.109 169.7910
391.632450 92.092 169.6976
394.470380 92.072 169.6060
397.328875 92.048 169.5157
400.208084 92.023 169.4266
403.108157 91.998 169.3385
406.029245 91.973 169.2514
408.971500 91.950 169.1656
411.935076 91.929 169.0814
414.920127 91.911 168.9993
417.926810 91.896 168.9199
420.955280 91.886 168.8436
424.005695 91.879 168.7710
427.078215 91.875 168.7023
430.173000 91.874 168.6378
433.290211 91.876 168.5776
436.430010 91.879 168.5221
439.592562 91.883 168.4716
442.778031 91.886 168.4265
445.986583 91.888 168.3873
449.218386 91.888 168.3542
452.473607 91.886 168.3274
455.752418 91.881 168.3069
459.054987 91.874 168.2924
462.381489 91.864 168.2838
465.732096 91.852 168.2806
469.106983 91.838 168.2824
472.506325 91.822 168.2887
475.930301 91.805 168.2991
479.379088 91.787 168.3130
482.852867 91.768 168.3302
486.351817 91.750 168.3501
489.876123 91.731 168.3725
493.425968 91.714 168.3970
497.001536 91.698 168.4234
500.603014 91.684 168.4515
504.230589 91.674 168.4811
507.884452 91.667 168.5121
511.564792 91.664 168.5441
515.271802 91.668 168.5769
519.005673 91.677 168.6102
522.766602 91.693 168.6438
526.554785 91.717 168.6771
530.370418 91.747 168.7098
534.213700 91.783 168.7415
538.084833 91.825 168.7716
541.984018 91.871 168.7998
545.911457 91.921 168.8254
549.867357 91.971 168.8481
553.851922 92.022 168.8674
557.865362 92.070 168.8827
561.907884 92.115 168.8937
565.979700 92.155 168.9001
570.081022 92.189 168.9017
574.212064 92.215 168.8983
578.373042 92.234 168.8900
582.564171 92.243 168.8768
586.785671 92.243 168.8590
591.037762 92.232 168.8369
595.320665 92.212 168.8107
599.634604 92.181 168.7809
603.979804 92.140 168.7474
608.356491 92.090 168.7106
612.764893 92.031 168.6704
617.205240 91.965 168.6270
621.677763 91.893 168.5804
626.182696 91.817 168.5309
630.720274 91.738 168.4791
635.290733 91.659 168.4252
639.894312 91.582 168.3699
644.531250 91.506 168.3140
649.201789 91.435 168.2580
653.906173 91.369 168.2028
658.644647 91.309 168.1491
663.417457 91.255 168.0978
668.224854 91.209 168.0493
673.067086 91.171 168.0043
677.944408 91.140 167.9633
682.857073 91.118 167.9265
687.805336 91.103 167.8945
692.789457 91.095 167.8676
697.809695 91.095 167.8462
702.866312 91.100 167.8307
707.959571 91.111 167.8220
713.089738 91.125 167.8206
718.257080 91.141 167.8275
723.461867 91.159 167.8436
728.704370 91.175 167.8702
733.984862 91.191 167.9081
739.303619 91.203 167.9587
744.660918 91.212 168.0227
750.057038 91.218 168.1011
755.492260 91.220 168.1945
760.966869 91.218 168.3031
766.481148 91.215 168.4271
772.035387 91.209 168.5662
777.629873 91.202 168.7195
783.264900 91.194 168.8860
788.940760 91.185 169.0641
794.657750 91.175 169.2517
800.416168 91.164 169.4462
806.216313 91.151 169.6442
812.058489 91.136 169.8419
817.943000 91.118 170.0343
823.870152 91.096 170.2161
829.840255 91.071 170.3810
835.853619 91.042 170.5228
841.910559 91.010 170.6354
848.011390 90.975 170.7135
854.156430 90.939 170.7534
860.346000 90.902 170.7540
866.580422 90.865 170.7166
872.860020 90.829 170.6457
879.185124 90.796 170.5488
885.556062 90.765 170.4352
891.973166 90.739 170.3154
898.436771 90.718 170.1998
904.947215 90.703 170.0972
911.504835 90.695 170.0146
918.109975 90.694 169.9562
924.762978 90.700 169.9239
931.464192 90.713 169.9175
938.213966 90.732 169.9349
945.012651 90.755 169.9731
951.860602 90.783 170.0284
958.758176 90.813 170.0967
965.705733 90.844 170.1743
972.703635 90.876 170.2572
979.752246 90.907 170.3427
986.851935 90.937 170.4280
994.003071 90.967 170.5113
1001.206027 90.995 170.5912
1008.461179 91.023 170.6669
1015.768904 91.051 170.7380
1023.129584 91.080 170.8044
1030.543603 91.111 170.8662
1038.011347 91.144 170.9241
1045.533205 91.181 170.9788
1053.109569 91.221 171.0314
1060.740836 91.266 171.0834
1068.427401 91.315 171.1367
1076.169666 91.367 171.1932
1083.968035 91.423 171.2557
1091.822915 91.479 171.3270
1099.734713 91.537 171.4104
1107.703844 91.594 171.5094
1115.730723 91.649 171.6275
1123.815768 91.701 171.7686
1131.959400 91.751 171.9356
1140.162045 91.799 172.1313
1148.424129 91.846 172.3567
1156.746083 91.892 172.6110
1165.128342 91.942 172.8903
1173.571343 91.997 173.1874
1182.075524 92.059 173.4908
1190.641331 92.133 173.7843
1199.269209 92.218 174.0482
1207.959608 92.316 174.2603
1216.712981 92.426 174.3983
1225.529785 92.546 174.4432
1234.410479 92.672 174.3826
1243.355526 92.801 174.2128
1252.365393 92.927 173.9408
1261.440549 93.047 173.5823
1270.581467 93.158 173.1600
1279.788624 93.259 172.6992
1289.062500 93.349 172.2247
1298.403578 93.430 171.7582
1307.812346 93.501 171.3167
1317.289293 93.564 170.9119
1326.834914 93.621 170.5508
1336.449707 93.673 170.2361
1346.134173 93.721 169.9671
1355.888816 93.766 169.7407
1365.714145 93.809 169.5525
1375.610673 93.850 169.3970
1385.578915 93.889 169.2685
1395.619391 93.927 169.1613
1405.732624 93.964 169.0699
1415.919142 94.000 168.9893
1426.179476 94.035 168.9150
1436.514160 94.069 168.8432
1446.923734 94.103 168.7707
1457.408740 94.135 168.6948
1467.969724 94.167 168.6135
1478.607238 94.198 168.5251
1489.321836 94.228 168.4285
1500.114076 94.256 168.3229
1510.984521 94.282 168.2076
1521.933737 94.305 168.0825
1532.962297 94.326 167.9473
1544.070773 94.343 167.8021
1555.259747 94.357 167.6469
1566.529800 94.368 167.4821
1577.881521 94.375 167.3078
1589.315501 94.379 167.1244
1600.832336 94.381 166.9323
1612.432627 94.381 166.7316
1624.116978 94.380 166.5228
1635.886000 94.377 166.3062
1647.740304 94.374 166.0820
1659.680509 94.369 165.8505
1671.707238 94.364 165.6120
1683.821118 94.358 165.3668
1696.022780 94.351 165.1150
1708.312860 94.342 164.8572
1720.692000 94.332 164.5936
1733.160843 94.322 164.3247
1745.720041 94.310 164.0509
1758.370248 94.299 163.7726
1771.112124 94.287 163.4902
1783.946332 94.276 163.2041
1796.873543 94.265 162.9147
1809.894429 94.255 162.6224
1823.009670 94.246 162.3278
1836.219950 94.237 162.0312
1849.525956 94.227 161.7330
1862.928384 94.216 161.4335
1876.427931 94.204 161.1333
1890.025301 94.189 160.8326
1903.721204 94.170 160.5318
1917.516352 94.147 160.2314
1931.411466 94.120 159.9320
1945.407270 94.087 159.6342
1959.504493 94.050 159.3386
1973.703870 94.008 159.0462
1988.006142 93.962 158.7578
2002.412054 93.911 158.4742
2016.922357 93.858 158.1965
2031.537808 93.802 157.9254
2046.259169 93.745 157.6618
2061.087206 93.688 157.4062
2076.022694 93.631 157.1594
2091.066410 93.575 156.9216
2106.219139 93.521 156.6935
2121.481671 93.469 156.4751
2136.854802 93.421 156.2668
2152.339333 93.377 156.0686
2167.936071 93.337 155.8804
2183.645829 93.302 155.7018
2199.469427 93.273 155.5323
2215.407689 93.249 155.3712
2231.461446 93.231 155.2171
2247.631536 93.221 155.0691
2263.918800 93.216 154.9256
2280.324089 93.219 154.7856
2296.848258 93.228 154.6479
2313.492167 93.243 154.5121
2330.256685 93.263 154.3777
2347.142685 93.288 154.2451
2364.151049 93.317 154.1148
2381.282662 93.348 153.9880
2398.538418 93.382 153.8660
2415.919216 93.416 153.7502
2433.425962 93.450 153.6420
2451.059570 93.482 153.5430
2468.820958 93.513 153.4547
2486.711052 93.540 153.3781
2504.730786 93.564 153.3146
2522.881098 93.584 153.2652
2541.162934 93.599 153.2305
2559.577248 93.609 153.2111
2578.125000 93.613 153.2071
2596.807157 93.610 153.2184
2615.624692 93.602 153.2449
2634.578586 93.587 153.2859
2653.669829 93.565 153.3411
2672.899414 93.536 153.4099
2692.268345 93.501 153.4918
2711.777632 93.458 153.5864
2731.428290 93.409 153.6932
2751.221345 93.354 153.8121
2771.157829 93.292 153.9426
2791.238781 93.223 154.0848
2811.465248 93.149 154.2388
2831.838284 93.069 154.4051
2852.358952 92.984 154.5842
2873.028321 92.894 154.7768
2893.847468 92.799 154.9838
2914.817480 92.699 155.2060
2935.939449 92.596 155.4442
2957.214476 92.488 155.6990
2978.643672 92.378 155.9713
3000.228152 92.266 156.2612
3021.969041 92.151 156.5692
3043.867475 92.035 156.8955
3065.924593 91.918 157.2401
3088.141547 91.800 157.6031
3110.519493 91.682 157.9851
3133.059600 91.565 158.3864
3155.763041 91.448 158.8081
3178.631001 91.332 159.2512
3201.664672 91.217 159.7173
3224.865254 91.104 160.2080
3248.233957 90.993 160.7251
3271.771999 90.885 161.2705
3295.480608 90.781 161.8458
3319.361019 90.681 162.4524
3343.414477 90.586 163.0914
3367.642236 90.498 163.7633
3392.045560 90.418 164.4685
3416.625721 90.346 165.2067
3441.383999 90.284 165.9777
3466.321686 90.232 166.7809
3491.440082 90.191 167.6157
3516.740496 90.163 168.4812
3542.224247 90.147 169.3762
3567.892664 90.144 170.2982
3593.747085 90.156 171.2437
3619.788858 90.182 172.2071
3646.019340 90.224 173.1808
3672.439900 90.281 174.1552
3699.051913 90.354 175.1194
3725.856768 90.441 176.0623
3752.855862 90.543 176.9729
3780.050603 90.658 177.8421
3807.442408 90.783 178.6629
3835.032705 90.919 179.4306
3862.822933 91.063 -179.8575
3890.814540 91.214 -179.2025
3919.008986 91.371 -178.6041
3947.407741 91.533 -178.0619
3976.012284 91.698 -177.5747
4004.824108 91.866 -177.1416
4033.844715 92.035 -176.7610
4063.075616 92.205 -176.4314
4092.518337 92.374 -176.1507
4122.174412 92.543 -175.9161
4152.045387 92.710 -175.7245
4182.132820 92.876 -175.5719
4212.438278 93.040 -175.4538
4242.963342 93.202 -175.3653
4273.709604 93.364 -175.3020
4304.678665 93.526 -175.2607
4335.872141 93.689 -175.2399
4367.291658 93.855 -175.2407
4398.938854 94.024 -175.2671
4430.815378 94.198 -175.3256
4462.922893 94.377 -175.4247
4495.263072 94.561 -175.5740
4527.837601 94.749 -175.7832
4560.648179 94.940 -176.0613
4593.696515 95.133 -176.4162
4626.984334 95.327 -176.8536
4660.513370 95.519 -177.3777
4694.285371 95.708 -177.9903
4728.302098 95.891 -178.6916
4762.565324 96.067 -179.4796
4797.076835 96.233 179.6492
4831.838432 96.388 178.7001
4866.851925 96.531 177.6798
4902.119140 96.659 176.5964
4937.641916 96.772 175.4591
4973.422105 96.869 174.2783
5009.461572 96.948 173.0652
5045.762195 97.009 171.8315
5082.325868 97.051 170.5897
5119.154496 97.075 169.3526
5156.250000 97.080 168.1331
5193.614313 97.067 166.9438
5231.249383 97.036 165.7973
5269.157173 96.987 164.7053
5307.339658 96.921 163.6785
5345.798829 96.841 162.7264
5384.536691 96.745 161.8570
5423.555263 96.638 161.0760
5462.856580 96.519 160.3875
5502.442691 96.391 159.7926
5542.315659 96.257 159.2902
5582.477563 96.118 158.8760
5622.930497 95.978 158.5432
5663.676569 95.840 158.2824
5704.717904 95.704 158.0817
5746.056642 95.576 157.9272
5787.694937 95.455 157.8040
5829.634960 95.344 157.6965
5871.878898 95.244 157.5891
5914.428953 95.156 157.4676
5957.287343 95.078 157.3189
6000.456303 95.011 157.1326
6043.938083 94.953 156.9008
6087.734950 94.901 156.6181
6131.849187 94.854 156.2820
6176.283094 94.810 155.8924
6221.038987 94.767 155.4509
6266.119200 94.724 154.9601
6311.526083 94.678 154.4236
6357.262002 94.629 153.8442
6403.329344 94.578 153.2243
6449.730508 94.523 152.5648
6496.467914 94.467 151.8651
6543.543998 94.410 151.1223
6590.961215 94.354 150.3315
6638.722037 94.300 149.4858
6686.828954 94.248 148.5765
6735.284473 94.202 147.5939
6784.091120 94.161 146.5273
6833.251441 94.124 145.3668
6882.767998 94.093 144.1030
6932.643372 94.066 142.7281
6982.880164 94.040 141.2365
7033.480992 94.014 139.6250
7084.448495 93.986 137.8926
7135.785329 93.952 136.0411
7187.494171 93.910 134.0739
7239.577717 93.857 131.9959
7292.038681 93.792 129.8123
7344.879799 93.713 127.5280
7398.103826 93.619 125.1457
7451.713536 93.511 122.6654
7505.711724 93.389 120.0825
7560.101205 93.256 117.3872
7614.884815 93.115 114.5634
7670.065409 92.968 111.5882
7725.645865 92.821 108.4318
7781.629080 92.677 105.0577
7838.017972 92.540 101.4236
7894.815481 92.414 97.4819
7952.024569 92.302 93.1815
8009.648217 92.205 88.4693
8067.689429 92.122 83.2919
8126.151233 92.052 77.5984
8185.036674 91.989 71.3432
8244.348824 91.929 64.4899
8304.090774 91.865 57.0169
8364.265639 91.792 48.9241
8424.876556 91.703 40.2409
8485.926684 91.595 31.0356
8547.419207 91.464 21.4215
8609.357330 91.310 11.5559
8671.744282 91.137 1.6306
8734.583316 90.949 -8.1498
8797.877707 90.753 -17.5940
8861.630756 90.561 -26.5476
8925.845785 90.382 -34.9080
8990.526143 90.229 -42.6275
9055.675202 90.112 -49.7064
9121.296357 90.039 -56.1825
9187.393031 90.014 -62.1189
9253.968668 90.036 -67.5922
9321.026740 90.101 -72.6832
9388.570742 90.199 -77.4694
9456.604196 90.318 -82.0189
9525.130648 90.446 -86.3861
9594.153671 90.570 -90.6105
9663.676863 90.679 -94.7152
9733.703850 90.764 -98.7087
9804.238280 90.817 -102.5874
9875.283832 90.835 -106.3387
9946.844210 90.817 -109.9454
10018.923143 90.763 -113.3894
10091.524390 90.677 -116.6554
10164.651736 90.564 -119.7335
10238.308993 90.429 -122.6215
10312.500000 90.279 -125.3253
10387.228626 90.121 -127.8595
10462.498767 89.961 -130.2468
10538.314345 89.805 -132.5164
10614.679315 89.656 -134.7029
10691.597657 89.519 -136.8437
10769.073381 89.392 -138.9775
10847.110526 89.276 -141.1417
10925.713161 89.166 -143.3696
11004.885382 89.059 -145.6889
11084.631318 88.948 -148.1187
11164.955126 88.825 -150.6681
11245.860993 88.682 -153.3340
11327.353138 88.512 -156.1014
11409.435808 88.305 -158.9423
11492.113283 88.057 -161.8177
11575.389873 87.761 -164.6809
11659.269920 87.417 -167.4822
11743.757796 87.025 -170.1754
11828.857906 86.588 -172.7244
11914.574686 86.112 -175.1094
12000.912606 85.605 -177.3309
12087.876166 85.076 -179.4110
12175.469900 84.536 178.6079
12263.698373 83.992 176.6677
12352.566187 83.455 174.7003
12442.077974 82.931 172.6350
12532.238400 82.424 170.4033
12623.052165 81.936 167.9432
12714.524005 81.466 165.2009
12806.658687 81.013 162.1303
12899.461015 80.571 158.6917
12992.935827 80.134 154.8486
13087.087996 79.698 150.5635
13181.922430 79.256 145.7897
13277.444074 78.803 140.4582
13373.657907 78.339 134.4495
13470.568945 77.864 127.5377
13568.182241 77.383 119.2616
13666.502883 76.908 108.5947
13765.535996 76.453 92.9963
13865.286744 76.036 65.9927
13965.760328 75.674 21.4111
14066.961984 75.384 -17.6449
14168.896989 75.175 -39.6438
14271.570658 75.047 -53.3168
14374.988342 74.993 -63.4138
14479.155433 74.998 -71.7932
14584.077362 75.043 -79.2631
14689.759598 75.107 -86.2217
14796.207652 75.171 -92.8847
14903.427072 75.218 -99.3762
15011.423448 75.236 -105.7696
15120.202410 75.212 -112.1066
15229.769630 75.139 -118.4089
15340.130819 75.010 -124.6831
15451.291730 74.821 -130.9263
15563.258160 74.568 -137.1284
15676.035944 74.252 -143.2754
15789.630962 73.871 -149.3494
15904.049137 73.426 -155.3308
16019.296433 72.917 -161.1951
16135.378859 72.344 -166.9125
16252.302465 71.708 -172.4458
16370.073348 71.009 -177.7493
16488.697648 70.249 177.2324
16608.181548 69.427 172.5640
16728.531278 68.547 168.3215
16849.753112 67.612 164.5985
16971.853368 66.625 161.5187
17094.838414 65.591 159.2565
17218.714660 64.517 158.0656
17343.488565 63.412 158.3085
17469.166632 62.287 160.4573
17595.755415 61.158 164.9805
17723.261512 60.051 171.9639
17851.691571 58.995 -179.4883
17981.052287 58.031 -171.2886
18111.350404 57.203 -165.2385
18242.592715 56.550 -162.0531
18374.786062 56.095 -161.5626
18507.937336 55.834 -163.3024
18642.053479 55.740 -166.8309
18777.141484 55.768 -171.8049
18913.208391 55.872 -177.9529
19050.261296 56.011 174.9758
19188.307342 56.155 167.2664
19327.353727 56.283 159.2800
19467.407699 56.384 151.4720
19608.476560 56.457 144.3639
19750.567664 56.502 138.4830
19893.688419 56.527 134.2871
20037.846286 56.538 132.1046
