* Measurement data measured by REW V5.31.3
* Source: EXCL: Headset (USB-C to 3.5mm Headphone Jack Adapter), MICROPHONE (Master Volume), 0, volume: 0.260
* Format: 256k Log Swept Sine, 1 sweep at -12.0 dBFS with no timing reference
* Dated: Feb 21, 2025 5:27:46 PM
* REW Settings:
*  C-weighting compensation: Off
*  Target level: 75.0 dB
* Note: ; 
* Measurement: Ouroboros (Golem Mod) R
* Smoothing: 1/6 octave
* Frequency Step: 96 ppo
* Start Frequency: 20.0 Hz
*
* Freq(Hz) SPL(dB) Phase(degrees)
20.141602 105.429 -117.0812
20.287556 105.405 -117.2956
20.434568 105.372 -117.5843
20.582645 105.333 -117.9400
20.731796 105.288 -118.3550
20.882027 105.239 -118.8213
21.033346 105.187 -119.3313
21.185763 105.134 -119.8780
21.339284 105.082 -120.4551
21.493917 105.031 -121.0568
21.649671 104.982 -121.6777
21.806553 104.935 -122.3129
21.964572 104.892 -122.9579
22.123737 104.853 -123.6086
22.284054 104.816 -124.2610
22.445534 104.783 -124.9119
22.608183 104.752 -125.5580
22.772012 104.723 -126.1972
22.937027 104.695 -126.8274
23.103238 104.667 -127.4475
23.270654 104.639 -128.0569
23.439282 104.611 -128.6556
23.609133 104.582 -129.2442
23.780215 104.551 -129.8235
23.952536 104.519 -130.3946
24.126106 104.485 -130.9589
24.300934 104.449 -131.5175
24.477028 104.412 -132.0719
24.654399 104.374 -132.6229
24.833055 104.335 -133.1715
25.013005 104.296 -133.7184
25.194260 104.258 -134.2644
25.376828 104.221 -134.8100
25.560719 104.185 -135.3556
25.745942 104.151 -135.9017
25.932508 104.119 -136.4484
26.120426 104.089 -136.9956
26.309705 104.060 -137.5431
26.500356 104.033 -138.0898
26.692388 104.008 -138.6345
26.885812 103.983 -139.1753
27.080638 103.958 -139.7101
27.276876 103.935 -140.2364
27.474535 103.911 -140.7519
27.673627 103.888 -141.2545
27.874161 103.865 -141.7424
28.076149 103.842 -142.2148
28.279600 103.820 -142.6716
28.484526 103.798 -143.1134
28.690937 103.775 -143.5413
28.898843 103.752 -143.9570
29.108256 103.729 -144.3625
29.319186 103.703 -144.7593
29.531645 103.675 -145.1489
29.745644 103.645 -145.5326
29.961193 103.611 -145.9111
30.178304 103.574 -146.2847
30.396989 103.534 -146.6536
30.617258 103.490 -147.0179
30.839123 103.444 -147.3774
31.062596 103.395 -147.7315
31.287688 103.345 -148.0798
31.514412 103.295 -148.4212
31.742778 103.245 -148.7546
31.972800 103.196 -149.0783
32.204488 103.151 -149.3907
32.437855 103.109 -149.6900
32.672913 103.071 -149.9747
32.909674 103.039 -150.2434
33.148151 103.012 -150.4951
33.388356 102.991 -150.7291
33.630302 102.975 -150.9450
33.874001 102.964 -151.1429
34.119466 102.957 -151.3230
34.366710 102.953 -151.4860
34.615745 102.951 -151.6327
34.866585 102.949 -151.7644
35.119243 102.947 -151.8829
35.373731 102.944 -151.9900
35.630064 102.938 -152.0878
35.888254 102.929 -152.1781
36.148315 102.916 -152.2626
36.410261 102.899 -152.3426
36.674104 102.878 -152.4190
36.939860 102.851 -152.4924
37.207542 102.821 -152.5633
37.477163 102.787 -152.6321
37.748738 102.750 -152.6994
38.022281 102.710 -152.7656
38.297806 102.669 -152.8313
38.575327 102.627 -152.8966
38.854860 102.584 -152.9613
39.136419 102.541 -153.0248
39.420017 102.498 -153.0859
39.705671 102.455 -153.1427
39.993395 102.412 -153.1935
40.283203 102.369 -153.2362
40.575112 102.327 -153.2689
40.869136 102.285 -153.2904
41.165290 102.245 -153.3003
41.463591 102.208 -153.2993
41.764053 102.173 -153.2891
42.066693 102.142 -153.2725
42.371525 102.116 -153.2527
42.678567 102.095 -153.2330
42.987834 102.080 -153.2164
43.299341 102.070 -153.2044
43.613106 102.065 -153.1976
43.929145 102.065 -153.1953
44.247473 102.070 -153.1961
44.568109 102.078 -153.1985
44.891068 102.088 -153.2015
45.216367 102.102 -153.2047
45.544023 102.118 -153.2089
45.874054 102.137 -153.2156
46.206476 102.157 -153.2268
46.541307 102.179 -153.2443
46.878565 102.203 -153.2693
47.218266 102.229 -153.3023
47.560429 102.256 -153.3431
47.905072 102.285 -153.3906
48.252212 102.314 -153.4433
48.601867 102.345 -153.4991
48.954056 102.377 -153.5557
49.308798 102.410 -153.6110
49.666109 102.443 -153.6628
50.026010 102.478 -153.7091
50.388520 102.513 -153.7488
50.753656 102.550 -153.7812
51.121437 102.588 -153.8063
51.491884 102.627 -153.8248
51.865016 102.668 -153.8379
52.240851 102.711 -153.8472
52.619410 102.756 -153.8546
53.000712 102.801 -153.8625
53.384777 102.847 -153.8734
53.771625 102.894 -153.8905
54.161276 102.940 -153.9171
54.553751 102.986 -153.9563
54.949070 103.031 -154.0114
55.347254 103.075 -154.0849
55.748323 103.118 -154.1782
56.152298 103.160 -154.2922
56.559201 103.202 -154.4268
56.969052 103.244 -154.5815
57.381873 103.287 -154.7555
57.797686 103.332 -154.9479
58.216512 103.379 -155.1579
58.638373 103.430 -155.3851
59.063291 103.485 -155.6291
59.491288 103.545 -155.8901
59.922386 103.610 -156.1685
60.356608 103.680 -156.4650
60.793977 103.754 -156.7803
61.234515 103.831 -157.1148
61.678246 103.910 -157.4686
62.125192 103.989 -157.8418
62.575377 104.068 -158.2340
63.028824 104.144 -158.6452
63.485557 104.217 -159.0753
63.945599 104.288 -159.5240
64.408975 104.354 -159.9912
64.875709 104.416 -160.4760
65.345825 104.475 -160.9777
65.819348 104.530 -161.4952
66.296302 104.581 -162.0278
66.776713 104.630 -162.5749
67.260604 104.676 -163.1360
67.748002 104.719 -163.7109
68.238932 104.760 -164.2991
68.733420 104.799 -164.9001
69.231490 104.837 -165.5128
69.733170 104.872 -166.1362
70.238485 104.906 -166.7692
70.747463 104.937 -167.4107
71.260128 104.967 -168.0597
71.776508 104.995 -168.7153
72.296630 105.020 -169.3770
72.820521 105.044 -170.0441
73.348209 105.065 -170.7161
73.879720 105.083 -171.3926
74.415083 105.099 -172.0730
74.954326 105.113 -172.7565
75.497475 105.125 -173.4423
76.044561 105.133 -174.1296
76.595612 105.140 -174.8175
77.150655 105.143 -175.5053
77.709720 105.145 -176.1923
78.272837 105.143 -176.8783
78.840034 105.139 -177.5629
79.411342 105.132 -178.2459
79.986789 105.123 -178.9273
80.566406 105.111 -179.6069
81.150224 105.097 179.7155
81.738272 105.080 179.0402
82.330581 105.061 178.3674
82.927182 105.040 177.6973
83.528107 105.015 177.0303
84.133386 104.989 176.3666
84.743051 104.960 175.7065
85.357134 104.930 175.0504
85.975667 104.898 174.3986
86.598682 104.864 173.7518
87.226212 104.828 173.1104
87.858289 104.792 172.4750
88.494946 104.755 171.8461
89.136217 104.717 171.2241
89.782135 104.679 170.6093
90.432733 104.640 170.0017
91.088046 104.601 169.4013
91.748108 104.562 168.8081
92.412952 104.522 168.2221
93.082615 104.481 167.6435
93.757130 104.438 167.0725
94.436533 104.394 166.5096
95.120859 104.348 165.9550
95.810144 104.299 165.4091
96.504423 104.247 164.8721
97.203734 104.191 164.3441
97.908112 104.132 163.8250
98.617595 104.070 163.3149
99.332219 104.004 162.8138
100.052021 103.935 162.3216
100.777039 103.863 161.8383
101.507311 103.788 161.3640
102.242875 103.711 160.8985
102.983769 103.633 160.4420
103.730032 103.554 159.9947
104.481702 103.474 159.5566
105.238820 103.393 159.1275
106.001424 103.313 158.7074
106.769554 103.233 158.2963
107.543250 103.153 157.8940
108.322553 103.074 157.5010
109.107503 102.995 157.1173
109.898141 102.916 156.7434
110.694508 102.837 156.3795
111.496646 102.758 156.0262
112.304596 102.678 155.6836
113.118402 102.597 155.3523
113.938104 102.516 155.0324
114.763747 102.432 154.7242
115.595372 102.347 154.4279
116.433024 102.260 154.1433
117.276746 102.170 153.8705
118.126581 102.079 153.6096
118.982575 101.985 153.3608
119.844772 101.890 153.1243
120.713217 101.793 152.9006
121.587954 101.694 152.6903
122.469031 101.595 152.4940
123.356492 101.494 152.3127
124.250384 101.393 152.1472
125.150753 101.292 151.9987
126.057647 101.190 151.8680
126.971113 101.089 151.7561
127.891198 100.988 151.6640
128.817950 100.887 151.5925
129.751418 100.787 151.5421
130.691651 100.688 151.5135
131.638696 100.590 151.5072
132.592604 100.491 151.5235
133.553425 100.394 151.5626
134.521208 100.296 151.6247
135.496004 100.199 151.7099
136.477864 100.101 151.8184
137.466839 100.003 151.9506
138.462981 99.904 152.1070
139.466340 99.804 152.2881
140.476971 99.703 152.4951
141.494925 99.601 152.7285
142.520256 99.498 152.9893
143.553016 99.394 153.2781
144.593260 99.290 153.5951
145.641043 99.186 153.9402
146.696418 99.082 154.3130
147.759441 98.980 154.7132
148.830166 98.881 155.1396
149.908651 98.784 155.5915
150.994951 98.692 156.0675
152.089123 98.604 156.5665
153.191223 98.521 157.0870
154.301310 98.444 157.6277
155.419441 98.372 158.1872
156.545674 98.307 158.7640
157.680069 98.247 159.3565
158.822683 98.194 159.9627
159.973578 98.146 160.5806
161.132813 98.104 161.2081
162.300447 98.068 161.8428
163.476543 98.036 162.4828
164.661162 98.010 163.1258
165.854364 97.988 163.7696
167.056213 97.972 164.4120
168.266772 97.960 165.0509
169.486102 97.953 165.6841
170.714268 97.951 166.3094
171.951334 97.952 166.9247
173.197364 97.958 167.5280
174.452424 97.968 168.1172
175.716578 97.982 168.6907
176.989893 97.998 169.2467
178.272434 98.018 169.7841
179.564270 98.041 170.3015
180.865467 98.066 170.7980
182.176092 98.092 171.2728
183.496216 98.121 171.7250
184.825905 98.150 172.1542
186.165229 98.181 172.5599
187.514259 98.212 172.9418
188.873065 98.242 173.2998
190.241717 98.273 173.6339
191.620287 98.303 173.9440
193.008847 98.332 174.2306
194.407468 98.360 174.4939
195.816225 98.387 174.7343
197.235190 98.412 174.9526
198.664438 98.437 175.1495
200.104042 98.460 175.3256
201.554078 98.482 175.4818
203.014622 98.503 175.6189
204.485750 98.525 175.7373
205.967538 98.546 175.8375
207.460064 98.568 175.9196
208.963405 98.592 175.9840
210.477640 98.618 176.0310
212.002848 98.647 176.0610
213.539108 98.679 176.0746
215.086500 98.714 176.0725
216.645105 98.753 176.0554
218.215005 98.796 176.0242
219.796281 98.842 175.9796
221.389015 98.892 175.9226
222.993292 98.945 175.8538
224.609193 99.000 175.7737
226.236804 99.058 175.6829
227.876209 99.117 175.5819
229.527494 99.177 175.4712
231.190745 99.238 175.3514
232.866048 99.299 175.2229
234.553491 99.360 175.0861
236.253163 99.421 174.9413
237.965150 99.480 174.7891
239.689544 99.539 174.6296
241.426433 99.595 174.4633
243.175909 99.650 174.2908
244.938062 99.702 174.1126
246.712984 99.752 173.9294
248.500768 99.799 173.7417
250.301507 99.843 173.5505
252.115295 99.883 173.3566
253.942226 99.921 173.1608
255.782396 99.956 172.9639
257.635901 99.987 172.7669
259.502837 100.017 172.5706
261.383301 100.043 172.3758
263.277392 100.068 172.1832
265.185209 100.090 171.9935
267.106850 100.109 171.8073
269.042417 100.126 171.6251
270.992009 100.139 171.4475
272.955729 100.150 171.2748
274.933678 100.156 171.1074
276.925961 100.158 170.9455
278.932681 100.156 170.7894
280.953942 100.149 170.6390
282.989850 100.138 170.4944
285.040511 100.122 170.3554
287.106032 100.102 170.2217
289.186521 100.076 170.0931
291.282086 100.047 169.9691
293.392836 100.014 169.8493
295.518881 99.978 169.7333
297.660333 99.939 169.6204
299.817302 99.897 169.5101
301.989902 99.854 169.4015
304.178245 99.810 169.2938
306.382446 99.766 169.1860
308.602620 99.722 169.0771
310.838882 99.679 168.9663
313.091348 99.637 168.8527
315.360137 99.597 168.7357
317.645367 99.560 168.6151
319.947156 99.526 168.4906
322.265625 99.495 168.3624
324.600895 99.468 168.2308
326.953086 99.445 168.0961
329.322323 99.426 167.9591
331.708729 99.411 167.8202
334.112427 99.400 167.6803
336.533543 99.394 167.5399
338.972204 99.392 167.3996
341.428536 99.395 167.2598
343.902668 99.402 167.1210
346.394729 99.412 166.9832
348.904848 99.425 166.8466
351.433156 99.441 166.7114
353.979786 99.459 166.5776
356.544869 99.477 166.4453
359.128540 99.495 166.3147
361.730934 99.512 166.1859
364.352185 99.527 166.0589
366.992431 99.539 165.9340
369.651810 99.547 165.8112
372.330459 99.551 165.6908
375.028519 99.550 165.5727
377.746130 99.543 165.4572
380.483434 99.531 165.3445
383.240574 99.513 165.2350
386.017693 99.489 165.1290
388.814937 99.460 165.0270
391.632450 99.426 164.9298
394.470380 99.389 164.8379
397.328875 99.348 164.7520
400.208084 99.306 164.6727
403.108157 99.264 164.6006
406.029245 99.222 164.5363
408.971500 99.181 164.4804
411.935076 99.144 164.4332
414.920127 99.110 164.3952
417.926810 99.081 164.3664
420.955280 99.056 164.3467
424.005695 99.036 164.3357
427.078215 99.021 164.3327
430.173000 99.011 164.3368
433.290211 99.004 164.3469
436.430010 98.999 164.3619
439.592562 98.997 164.3808
442.778031 98.995 164.4028
445.986583 98.993 164.4271
449.218386 98.990 164.4532
452.473607 98.986 164.4807
455.752418 98.980 164.5092
459.054987 98.971 164.5386
462.381489 98.961 164.5686
465.732096 98.949 164.5989
469.106983 98.935 164.6292
472.506325 98.921 164.6592
475.930301 98.905 164.6884
479.379088 98.890 164.7162
482.852867 98.874 164.7421
486.351817 98.859 164.7653
489.876123 98.844 164.7851
493.425968 98.831 164.8007
497.001536 98.819 164.8112
500.603014 98.809 164.8159
504.230589 98.802 164.8142
507.884452 98.799 164.8056
511.564792 98.799 164.7899
515.271802 98.805 164.7672
519.005673 98.815 164.7382
522.766602 98.830 164.7038
526.554785 98.851 164.6657
530.370418 98.877 164.6258
534.213700 98.908 164.5863
538.084833 98.943 164.5495
541.984018 98.980 164.5174
545.911457 99.020 164.4914
549.867357 99.061 164.4719
553.851922 99.102 164.4583
557.865362 99.141 164.4490
561.907884 99.178 164.4413
565.979700 99.212 164.4323
570.081022 99.240 164.4191
574.212064 99.261 164.3990
578.373042 99.275 164.3705
582.564171 99.281 164.3326
586.785671 99.277 164.2854
591.037762 99.262 164.2297
595.320665 99.237 164.1668
599.634604 99.201 164.0985
603.979804 99.153 164.0266
608.356491 99.096 163.9529
612.764893 99.030 163.8791
617.205240 98.955 163.8066
621.677763 98.875 163.7364
626.182696 98.790 163.6692
630.720274 98.703 163.6053
635.290733 98.615 163.5444
639.894312 98.529 163.4861
644.531250 98.446 163.4297
649.201789 98.369 163.3743
653.906173 98.297 163.3189
658.644647 98.233 163.2624
663.417457 98.176 163.2040
668.224854 98.128 163.1429
673.067086 98.088 163.0786
677.944408 98.057 163.0108
682.857073 98.034 162.9393
687.805336 98.020 162.8639
692.789457 98.013 162.7849
697.809695 98.012 162.7023
702.866312 98.018 162.6166
707.959571 98.028 162.5283
713.089738 98.042 162.4379
718.257080 98.057 162.3463
723.461867 98.073 162.2544
728.704370 98.087 162.1631
733.984862 98.098 162.0736
739.303619 98.106 161.9872
744.660918 98.108 161.9051
750.057038 98.104 161.8287
755.492260 98.095 161.7595
760.966869 98.080 161.6987
766.481148 98.061 161.6479
772.035387 98.036 161.6081
777.629873 98.008 161.5805
783.264900 97.975 161.5662
788.940760 97.938 161.5662
794.657750 97.897 161.5813
800.416168 97.852 161.6123
806.216313 97.801 161.6597
812.058489 97.744 161.7239
817.943000 97.681 161.8052
823.870152 97.611 161.9034
829.840255 97.534 162.0185
835.853619 97.451 162.1499
841.910559 97.362 162.2969
848.011390 97.270 162.4585
854.156430 97.176 162.6334
860.346000 97.083 162.8198
866.580422 96.994 163.0156
872.860020 96.911 163.2186
879.185124 96.837 163.4261
885.556062 96.774 163.6352
891.973166 96.723 163.8426
898.436771 96.687 164.0448
904.947215 96.664 164.2381
911.504835 96.655 164.4187
918.109975 96.658 164.5831
924.762978 96.671 164.7283
931.464192 96.692 164.8524
938.213966 96.718 164.9552
945.012651 96.745 165.0385
951.860602 96.772 165.1064
958.758176 96.797 165.1653
965.705733 96.816 165.2237
972.703635 96.829 165.2908
979.752246 96.836 165.3759
986.851935 96.838 165.4876
994.003071 96.834 165.6329
1001.206027 96.827 165.8176
1008.461179 96.818 166.0459
1015.768904 96.809 166.3210
1023.129584 96.803 166.6453
1030.543603 96.803 167.0206
1038.011347 96.811 167.4477
1045.533205 96.830 167.9266
1053.109569 96.864 168.4551
1060.740836 96.914 169.0282
1068.427401 96.984 169.6363
1076.169666 97.074 170.2645
1083.968035 97.185 170.8913
1091.822915 97.317 171.4893
1099.734713 97.466 172.0259
1107.703844 97.629 172.4674
1115.730723 97.799 172.7825
1123.815768 97.970 172.9481
1131.959400 98.135 172.9534
1140.162045 98.288 172.8022
1148.424129 98.422 172.5121
1156.746083 98.535 172.1107
1165.128342 98.625 171.6315
1173.571343 98.693 171.1084
1182.075524 98.740 170.5722
1190.641331 98.769 170.0486
1199.269209 98.784 169.5569
1207.959608 98.790 169.1103
1216.712981 98.790 168.7166
1225.529785 98.787 168.3793
1234.410479 98.785 168.0986
1243.355526 98.785 167.8721
1252.365393 98.791 167.6962
1261.440549 98.802 167.5660
1270.581467 98.819 167.4764
1279.788624 98.842 167.4221
1289.062500 98.871 167.3983
1298.403578 98.905 167.4003
1307.812346 98.943 167.4241
1317.289293 98.985 167.4662
1326.834914 99.028 167.5240
1336.449707 99.072 167.5953
1346.134173 99.117 167.6782
1355.888816 99.161 167.7712
1365.714145 99.203 167.8732
1375.610673 99.244 167.9829
1385.578915 99.284 168.0989
1395.619391 99.321 168.2199
1405.732624 99.356 168.3444
1415.919142 99.389 168.4708
1426.179476 99.421 168.5975
1436.514160 99.452 168.7230
1446.923734 99.481 168.8455
1457.408740 99.510 168.9637
1467.969724 99.537 169.0762
1478.607238 99.564 169.1816
1489.321836 99.590 169.2790
1500.114076 99.615 169.3674
1510.984521 99.638 169.4461
1521.933737 99.658 169.5148
1532.962297 99.676 169.5733
1544.070773 99.691 169.6218
1555.259747 99.703 169.6605
1566.529800 99.711 169.6902
1577.881521 99.716 169.7115
1589.315501 99.718 169.7255
1600.832336 99.717 169.7331
1612.432627 99.715 169.7352
1624.116978 99.711 169.7328
1635.886000 99.707 169.7265
1647.740304 99.702 169.7169
1659.680509 99.696 169.7045
1671.707238 99.690 169.6894
1683.821118 99.684 169.6719
1696.022780 99.677 169.6520
1708.312860 99.669 169.6300
1720.692000 99.661 169.6059
1733.160843 99.653 169.5799
1745.720041 99.645 169.5521
1758.370248 99.637 169.5226
1771.112124 99.630 169.4917
1783.946332 99.624 169.4594
1796.873543 99.620 169.4259
1809.894429 99.618 169.3913
1823.009670 99.617 169.3557
1836.219950 99.617 169.3192
1849.525956 99.618 169.2821
1862.928384 99.618 169.2446
1876.427931 99.618 169.2067
1890.025301 99.617 169.1687
1903.721204 99.613 169.1307
1917.516352 99.605 169.0928
1931.411466 99.595 169.0552
1945.407270 99.580 169.0179
1959.504493 99.561 168.9811
1973.703870 99.539 168.9454
1988.006142 99.512 168.9111
2002.412054 99.483 168.8789
2016.922357 99.451 168.8497
2031.537808 99.418 168.8247
2046.259169 99.384 168.8050
2061.087206 99.350 168.7918
2076.022694 99.317 168.7865
2091.066410 99.285 168.7901
2106.219139 99.256 168.8038
2121.481671 99.231 168.8286
2136.854802 99.209 168.8651
2152.339333 99.191 168.9139
2167.936071 99.179 168.9753
2183.645829 99.172 169.0494
2199.469427 99.172 169.1357
2215.407689 99.179 169.2339
2231.461446 99.193 169.3429
2247.631536 99.215 169.4616
2263.918800 99.245 169.5887
2280.324089 99.283 169.7229
2296.848258 99.330 169.8627
2313.492167 99.383 170.0068
2330.256685 99.444 170.1544
2347.142685 99.511 170.3048
2364.151049 99.584 170.4579
2381.282662 99.661 170.6138
2398.538418 99.741 170.7732
2415.919216 99.824 170.9368
2433.425962 99.909 171.1057
2451.059570 99.994 171.2806
2468.820958 100.079 171.4623
2486.711052 100.163 171.6514
2504.730786 100.245 171.8478
2522.881098 100.325 172.0513
2541.162934 100.402 172.2611
2559.577248 100.476 172.4760
2578.125000 100.545 172.6943
2596.807157 100.610 172.9145
2615.624692 100.671 173.1347
2634.578586 100.726 173.3533
2653.669829 100.775 173.5693
2672.899414 100.818 173.7820
2692.268345 100.855 173.9916
2711.777632 100.886 174.1988
2731.428290 100.911 174.4048
2751.221345 100.929 174.6109
2771.157829 100.942 174.8185
2791.238781 100.949 175.0284
2811.465248 100.952 175.2413
2831.838284 100.950 175.4567
2852.358952 100.945 175.6740
2873.028321 100.936 175.8918
2893.847468 100.924 176.1082
2914.817480 100.910 176.3217
2935.939449 100.894 176.5303
2957.214476 100.876 176.7327
2978.643672 100.856 176.9277
3000.228152 100.834 177.1146
3021.969041 100.811 177.2933
3043.867475 100.786 177.4637
3065.924593 100.760 177.6267
3088.141547 100.733 177.7831
3110.519493 100.705 177.9341
3133.059600 100.677 178.0815
3155.763041 100.647 178.2267
3178.631001 100.617 178.3715
3201.664672 100.588 178.5175
3224.865254 100.558 178.6664
3248.233957 100.529 178.8196
3271.771999 100.501 178.9784
3295.480608 100.475 179.1442
3319.361019 100.451 179.3184
3343.414477 100.429 179.5025
3367.642236 100.411 179.6983
3392.045560 100.397 179.9075
3416.625721 100.387 -179.8680
3441.383999 100.383 -179.6264
3466.321686 100.384 -179.3660
3491.440082 100.391 -179.0852
3516.740496 100.405 -178.7829
3542.224247 100.427 -178.4582
3567.892664 100.455 -178.1105
3593.747085 100.492 -177.7397
3619.788858 100.537 -177.3461
3646.019340 100.591 -176.9304
3672.439900 100.655 -176.4934
3699.051913 100.728 -176.0368
3725.856768 100.811 -175.5624
3752.855862 100.905 -175.0726
3780.050603 101.010 -174.5706
3807.442408 101.127 -174.0607
3835.032705 101.256 -173.5480
3862.822933 101.397 -173.0390
3890.814540 101.552 -172.5415
3919.008986 101.719 -172.0646
3947.407741 101.899 -171.6181
3976.012284 102.091 -171.2126
4004.824108 102.293 -170.8587
4033.844715 102.505 -170.5661
4063.075616 102.726 -170.3439
4092.518337 102.953 -170.1998
4122.174412 103.185 -170.1402
4152.045387 103.422 -170.1703
4182.132820 103.660 -170.2941
4212.438278 103.901 -170.5145
4242.963342 104.141 -170.8335
4273.709604 104.379 -171.2524
4304.678665 104.616 -171.7716
4335.872141 104.849 -172.3912
4367.291658 105.078 -173.1106
4398.938854 105.302 -173.9290
4430.815378 105.519 -174.8444
4462.922893 105.729 -175.8545
4495.263072 105.930 -176.9558
4527.837601 106.121 -178.1438
4560.648179 106.301 -179.4131
4593.696515 106.468 179.2426
4626.984334 106.623 177.8298
4660.513370 106.763 176.3559
4694.285371 106.888 174.8281
4728.302098 106.998 173.2538
4762.565324 107.091 171.6409
4797.076835 107.167 169.9975
4831.838432 107.224 168.3319
4866.851925 107.264 166.6533
4902.119140 107.284 164.9713
4937.641916 107.284 163.2961
4973.422105 107.266 161.6382
5009.461572 107.227 160.0088
5045.762195 107.168 158.4193
5082.325868 107.091 156.8810
5119.154496 106.994 155.4057
5156.250000 106.878 154.0047
5193.614313 106.745 152.6894
5231.249383 106.595 151.4706
5269.157173 106.428 150.3590
5307.339658 106.246 149.3644
5345.798829 106.050 148.4961
5384.536691 105.841 147.7624
5423.555263 105.622 147.1704
5462.856580 105.393 146.7259
5502.442691 105.158 146.4326
5542.315659 104.918 146.2922
5582.477563 104.678 146.3032
5622.930497 104.441 146.4608
5663.676569 104.210 146.7565
5704.717904 103.990 147.1774
5746.056642 103.786 147.7057
5787.694937 103.601 148.3194
5829.634960 103.440 148.9914
5871.878898 103.306 149.6909
5914.428953 103.202 150.3841
5957.287343 103.128 151.0353
6000.456303 103.085 151.6087
6043.938083 103.071 152.0703
6087.734950 103.083 152.3891
6131.849187 103.117 152.5386
6176.283094 103.167 152.4982
6221.038987 103.227 152.2532
6266.119200 103.293 151.7958
6311.526083 103.356 151.1242
6357.262002 103.411 150.2431
6403.329344 103.453 149.1623
6449.730508 103.476 147.8965
6496.467914 103.477 146.4647
6543.543998 103.452 144.8887
6590.961215 103.397 143.1935
6638.722037 103.311 141.4059
6686.828954 103.193 139.5540
6735.284473 103.040 137.6674
6784.091120 102.854 135.7759
6833.251441 102.634 133.9105
6882.767998 102.382 132.1020
6932.643372 102.097 130.3820
6982.880164 101.782 128.7822
7033.480992 101.439 127.3342
7084.448495 101.070 126.0697
7135.785329 100.678 125.0190
7187.494171 100.268 124.2112
7239.577717 99.844 123.6716
7292.038681 99.412 123.4210
7344.879799 98.978 123.4718
7398.103826 98.551 123.8251
7451.713536 98.139 124.4664
7505.711724 97.754 125.3612
7560.101205 97.406 126.4518
7614.884815 97.106 127.6563
7670.065409 96.864 128.8708
7725.645865 96.687 129.9762
7781.629080 96.580 130.8483
7838.017972 96.542 131.3687
7894.815481 96.566 131.4341
7952.024569 96.643 130.9626
8009.648217 96.759 129.8953
8067.689429 96.897 128.1942
8126.151233 97.042 125.8386
8185.036674 97.177 122.8204
8244.348824 97.286 119.1392
8304.090774 97.355 114.7956
8364.265639 97.373 109.7829
8424.876556 97.331 104.0689
8485.926684 97.226 97.5590
8547.419207 97.058 90.0095
8609.357330 96.833 80.8061
8671.744282 96.563 68.2824
8734.583316 96.262 47.2207
8797.877707 95.948 3.1819
8861.630756 95.639 -49.6276
8925.845785 95.351 -76.1344
8990.526143 95.096 -90.0565
9055.675202 94.881 -99.3196
9121.296357 94.707 -106.4158
9187.393031 94.570 -112.2808
9253.968668 94.462 -117.3324
9321.026740 94.375 -121.7833
9388.570742 94.298 -125.7526
9456.604196 94.224 -129.3114
9525.130648 94.145 -132.5046
9594.153671 94.057 -135.3617
9663.676863 93.957 -137.9031
9733.703850 93.843 -140.1442
9804.238280 93.716 -142.0994
9875.283832 93.578 -143.7848
9946.844210 93.432 -145.2202
10018.923143 93.281 -146.4310
10091.524390 93.128 -147.4485
10164.651736 92.977 -148.3087
10238.308993 92.829 -149.0499
10312.500000 92.684 -149.7092
10387.228626 92.541 -150.3190
10462.498767 92.397 -150.9040
10538.314345 92.250 -151.4794
10614.679315 92.096 -152.0507
10691.597657 91.932 -152.6143
10769.073381 91.753 -153.1588
10847.110526 91.559 -153.6666
10925.713161 91.346 -154.1163
11004.885382 91.115 -154.4841
11084.631318 90.867 -154.7463
11164.955126 90.603 -154.8821
11245.860993 90.327 -154.8772
11327.353138 90.045 -154.7278
11409.435808 89.763 -154.4443
11492.113283 89.489 -154.0552
11575.389873 89.231 -153.6083
11659.269920 88.996 -153.1693
11743.757796 88.790 -152.8169
11828.857906 88.615 -152.6353
11914.574686 88.471 -152.7045
12000.912606 88.352 -153.0925
12087.876166 88.250 -153.8483
12175.469900 88.153 -154.9991
12263.698373 88.049 -156.5499
12352.566187 87.923 -158.4847
12442.077974 87.764 -160.7699
12532.238400 87.560 -163.3564
12623.052165 87.302 -166.1823
12714.524005 86.982 -169.1735
12806.658687 86.597 -172.2424
12899.461015 86.144 -175.2838
12992.935827 85.626 -178.1637
13087.087996 85.050 179.3047
13181.922430 84.426 177.4232
13277.444074 83.776 176.7758
13373.657907 83.124 178.7805
13470.568945 82.508 -171.9601
13568.182241 81.972 -136.9447
13666.502883 81.560 -80.4749
13765.535996 81.311 -60.6092
13865.286744 81.244 -55.1187
13965.760328 81.355 -53.9246
14066.961984 81.618 -54.4620
14168.896989 81.996 -55.8738
14271.570658 82.452 -57.8185
14374.988342 82.953 -60.1505
14479.155433 83.471 -62.8098
14584.077362 83.988 -65.7755
14689.759598 84.486 -69.0439
14796.207652 84.956 -72.6157
14903.427072 85.387 -76.4895
15011.423448 85.773 -80.6588
15120.202410 86.108 -85.1115
15229.769630 86.389 -89.8300
15340.130819 86.613 -94.7941
15451.291730 86.779 -99.9817
15563.258160 86.886 -105.3707
15676.035944 86.931 -110.9390
15789.630962 86.914 -116.6638
15904.049137 86.832 -122.5199
16019.296433 86.683 -128.4775
16135.378859 86.463 -134.5004
16252.302465 86.171 -140.5451
16370.073348 85.803 -146.5616
16488.697648 85.359 -152.4947
16608.181548 84.839 -158.2862
16728.531278 84.244 -163.8777
16849.753112 83.576 -169.2128
16971.853368 82.839 -174.2397
17094.838414 82.036 -178.9155
17218.714660 81.174 176.7896
17343.488565 80.257 172.8856
17469.166632 79.294 169.3558
17595.755415 78.291 166.1541
17723.261512 77.256 163.2059
17851.691571 76.197 160.4207
17981.052287 75.122 157.7107
18111.350404 74.036 155.0141
18242.592715 72.944 152.3121
18374.786062 71.847 149.6377
18507.937336 70.747 147.0739
18642.053479 69.644 144.7429
18777.141484 68.539 142.7881
18913.208391 67.438 141.3468
19050.261296 66.347 140.5138
19188.307342 65.281 140.3015
19327.353727 64.263 140.6144
19467.407699 63.322 141.2622
19608.476560 62.494 142.0164
19750.567664 61.821 142.6849
19893.688419 61.343 143.1560
20037.846286 61.095 143.3925
