* Measurement data measured by REW V5.31.3
* Source: EXCL: Headset (USB-C to 3.5mm Headphone Jack Adapter), MICROPHONE (Master Volume), 0, volume: 0.750
* Format: 256k Log Swept Sine, 1 sweep at -12.0 dBFS with no timing reference
* Dated: Apr 1, 2025 10:57:07 PM
* REW Settings:
*  C-weighting compensation: Off
*  Target level: 75.0 dB
* Note: ; 
* Measurement: Ouro (golem) R8
* Smoothing: 1/6 octave
* Frequency Step: 96 ppo
* Start Frequency: 20.0 Hz
*
* Freq(Hz) SPL(dB) Phase(degrees)
20.187378 92.607 -175.8575
20.333664 92.595 -176.1883
20.481010 92.578 -176.6212
20.629424 92.559 -177.1281
20.778913 92.537 -177.6777
20.929486 92.513 -178.2392
21.081150 92.490 -178.7843
21.233912 92.469 -179.2899
21.387782 92.453 -179.7392
21.542767 92.442 179.8771
21.698874 92.437 179.5606
21.856113 92.441 179.3062
22.014492 92.452 179.1027
22.174018 92.471 178.9353
22.334700 92.495 178.7870
22.496546 92.523 178.6414
22.659566 92.553 178.4836
22.823766 92.582 178.3022
22.989157 92.608 178.0898
23.155745 92.630 177.8429
23.323542 92.647 177.5618
23.492554 92.657 177.2498
23.662790 92.661 176.9120
23.834261 92.660 176.5545
24.006973 92.653 176.1837
24.180938 92.642 175.8054
24.356163 92.628 175.4250
24.532658 92.611 175.0470
24.710431 92.591 174.6754
24.889493 92.568 174.3140
25.069853 92.541 173.9666
25.251519 92.511 173.6366
25.434502 92.476 173.3276
25.618811 92.437 173.0424
25.804456 92.392 172.7826
25.991445 92.343 172.5481
26.179790 92.291 172.3367
26.369500 92.234 172.1438
26.560584 92.176 171.9630
26.753053 92.116 171.7866
26.946917 92.054 171.6069
27.142185 91.992 171.4178
27.338869 91.929 171.2157
27.536977 91.864 171.0005
27.736522 91.797 170.7765
27.937512 91.727 170.5513
28.139959 91.653 170.3354
28.343872 91.575 170.1409
28.549264 91.493 169.9793
28.756143 91.407 169.8605
28.964522 91.318 169.7911
29.174411 91.225 169.7742
29.385821 91.130 169.8084
29.598763 91.034 169.8890
29.813248 90.937 170.0080
30.029287 90.842 170.1551
30.246891 90.749 170.3186
30.466073 90.661 170.4859
30.686842 90.580 170.6440
30.909212 90.509 170.7806
31.133193 90.450 170.8849
31.358797 90.404 170.9487
31.586035 90.373 170.9679
31.814921 90.356 170.9434
32.045465 90.354 170.8819
32.277680 90.364 170.7952
32.511577 90.385 170.6992
32.747169 90.413 170.6113
32.984469 90.448 170.5480
33.223488 90.486 170.5222
33.464239 90.526 170.5416
33.706735 90.566 170.6072
33.950987 90.605 170.7148
34.197010 90.639 170.8552
34.444816 90.669 171.0178
34.694417 90.691 171.1917
34.945827 90.706 171.3691
35.199059 90.713 171.5451
35.454126 90.712 171.7193
35.711041 90.705 171.8940
35.969818 90.694 172.0740
36.230470 90.681 172.2644
36.493011 90.668 172.4698
36.757455 90.657 172.6929
37.023814 90.651 172.9343
37.292104 90.650 173.1925
37.562338 90.654 173.4642
37.834530 90.662 173.7454
38.108695 90.672 174.0313
38.384846 90.683 174.3179
38.662999 90.692 174.6014
38.943167 90.701 174.8790
39.225365 90.707 175.1483
39.509608 90.711 175.4074
39.795911 90.715 175.6551
40.084289 90.719 175.8905
40.374756 90.727 176.1141
40.667328 90.739 176.3279
40.962020 90.757 176.5363
41.258848 90.781 176.7462
41.557827 90.810 176.9672
41.858972 90.845 177.2103
42.162299 90.883 177.4867
42.467824 90.924 177.8055
42.775564 90.967 178.1720
43.085533 91.009 178.5860
43.397749 91.051 179.0405
43.712227 91.093 179.5224
44.028983 91.135 -179.9867
44.348036 91.177 -179.5076
44.669400 91.219 -179.0604
44.993093 91.262 -178.6613
45.319131 91.304 -178.3204
45.647532 91.347 -178.0400
45.978313 91.390 -177.8158
46.311491 91.434 -177.6383
46.647083 91.478 -177.4960
46.985107 91.523 -177.3773
47.325581 91.569 -177.2735
47.668521 91.616 -177.1786
48.013947 91.665 -177.0904
48.361876 91.715 -177.0091
48.712326 91.765 -176.9369
49.065315 91.817 -176.8770
49.420863 91.869 -176.8324
49.778987 91.922 -176.8057
50.139706 91.975 -176.7980
50.503039 92.028 -176.8091
50.869005 92.080 -176.8373
51.237623 92.133 -176.8807
51.608912 92.184 -176.9378
51.982891 92.233 -177.0084
52.359580 92.282 -177.0931
52.739000 92.328 -177.1929
53.121168 92.373 -177.3084
53.506106 92.416 -177.4394
53.893833 92.457 -177.5848
54.284370 92.497 -177.7429
54.677737 92.535 -177.9121
55.073955 92.572 -178.0911
55.473043 92.607 -178.2786
55.875024 92.643 -178.4736
56.279917 92.679 -178.6746
56.687745 92.715 -178.8802
57.098527 92.753 -179.0889
57.512287 92.793 -179.2994
57.929045 92.835 -179.5116
58.348822 92.878 -179.7270
58.771642 92.922 -179.9488
59.197525 92.966 179.8183
59.626495 93.010 179.5692
60.058573 93.052 179.3000
60.493782 93.092 179.0093
60.932145 93.131 178.6984
61.373685 93.170 178.3712
61.818424 93.208 178.0335
62.266386 93.247 177.6913
62.717593 93.289 177.3501
63.172071 93.333 177.0135
63.629842 93.379 176.6829
64.090930 93.428 176.3580
64.555359 93.478 176.0369
65.023154 93.531 175.7176
65.494339 93.584 175.3981
65.968938 93.638 175.0768
66.446976 93.692 174.7527
66.928478 93.745 174.4245
67.413469 93.797 174.0910
67.901975 93.847 173.7514
68.394021 93.894 173.4055
68.889632 93.939 173.0542
69.388835 93.981 172.6994
69.891655 94.019 172.3436
70.398118 94.055 171.9892
70.908252 94.086 171.6383
71.422083 94.114 171.2923
71.939636 94.137 170.9514
72.460941 94.158 170.6152
72.986023 94.175 170.2823
73.514909 94.188 169.9512
74.047629 94.199 169.6201
74.584208 94.207 169.2877
75.124676 94.212 168.9534
75.669061 94.214 168.6165
76.217390 94.215 168.2769
76.769692 94.213 167.9341
77.325997 94.209 167.5880
77.886333 94.204 167.2383
78.450730 94.197 166.8852
79.019216 94.188 166.5285
79.591822 94.178 166.1682
80.168577 94.166 165.8042
80.749512 94.152 165.4361
81.334656 94.138 165.0637
81.924040 94.122 164.6867
82.517696 94.105 164.3052
83.115653 94.088 163.9201
83.717943 94.070 163.5324
84.324598 94.052 163.1436
84.935649 94.033 162.7551
85.551128 94.014 162.3680
86.171066 93.994 161.9829
86.795497 93.974 161.6005
87.424453 93.954 161.2209
88.057967 93.932 160.8447
88.696071 93.910 160.4721
89.338800 93.886 160.1036
89.986185 93.861 159.7390
90.638262 93.835 159.3778
91.295065 93.807 159.0194
91.956626 93.778 158.6629
92.622982 93.747 158.3074
93.294166 93.716 157.9518
93.970214 93.683 157.5954
94.651161 93.651 157.2372
95.337042 93.618 156.8769
96.027894 93.584 156.5145
96.723752 93.551 156.1503
97.424652 93.518 155.7850
98.130631 93.484 155.4191
98.841726 93.451 155.0527
99.557974 93.417 154.6860
100.279412 93.383 154.3187
101.006078 93.348 153.9508
101.738010 93.313 153.5823
102.475245 93.278 153.2135
103.217823 93.242 152.8448
103.965782 93.206 152.4766
104.719161 93.170 152.1097
105.477999 93.134 151.7450
106.242336 93.098 151.3830
107.012212 93.061 151.0244
107.787666 93.025 150.6695
108.568740 92.989 150.3187
109.355474 92.953 149.9720
110.147909 92.917 149.6292
110.946086 92.881 149.2903
111.750047 92.845 148.9552
112.559834 92.808 148.6240
113.375489 92.771 148.2969
114.197055 92.733 147.9745
115.024574 92.694 147.6575
115.858089 92.654 147.3465
116.697645 92.613 147.0419
117.543284 92.569 146.7444
118.395051 92.524 146.4545
119.252990 92.477 146.1725
120.117147 92.429 145.8992
120.987565 92.380 145.6348
121.864291 92.328 145.3792
122.747370 92.276 145.1320
123.636848 92.223 144.8926
124.532771 92.169 144.6604
125.435187 92.113 144.4347
126.344142 92.057 144.2154
127.259684 92.000 144.0022
128.181860 91.941 143.7953
129.110718 91.881 143.5950
130.046308 91.819 143.4016
130.988677 91.756 143.2155
131.937875 91.691 143.0377
132.893951 91.625 142.8691
133.856956 91.556 142.7112
134.826938 91.486 142.5652
135.803950 91.415 142.4324
136.788041 91.342 142.3132
137.779264 91.268 142.2078
138.777669 91.192 142.1157
139.783309 91.116 142.0364
140.796237 91.039 141.9691
141.816504 90.961 141.9128
142.844165 90.883 141.8669
143.879273 90.804 141.8308
144.921881 90.725 141.8040
145.972045 90.647 141.7861
147.029819 90.568 141.7772
148.095257 90.489 141.7769
149.168417 90.411 141.7848
150.249353 90.332 141.8003
151.338121 90.253 141.8226
152.434780 90.174 141.8510
153.539385 90.096 141.8850
154.651995 90.017 141.9243
155.772667 89.938 141.9689
156.901460 89.860 142.0190
158.038432 89.782 142.0750
159.183644 89.704 142.1377
160.337154 89.627 142.2076
161.499023 89.550 142.2853
162.669312 89.474 142.3714
163.848081 89.399 142.4662
165.035392 89.324 142.5699
166.231306 89.249 142.6829
167.435887 89.176 142.8052
168.649196 89.103 142.9375
169.871298 89.030 143.0802
171.102255 88.958 143.2338
172.342133 88.888 143.3987
173.590995 88.817 143.5753
174.848907 88.748 143.7639
176.115934 88.679 143.9643
177.392143 88.611 144.1760
178.677599 88.544 144.3984
179.972371 88.478 144.6306
181.276525 88.412 144.8717
182.590129 88.347 145.1213
183.913252 88.283 145.3788
185.245964 88.219 145.6441
186.588332 88.157 145.9170
187.940428 88.096 146.1975
189.302322 88.037 146.4857
190.674085 87.979 146.7816
192.055788 87.923 147.0849
193.447503 87.869 147.3953
194.849303 87.816 147.7122
196.261262 87.766 148.0347
197.683452 87.717 148.3619
199.115948 87.671 148.6932
200.558824 87.626 149.0277
202.012156 87.583 149.3647
203.476019 87.542 149.7030
204.950490 87.502 150.0413
206.435646 87.465 150.3779
207.931564 87.429 150.7118
209.438322 87.394 151.0420
210.955998 87.362 151.3677
212.484672 87.331 151.6884
214.024424 87.302 152.0035
215.575333 87.275 152.3129
217.137481 87.249 152.6169
218.710948 87.226 152.9158
220.295818 87.205 153.2106
221.892172 87.186 153.5020
223.500094 87.169 153.7909
225.119668 87.154 154.0776
226.750978 87.141 154.3626
228.394109 87.131 154.6459
230.049147 87.123 154.9274
231.716178 87.117 155.2071
233.395289 87.114 155.4844
235.086567 87.112 155.7589
236.790102 87.112 156.0299
238.505980 87.114 156.2967
240.234293 87.118 156.5588
241.975130 87.124 156.8159
243.728581 87.131 157.0681
245.494739 87.139 157.3158
247.273695 87.149 157.5599
249.065542 87.160 157.8012
250.870374 87.172 158.0408
252.688284 87.185 158.2796
254.519367 87.199 158.5181
256.363720 87.215 158.7567
258.221437 87.231 158.9956
260.092616 87.247 159.2349
261.977354 87.264 159.4747
263.875750 87.281 159.7151
265.787903 87.299 159.9563
267.713911 87.317 160.1979
269.653877 87.335 160.4391
271.607900 87.354 160.6789
273.576083 87.374 160.9154
275.558528 87.395 161.1467
277.555338 87.418 161.3708
279.566619 87.442 161.5853
281.592474 87.467 161.7883
283.633009 87.495 161.9780
285.688331 87.525 162.1527
287.758546 87.557 162.3115
289.843763 87.591 162.4536
291.944090 87.627 162.5783
294.059638 87.664 162.6857
296.190515 87.703 162.7757
298.336833 87.743 162.8488
300.498705 87.783 162.9056
302.676243 87.824 162.9472
304.869559 87.865 162.9747
307.078770 87.906 162.9894
309.303989 87.947 162.9924
311.545334 87.987 162.9848
313.802919 88.026 162.9677
316.076865 88.064 162.9417
318.367288 88.101 162.9078
320.674309 88.136 162.8664
322.998047 88.169 162.8182
325.338624 88.201 162.7636
327.696162 88.230 162.7030
330.070783 88.258 162.6369
332.462612 88.283 162.5659
334.871773 88.306 162.4904
337.298392 88.326 162.4113
339.742595 88.344 162.3295
342.204510 88.359 162.2462
344.684265 88.371 162.1627
347.181989 88.380 162.0800
349.697813 88.386 161.9992
352.231868 88.389 161.9210
354.784285 88.390 161.8459
357.355198 88.387 161.7739
359.944741 88.382 161.7053
362.553049 88.375 161.6400
365.180258 88.365 161.5780
367.826505 88.354 161.5195
370.491927 88.341 161.4646
373.176665 88.327 161.4137
375.880856 88.312 161.3671
378.604644 88.296 161.3251
381.348169 88.280 161.2880
384.111575 88.264 161.2558
386.895006 88.248 161.2285
389.698607 88.231 161.2059
392.522524 88.215 161.1882
395.366904 88.198 161.1750
398.231895 88.181 161.1663
401.117648 88.164 161.1616
404.024312 88.147 161.1608
406.952038 88.130 161.1633
409.900981 88.112 161.1689
412.871292 88.094 161.1771
415.863128 88.074 161.1874
418.876643 88.054 161.1996
421.911996 88.032 161.2134
424.969344 88.009 161.2284
428.048847 87.985 161.2443
431.150666 87.959 161.2611
434.274961 87.932 161.2784
437.421897 87.904 161.2958
440.591636 87.874 161.3129
443.784345 87.843 161.3292
447.000189 87.812 161.3441
450.239337 87.779 161.3569
453.501956 87.746 161.3671
456.788219 87.713 161.3746
460.098294 87.680 161.3792
463.432356 87.646 161.3809
466.790578 87.613 161.3795
470.173135 87.580 161.3752
473.580203 87.548 161.3679
477.011961 87.516 161.3573
480.468586 87.484 161.3435
483.950259 87.453 161.3264
487.457163 87.423 161.3059
490.989478 87.393 161.2822
494.547390 87.364 161.2556
498.131084 87.335 161.2261
501.740748 87.306 161.1945
505.376568 87.278 161.1610
509.038735 87.249 161.1266
512.727439 87.221 161.0921
516.442874 87.192 161.0586
520.185232 87.164 161.0272
523.954708 87.134 160.9991
527.751500 87.105 160.9756
531.575805 87.075 160.9575
535.427822 87.045 160.9458
539.307753 87.015 160.9411
543.215800 86.985 160.9442
547.152165 86.956 160.9554
551.117055 86.928 160.9757
555.110677 86.901 161.0057
559.133237 86.875 161.0462
563.184947 86.850 161.0981
567.266018 86.827 161.1623
571.376661 86.805 161.2396
575.517092 86.785 161.3308
579.687526 86.766 161.4366
583.888181 86.748 161.5574
588.119275 86.731 161.6933
592.381030 86.715 161.8444
596.673667 86.700 162.0105
600.997410 86.685 162.1911
605.352485 86.671 162.3857
609.739119 86.658 162.5938
614.157540 86.645 162.8142
618.607979 86.633 163.0460
623.090667 86.621 163.2879
627.605839 86.609 163.5383
632.153730 86.598 163.7958
636.734576 86.588 164.0586
641.348617 86.578 164.3253
645.996094 86.569 164.5945
650.677248 86.560 164.8651
655.392323 86.551 165.1359
660.141566 86.543 165.4062
664.925224 86.536 165.6753
669.743546 86.529 165.9423
674.596784 86.521 166.2068
679.485191 86.515 166.4681
684.409020 86.508 166.7258
689.368530 86.501 166.9797
694.363979 86.495 167.2294
699.395626 86.488 167.4750
704.463736 86.482 167.7165
709.568570 86.476 167.9542
714.710396 86.470 168.1881
719.889483 86.464 168.4187
725.106099 86.458 168.6462
730.360516 86.452 168.8709
735.653010 86.446 169.0932
740.983855 86.440 169.3135
746.353329 86.434 169.5322
751.761713 86.428 169.7495
757.209288 86.423 169.9653
762.696339 86.417 170.1797
768.223151 86.412 170.3919
773.790013 86.408 170.6013
779.397214 86.405 170.8070
785.045047 86.403 171.0076
790.733808 86.403 171.2017
796.463791 86.406 171.3873
802.235296 86.411 171.5621
808.048623 86.418 171.7230
813.904077 86.429 171.8664
819.801961 86.442 171.9879
825.742584 86.459 172.0827
831.726255 86.477 172.1458
837.753287 86.497 172.1724
843.823992 86.518 172.1591
849.938689 86.538 172.1044
856.097695 86.557 172.0089
862.301332 86.572 171.8765
868.549922 86.583 171.7137
874.843793 86.589 171.5294
881.183272 86.589 171.3341
887.568689 86.584 171.1381
894.000378 86.573 170.9511
900.478673 86.557 170.7806
907.003913 86.538 170.6318
913.576437 86.516 170.5072
920.196588 86.493 170.4072
926.864712 86.471 170.3303
933.581156 86.449 170.2736
940.346270 86.428 170.2336
947.160407 86.410 170.2065
954.023921 86.394 170.1887
960.937172 86.381 170.1770
967.900519 86.371 170.1689
974.914325 86.364 170.1625
981.978956 86.359 170.1568
989.094780 86.357 170.1513
996.262169 86.357 170.1465
1003.481495 86.359 170.1432
1010.753136 86.362 170.1426
1018.077470 86.367 170.1462
1025.454879 86.373 170.1557
1032.885748 86.380 170.1726
1040.370463 86.388 170.1985
1047.909417 86.397 170.2353
1055.503000 86.406 170.2845
1063.151610 86.417 170.3481
1070.855645 86.428 170.4283
1078.615506 86.441 170.5275
1086.431599 86.454 170.6485
1094.304330 86.468 170.7943
1102.234110 86.484 170.9680
1110.221353 86.501 171.1732
1118.266475 86.521 171.4130
1126.369895 86.544 171.6899
1134.532035 86.571 172.0056
1142.753322 86.605 172.3599
1151.034184 86.645 172.7496
1159.375052 86.695 173.1681
1167.776361 86.755 173.6039
1176.238550 86.826 174.0408
1184.762060 86.909 174.4575
1193.347334 87.004 174.8290
1201.994821 87.109 175.1296
1210.704971 87.221 175.3358
1219.478238 87.336 175.4307
1228.315080 87.450 175.4070
1237.215957 87.558 175.2693
1246.181334 87.656 175.0329
1255.211678 87.743 174.7213
1264.307459 87.815 174.3621
1273.469152 87.875 173.9828
1282.697235 87.922 173.6078
1291.992188 87.959 173.2567
1301.354495 87.989 172.9437
1310.784647 88.012 172.6774
1320.283132 88.032 172.4619
1329.850448 88.051 172.2973
1339.487093 88.070 172.1810
1349.193569 88.090 172.1082
1358.970381 88.113 172.0729
1368.818041 88.140 172.0688
1378.737061 88.170 172.0891
1388.727958 88.205 172.1277
1398.791253 88.245 172.1783
1408.927471 88.289 172.2356
1419.137140 88.338 172.2947
1429.420793 88.392 172.3516
1439.778965 88.449 172.4026
1450.212197 88.510 172.4454
1460.721033 88.574 172.4779
1471.306019 88.640 172.4988
1481.967709 88.709 172.5078
1492.706658 88.778 172.5043
1503.523426 88.848 172.4888
1514.418576 88.918 172.4616
1525.392678 88.987 172.4232
1536.446302 89.055 172.3740
1547.580025 89.120 172.3146
1558.794428 89.184 172.2453
1570.090095 89.245 172.1665
1581.467615 89.302 172.0784
1592.927581 89.357 171.9813
1604.470591 89.408 171.8754
1616.097246 89.455 171.7609
1627.808153 89.498 171.6384
1639.603922 89.537 171.5082
1651.485168 89.573 171.3710
1663.452510 89.605 171.2276
1675.506573 89.632 171.0788
1687.647984 89.656 170.9255
1699.877377 89.676 170.7686
1712.195390 89.691 170.6089
1724.602663 89.704 170.4471
1737.099845 89.712 170.2840
1749.687587 89.717 170.1201
1762.366544 89.718 169.9561
1775.137379 89.716 169.7925
1788.000756 89.711 169.6297
1800.957346 89.703 169.4684
1814.007826 89.691 169.3089
1827.152874 89.676 169.1518
1840.393177 89.658 168.9977
1853.729425 89.636 168.8470
1867.162312 89.611 168.7005
1880.692540 89.581 168.5587
1894.320813 89.548 168.4222
1908.047843 89.510 168.2917
1921.874344 89.467 168.1676
1935.801038 89.420 168.0506
1949.828650 89.369 167.9411
1963.957912 89.312 167.8393
1978.189561 89.252 167.7455
1992.524338 89.187 167.6600
2006.962991 89.118 167.5826
2021.506272 89.045 167.5134
2036.154940 88.968 167.4522
2050.909758 88.889 167.3990
2065.771495 88.806 167.3534
2080.740927 88.721 167.3153
2095.818833 88.634 167.2846
2111.006001 88.545 167.2614
2126.303220 88.455 167.2456
2141.711290 88.364 167.2378
2157.231013 88.271 167.2382
2172.863198 88.179 167.2473
2188.608660 88.086 167.2655
2204.468221 87.993 167.2927
2220.442706 87.901 167.3290
2236.532950 87.810 167.3740
2252.739789 87.719 167.4272
2269.064070 87.630 167.4882
2285.506644 87.541 167.5568
2302.068367 87.454 167.6327
2318.750104 87.367 167.7165
2335.552723 87.282 167.8088
2352.477101 87.198 167.9110
2369.524119 87.115 168.0248
2386.694668 87.034 168.1520
2403.989641 86.954 168.2948
2421.409941 86.877 168.4552
2438.956476 86.802 168.6351
2456.630160 86.730 168.8359
2474.431915 86.661 169.0587
2492.362668 86.596 169.3036
2510.423356 86.536 169.5706
2528.614918 86.481 169.8587
2546.938304 86.431 170.1663
2565.394469 86.387 170.4915
2583.984375 86.349 170.8317
2602.708991 86.317 171.1845
2621.569293 86.291 171.5474
2640.566265 86.272 171.9179
2659.700897 86.258 172.2941
2678.974186 86.251 172.6740
2698.387137 86.250 173.0559
2717.940763 86.255 173.4383
2737.636082 86.266 173.8196
2757.474121 86.282 174.1982
2777.455915 86.303 174.5724
2797.582506 86.329 174.9406
2817.854942 86.359 175.3009
2838.274281 86.393 175.6518
2858.841586 86.430 175.9918
2879.557931 86.469 176.3198
2900.424394 86.509 176.6351
2921.442065 86.550 176.9376
2942.612039 86.591 177.2276
2963.935418 86.630 177.5061
2985.413316 86.667 177.7745
3007.046852 86.702 178.0345
3028.837153 86.732 178.2884
3050.785356 86.759 178.5383
3072.892604 86.781 178.7870
3095.160050 86.797 179.0369
3117.588856 86.807 179.2910
3140.180190 86.812 179.5522
3162.935230 86.810 179.8234
3185.855163 86.801 -179.8924
3208.941182 86.786 -179.5919
3232.194493 86.765 -179.2722
3255.616307 86.736 -178.9301
3279.207844 86.701 -178.5627
3302.970336 86.660 -178.1670
3326.905021 86.613 -177.7403
3351.013146 86.560 -177.2799
3375.295969 86.503 -176.7834
3399.754755 86.441 -176.2486
3424.390779 86.378 -175.6739
3449.205326 86.312 -175.0584
3474.199690 86.247 -174.4020
3499.375173 86.184 -173.7059
3524.733088 86.123 -172.9728
3550.274757 86.068 -172.2071
3576.001511 86.020 -171.4150
3601.914692 85.980 -170.6045
3628.015651 85.951 -169.7849
3654.305748 85.933 -168.9665
3680.786354 85.927 -168.1598
3707.458849 85.934 -167.3750
3734.324624 85.953 -166.6214
3761.385080 85.985 -165.9070
3788.641627 86.029 -165.2384
3816.095686 86.084 -164.6204
3843.748688 86.149 -164.0562
3871.602076 86.223 -163.5475
3899.657300 86.305 -163.0944
3927.915825 86.394 -162.6960
3956.379122 86.487 -162.3506
3985.048676 86.585 -162.0556
4013.925981 86.686 -161.8080
4043.012544 86.788 -161.6040
4072.309879 86.891 -161.4398
4101.819515 86.993 -161.3106
4131.542990 87.093 -161.2108
4161.481854 87.190 -161.1340
4191.637667 87.283 -161.0726
4222.012001 87.371 -161.0179
4252.606441 87.454 -160.9601
4283.422580 87.532 -160.8892
4314.462026 87.605 -160.7950
4345.726396 87.673 -160.6682
4377.217321 87.738 -160.5014
4408.936442 87.802 -160.2896
4440.885413 87.865 -160.0314
4473.065899 87.932 -159.7295
4505.479579 88.002 -159.3904
4538.128141 88.079 -159.0251
4571.013288 88.165 -158.6483
4604.136735 88.259 -158.2771
4637.500207 88.364 -157.9309
4671.105446 88.479 -157.6293
4704.954201 88.603 -157.3913
4739.048239 88.736 -157.2342
4773.389336 88.876 -157.1727
4807.979283 89.021 -157.2181
4842.819883 89.168 -157.3782
4877.912952 89.316 -157.6566
4913.260320 89.461 -158.0536
4948.863830 89.601 -158.5654
4984.725337 89.734 -159.1850
5020.846712 89.858 -159.9019
5057.229836 89.971 -160.7032
5093.876609 90.070 -161.5736
5130.788938 90.157 -162.4962
5167.968750 90.229 -163.4526
5205.417982 90.287 -164.4239
5243.138586 90.331 -165.3910
5281.132530 90.362 -166.3354
5319.401793 90.383 -167.2395
5357.948371 90.393 -168.0877
5396.774274 90.397 -168.8667
5435.881525 90.397 -169.5664
5475.272163 90.396 -170.1801
5514.948243 90.398 -170.7057
5554.911831 90.405 -171.1453
5595.165012 90.420 -171.5058
5635.709884 90.447 -171.7984
5676.548561 90.488 -172.0384
5717.683172 90.543 -172.2442
5759.115861 90.614 -172.4364
5800.848789 90.700 -172.6367
5842.884130 90.800 -172.8664
5885.224077 90.913 -173.1456
5927.870837 91.035 -173.4919
5970.826633 91.165 -173.9200
6014.093704 91.299 -174.4408
6057.674306 91.435 -175.0616
6101.570711 91.569 -175.7864
6145.785208 91.700 -176.6160
6190.320101 91.823 -177.5484
6235.177712 91.939 -178.5800
6280.360380 92.044 -179.7058
6325.870460 92.138 179.0800
6371.710325 92.219 177.7831
6417.882365 92.287 176.4093
6464.388986 92.342 174.9634
6511.232613 92.382 173.4497
6558.415689 92.407 171.8719
6605.940673 92.417 170.2328
6653.810042 92.412 168.5352
6702.026292 92.391 166.7813
6750.591937 92.353 164.9741
6799.509509 92.297 163.1168
6848.781558 92.224 161.2133
6898.410653 92.131 159.2686
6948.399380 92.020 157.2882
6998.750346 91.889 155.2788
7049.466176 91.738 153.2473
7100.549514 91.568 151.2010
7152.003023 91.378 149.1469
7203.829385 91.168 147.0913
7256.031302 90.940 145.0398
7308.611496 90.695 142.9962
7361.572708 90.434 140.9621
7414.917698 90.158 138.9366
7468.649249 89.869 136.9152
7522.770160 89.569 134.8895
7577.283253 89.262 132.8469
7632.191371 88.948 130.7700
7687.497376 88.629 128.6371
7743.204151 88.309 126.4223
7799.314600 87.986 124.0963
7855.831649 87.663 121.6280
7912.758244 87.338 118.9854
7970.097352 87.009 116.1377
8027.851962 86.672 113.0559
8086.025087 86.324 109.7149
8144.619758 85.959 106.0927
8203.639030 85.570 102.1705
8263.085980 85.153 97.9293
8322.963708 84.701 93.3458
8383.275334 84.211 88.3834
8444.024002 83.682 82.9796
8505.212881 83.114 77.0261
8566.845160 82.515 70.3374
8628.924051 81.892 62.6003
8691.452792 81.262 53.2970
8754.434642 80.647 41.6045
8817.872884 80.075 26.3923
8881.770826 79.578 6.8144
8946.131799 79.191 -15.8920
9010.959157 78.940 -37.7215
9076.256282 78.838 -55.5209
9142.026576 78.882 -69.1240
9208.273470 79.048 -79.6583
9275.000415 79.305 -88.1924
9342.210891 79.616 -95.4615
9409.908403 79.948 -101.9352
9478.096478 80.272 -107.9089
9546.778672 80.565 -113.5658
9615.958566 80.809 -119.0140
9685.639765 80.991 -124.3093
9755.825904 81.102 -129.4702
9826.520640 81.135 -134.4880
9897.727659 81.089 -139.3375
9969.450674 80.963 -143.9839
10041.693423 80.762 -148.3907
10114.459673 80.491 -152.5250
10187.753217 80.156 -156.3613
10261.577877 79.765 -159.8829
10335.937500 79.326 -163.0829
10410.835964 78.849 -165.9644
10486.277173 78.340 -168.5392
10562.265060 77.808 -170.8278
10638.803587 77.261 -172.8580
10715.896743 76.704 -174.6646
10793.548548 76.144 -176.2878
10871.763050 75.586 -177.7732
10950.544327 75.034 -179.1694
11029.896485 74.491 179.4731
11109.823662 73.956 178.1044
11190.330024 73.431 176.6773
11271.419768 72.913 175.1504
11353.097122 72.397 173.4894
11435.366344 71.879 171.6692
11518.231722 71.352 169.6736
11601.697577 70.809 167.4957
11685.768261 70.244 165.1356
11770.448155 69.649 162.5980
11855.741674 69.019 159.8875
11941.653265 68.349 157.0025
12028.187408 67.637 153.9270
12115.348612 66.883 150.6183
12203.141422 66.089 146.9899
12291.570415 65.262 142.8862
12380.640201 64.416 138.0428
12470.355424 63.571 132.0288
12560.720760 62.759 124.1710
12651.740920 62.025 113.5242
12743.420650 61.426 99.1599
12835.764729 61.023 81.2928
12928.777972 60.860 62.5341
13022.465227 60.951 46.2579
13116.831378 61.266 33.7144
13211.881345 61.753 24.2999
13307.620084 62.350 17.0117
13404.052584 63.002 11.0547
13501.183875 63.669 5.8981
13599.019019 64.322 1.2051
13697.563116 64.943 -3.2337
13796.821305 65.519 -7.5460
13896.798760 66.042 -11.8060
13997.500692 66.507 -16.0524
14098.932352 66.914 -20.3000
14201.099028 67.261 -24.5479
14304.006046 67.552 -28.7857
14407.658770 67.790 -32.9995
14512.062604 67.981 -37.1765
14617.222992 68.131 -41.3085
14723.145416 68.250 -45.3961
14829.835397 68.344 -49.4493
14937.298497 68.420 -53.4880
15045.540320 68.484 -57.5403
15154.566507 68.539 -61.6403
15264.382743 68.584 -65.8230
15374.994752 68.619 -70.1213
15486.408302 68.637 -74.5616
15598.629201 68.633 -79.1608
15711.663298 68.600 -83.9254
15825.516487 68.533 -88.8517
15940.194703 68.426 -93.9275
16055.703925 68.275 -99.1345
16172.050174 68.077 -104.4513
16289.239516 67.830 -109.8558
16407.278061 67.536 -115.3272
16526.171961 67.193 -120.8470
16645.927415 66.804 -126.3995
16766.550667 66.370 -131.9727
16888.048005 65.895 -137.5579
17010.425762 65.380 -143.1497
17133.690320 64.829 -148.7478
17257.848103 64.248 -154.3579
17382.905584 63.640 -159.9932
17508.869284 63.012 -165.6746
17635.745768 62.371 -171.4287
17763.541652 61.722 -177.2852
17892.263597 61.070 176.7283
18021.918315 60.420 170.5906
18152.512564 59.772 164.2910
18284.053153 59.128 157.8335
18416.546939 58.489 151.2397
18550.000830 57.856 144.5474
18684.421783 57.233 137.8083
18819.816805 56.630 131.0828
18956.192956 56.061 124.4331
19093.557344 55.542 117.9309
19231.917131 55.092 111.6776
19371.279531 54.725 105.8357
19511.651807 54.446 100.6409
19653.041280 54.250 96.3805
19795.455318 54.128 93.3425
19938.901348 54.071 91.7588
