* Measurement data measured by REW V5.31.3
* Source: EXCL: Headset (USB-C to 3.5mm Headphone Jack Adapter), MICROPHONE (Master Volume), 0, volume: 0.260
* Format: 256k Log Swept Sine, 1 sweep at -12.0 dBFS with no timing reference
* Dated: Feb 21, 2025 5:26:07 PM
* REW Settings:
*  C-weighting compensation: Off
*  Target level: 75.0 dB
* Note: ; 
* Measurement: Ouroboros (Golem Mod) R4
* Smoothing: 1/6 octave
* Frequency Step: 96 ppo
* Start Frequency: 20.0 Hz
*
* Freq(Hz) SPL(dB) Phase(degrees)
20.141602 105.894 -118.2261
20.287556 105.874 -118.4428
20.434568 105.848 -118.7341
20.582645 105.815 -119.0925
20.731796 105.778 -119.5098
20.882027 105.736 -119.9776
21.033346 105.692 -120.4879
21.185763 105.646 -121.0334
21.339284 105.599 -121.6070
21.493917 105.552 -122.2028
21.649671 105.505 -122.8149
21.806553 105.459 -123.4384
21.964572 105.415 -124.0685
22.123737 105.372 -124.7012
22.284054 105.331 -125.3331
22.445534 105.292 -125.9613
22.608183 105.256 -126.5836
22.772012 105.221 -127.1983
22.937027 105.187 -127.8045
23.103238 105.155 -128.4015
23.270654 105.123 -128.9890
23.439282 105.091 -129.5671
23.609133 105.059 -130.1357
23.780215 105.027 -130.6949
23.952536 104.993 -131.2448
24.126106 104.957 -131.7855
24.300934 104.920 -132.3172
24.477028 104.882 -132.8404
24.654399 104.843 -133.3558
24.833055 104.803 -133.8645
25.013005 104.764 -134.3680
25.194260 104.725 -134.8684
25.376828 104.688 -135.3677
25.560719 104.652 -135.8682
25.745942 104.620 -136.3722
25.932508 104.590 -136.8814
26.120426 104.563 -137.3974
26.309705 104.540 -137.9208
26.500356 104.519 -138.4517
26.692388 104.502 -138.9895
26.885812 104.488 -139.5328
27.080638 104.477 -140.0799
27.276876 104.468 -140.6284
27.474535 104.462 -141.1759
27.673627 104.456 -141.7194
27.874161 104.452 -142.2563
28.076149 104.448 -142.7839
28.279600 104.443 -143.2996
28.484526 104.437 -143.8012
28.690937 104.430 -144.2869
28.898843 104.419 -144.7555
29.108256 104.406 -145.2064
29.319186 104.388 -145.6396
29.531645 104.366 -146.0559
29.745644 104.340 -146.4564
29.961193 104.309 -146.8430
30.178304 104.275 -147.2180
30.396989 104.236 -147.5836
30.617258 104.194 -147.9423
30.839123 104.149 -148.2966
31.062596 104.103 -148.6488
31.287688 104.057 -149.0010
31.514412 104.011 -149.3548
31.742778 103.967 -149.7116
31.972800 103.925 -150.0718
32.204488 103.887 -150.4353
32.437855 103.853 -150.8008
32.672913 103.823 -151.1662
32.909674 103.797 -151.5285
33.148151 103.775 -151.8842
33.388356 103.756 -152.2296
33.630302 103.741 -152.5614
33.874001 103.727 -152.8769
34.119466 103.715 -153.1745
34.366710 103.703 -153.4536
34.615745 103.690 -153.7148
34.866585 103.676 -153.9594
35.119243 103.659 -154.1889
35.373731 103.639 -154.4051
35.630064 103.615 -154.6091
35.888254 103.586 -154.8019
36.148315 103.553 -154.9839
36.410261 103.515 -155.1551
36.674104 103.472 -155.3159
36.939860 103.426 -155.4664
37.207542 103.376 -155.6072
37.477163 103.324 -155.7388
37.748738 103.270 -155.8617
38.022281 103.215 -155.9759
38.297806 103.160 -156.0811
38.575327 103.103 -156.1764
38.854860 103.047 -156.2603
39.136419 102.991 -156.3312
39.420017 102.935 -156.3877
39.705671 102.880 -156.4286
39.993395 102.825 -156.4536
40.283203 102.772 -156.4630
40.575112 102.721 -156.4584
40.869136 102.671 -156.4418
41.165290 102.624 -156.4163
41.463591 102.579 -156.3849
41.764053 102.538 -156.3510
42.066693 102.501 -156.3174
42.371525 102.467 -156.2862
42.678567 102.439 -156.2586
42.987834 102.414 -156.2346
43.299341 102.395 -156.2138
43.613106 102.380 -156.1949
43.929145 102.370 -156.1767
44.247473 102.364 -156.1585
44.568109 102.362 -156.1400
44.891068 102.364 -156.1218
45.216367 102.369 -156.1047
45.544023 102.377 -156.0895
45.874054 102.387 -156.0769
46.206476 102.398 -156.0668
46.541307 102.411 -156.0586
46.878565 102.425 -156.0512
47.218266 102.442 -156.0436
47.560429 102.460 -156.0352
47.905072 102.481 -156.0262
48.252212 102.504 -156.0173
48.601867 102.531 -156.0101
48.954056 102.560 -156.0062
49.308798 102.592 -156.0067
49.666109 102.628 -156.0124
50.026010 102.665 -156.0232
50.388520 102.705 -156.0384
50.753656 102.747 -156.0570
51.121437 102.791 -156.0782
51.491884 102.836 -156.1014
51.865016 102.882 -156.1267
52.240851 102.928 -156.1545
52.619410 102.975 -156.1861
53.000712 103.023 -156.2229
53.384777 103.070 -156.2666
53.771625 103.117 -156.3185
54.161276 103.163 -156.3799
54.553751 103.209 -156.4516
54.949070 103.253 -156.5342
55.347254 103.297 -156.6282
55.748323 103.340 -156.7345
56.152298 103.382 -156.8542
56.559201 103.424 -156.9887
56.969052 103.466 -157.1390
57.381873 103.510 -157.3058
57.797686 103.555 -157.4890
58.216512 103.602 -157.6875
58.638373 103.653 -157.8994
59.063291 103.706 -158.1227
59.491288 103.764 -158.3553
59.922386 103.824 -158.5960
60.356608 103.887 -158.8447
60.793977 103.953 -159.1027
61.234515 104.021 -159.3717
61.678246 104.090 -159.6541
62.125192 104.159 -159.9522
62.575377 104.227 -160.2677
63.028824 104.293 -160.6020
63.485557 104.358 -160.9559
63.945599 104.420 -161.3298
64.408975 104.480 -161.7239
64.875709 104.538 -162.1380
65.345825 104.592 -162.5716
65.819348 104.644 -163.0243
66.296302 104.694 -163.4954
66.776713 104.741 -163.9846
67.260604 104.786 -164.4912
67.748002 104.829 -165.0145
68.238932 104.870 -165.5537
68.733420 104.908 -166.1078
69.231490 104.945 -166.6756
69.733170 104.980 -167.2558
70.238485 105.012 -167.8471
70.747463 105.042 -168.4483
71.260128 105.071 -169.0581
71.776508 105.097 -169.6755
72.296630 105.121 -170.2993
72.820521 105.143 -170.9286
73.348209 105.163 -171.5625
73.879720 105.181 -172.1999
74.415083 105.196 -172.8400
74.954326 105.210 -173.4821
75.497475 105.221 -174.1257
76.044561 105.230 -174.7702
76.595612 105.236 -175.4153
77.150655 105.240 -176.0605
77.709720 105.242 -176.7054
78.272837 105.241 -177.3493
78.840034 105.238 -177.9918
79.411342 105.232 -178.6322
79.986789 105.223 -179.2701
80.566406 105.213 -179.9051
81.150224 105.200 179.4631
81.738272 105.186 178.8347
82.330581 105.169 178.2101
82.927182 105.150 177.5895
83.528107 105.130 176.9733
84.133386 105.108 176.3621
84.743051 105.085 175.7559
85.357134 105.060 175.1550
85.975667 105.034 174.5594
86.598682 105.008 173.9691
87.226212 104.981 173.3839
87.858289 104.953 172.8040
88.494946 104.925 172.2292
89.136217 104.897 171.6595
89.782135 104.869 171.0947
90.432733 104.841 170.5346
91.088046 104.813 169.9788
91.748108 104.785 169.4269
92.412952 104.756 168.8787
93.082615 104.726 168.3336
93.757130 104.695 167.7915
94.436533 104.662 167.2519
95.120859 104.627 166.7147
95.810144 104.590 166.1797
96.504423 104.549 165.6469
97.203734 104.506 165.1163
97.908112 104.458 164.5883
98.617595 104.407 164.0630
99.332219 104.352 163.5413
100.052021 104.294 163.0239
100.777039 104.232 162.5117
101.507311 104.168 162.0053
102.242875 104.101 161.5055
102.983769 104.033 161.0125
103.730032 103.963 160.5261
104.481702 103.892 160.0464
105.238820 103.819 159.5732
106.001424 103.747 159.1061
106.769554 103.673 158.6453
107.543250 103.600 158.1909
108.322553 103.526 157.7431
109.107503 103.452 157.3023
109.898141 103.378 156.8690
110.694508 103.304 156.4438
111.496646 103.229 156.0271
112.304596 103.153 155.6195
113.118402 103.077 155.2218
113.938104 102.998 154.8344
114.763747 102.918 154.4579
115.595372 102.836 154.0931
116.433024 102.751 153.7405
117.276746 102.663 153.4009
118.126581 102.572 153.0749
118.982575 102.478 152.7632
119.844772 102.382 152.4664
120.713217 102.283 152.1851
121.587954 102.181 151.9202
122.469031 102.078 151.6724
123.356492 101.973 151.4426
124.250384 101.867 151.2318
125.150753 101.760 151.0410
126.057647 101.653 150.8710
126.971113 101.546 150.7226
127.891198 101.439 150.5963
128.817950 101.333 150.4926
129.751418 101.228 150.4117
130.691651 101.123 150.3539
131.638696 101.019 150.3194
132.592604 100.916 150.3087
133.553425 100.814 150.3220
134.521208 100.712 150.3600
135.496004 100.610 150.4235
136.477864 100.509 150.5131
137.466839 100.407 150.6295
138.462981 100.304 150.7734
139.466340 100.200 150.9453
140.476971 100.095 151.1454
141.494925 99.989 151.3739
142.520256 99.882 151.6309
143.553016 99.775 151.9162
144.593260 99.667 152.2296
145.641043 99.560 152.5707
146.696418 99.454 152.9391
147.759441 99.349 153.3342
148.830166 99.247 153.7553
149.908651 99.149 154.2018
150.994951 99.055 154.6726
152.089123 98.965 155.1669
153.191223 98.880 155.6835
154.301310 98.800 156.2209
155.419441 98.727 156.7775
156.545674 98.659 157.3516
157.680069 98.596 157.9409
158.822683 98.540 158.5436
159.973578 98.488 159.1578
161.132813 98.443 159.7815
162.300447 98.402 160.4130
163.476543 98.367 161.0505
164.661162 98.337 161.6921
165.854364 98.312 162.3359
167.056213 98.293 162.9797
168.266772 98.278 163.6211
169.486102 98.268 164.2579
170.714268 98.263 164.8876
171.951334 98.263 165.5079
173.197364 98.267 166.1166
174.452424 98.274 166.7118
175.716578 98.286 167.2916
176.989893 98.301 167.8546
178.272434 98.319 168.3992
179.564270 98.340 168.9243
180.865467 98.363 169.4287
182.176092 98.388 169.9112
183.496216 98.415 170.3708
184.825905 98.443 170.8070
186.165229 98.473 171.2190
187.514259 98.503 171.6065
188.873065 98.533 171.9693
190.241717 98.564 172.3074
191.620287 98.593 172.6210
193.008847 98.622 172.9102
194.407468 98.650 173.1754
195.816225 98.677 173.4169
197.235190 98.702 173.6349
198.664438 98.727 173.8300
200.104042 98.750 174.0025
201.554078 98.772 174.1530
203.014622 98.793 174.2821
204.485750 98.814 174.3905
205.967538 98.835 174.4792
207.460064 98.857 174.5490
208.963405 98.881 174.6008
210.477640 98.907 174.6354
212.002848 98.935 174.6535
213.539108 98.966 174.6558
215.086500 99.000 174.6427
216.645105 99.038 174.6150
218.215005 99.080 174.5734
219.796281 99.125 174.5185
221.389015 99.174 174.4513
222.993292 99.225 174.3725
224.609193 99.279 174.2829
226.236804 99.334 174.1833
227.876209 99.391 174.0743
229.527494 99.450 173.9564
231.190745 99.509 173.8302
232.866048 99.568 173.6961
234.553491 99.626 173.5547
236.253163 99.685 173.4065
237.965150 99.742 173.2519
239.689544 99.798 173.0916
241.426433 99.853 172.9261
243.175909 99.906 172.7560
244.938062 99.957 172.5817
246.712984 100.005 172.4039
248.500768 100.051 172.2232
250.301507 100.093 172.0400
252.115295 100.133 171.8548
253.942226 100.170 171.6682
255.782396 100.204 171.4806
257.635901 100.236 171.2925
259.502837 100.265 171.1044
261.383301 100.291 170.9169
263.277392 100.316 170.7303
265.185209 100.338 170.5452
267.106850 100.357 170.3619
269.042417 100.374 170.1809
270.992009 100.387 170.0024
272.955729 100.397 169.8271
274.933678 100.404 169.6554
276.925961 100.406 169.4877
278.932681 100.403 169.3245
280.953942 100.396 169.1663
282.989850 100.384 169.0135
285.040511 100.367 168.8665
287.106032 100.345 168.7254
289.186521 100.318 168.5906
291.282086 100.287 168.4620
293.392836 100.252 168.3392
295.518881 100.214 168.2220
297.660333 100.172 168.1094
299.817302 100.129 168.0007
301.989902 100.083 167.8948
304.178245 100.037 167.7909
306.382446 99.991 167.6877
308.602620 99.945 167.5845
310.838882 99.901 167.4803
313.091348 99.858 167.3741
315.360137 99.818 167.2653
317.645367 99.781 167.1531
319.947156 99.747 167.0368
322.265625 99.716 166.9161
324.600895 99.690 166.7906
326.953086 99.668 166.6602
329.322323 99.650 166.5250
331.708729 99.637 166.3851
334.112427 99.629 166.2408
336.533543 99.625 166.0926
338.972204 99.626 165.9409
341.428536 99.630 165.7861
343.902668 99.639 165.6289
346.394729 99.651 165.4697
348.904848 99.666 165.3090
351.433156 99.683 165.1472
353.979786 99.701 164.9849
356.544869 99.720 164.8228
359.128540 99.737 164.6613
361.730934 99.753 164.5010
364.352185 99.766 164.3428
366.992431 99.776 164.1872
369.651810 99.781 164.0348
372.330459 99.782 163.8864
375.028519 99.777 163.7423
377.746130 99.767 163.6034
380.483434 99.750 163.4698
383.240574 99.729 163.3421
386.017693 99.701 163.2203
388.814937 99.669 163.1046
391.632450 99.632 162.9946
394.470380 99.592 162.8901
397.328875 99.549 162.7906
400.208084 99.504 162.6958
403.108157 99.460 162.6050
406.029245 99.416 162.5182
408.971500 99.374 162.4351
411.935076 99.334 162.3560
414.920127 99.298 162.2810
417.926810 99.265 162.2104
420.955280 99.236 162.1448
424.005695 99.211 162.0847
427.078215 99.190 162.0305
430.173000 99.172 161.9830
433.290211 99.156 161.9429
436.430010 99.141 161.9108
439.592562 99.127 161.8875
442.778031 99.113 161.8737
445.986583 99.098 161.8698
449.218386 99.081 161.8763
452.473607 99.062 161.8934
455.752418 99.041 161.9214
459.054987 99.018 161.9600
462.381489 98.992 162.0090
465.732096 98.965 162.0677
469.106983 98.937 162.1354
472.506325 98.909 162.2107
475.930301 98.880 162.2923
479.379088 98.852 162.3785
482.852867 98.824 162.4677
486.351817 98.798 162.5580
489.876123 98.772 162.6480
493.425968 98.749 162.7362
497.001536 98.727 162.8215
500.603014 98.708 162.9033
504.230589 98.692 162.9810
507.884452 98.680 163.0545
511.564792 98.672 163.1243
515.271802 98.670 163.1909
519.005673 98.673 163.2551
522.766602 98.682 163.3180
526.554785 98.697 163.3808
530.370418 98.718 163.4448
534.213700 98.745 163.5116
538.084833 98.776 163.5826
541.984018 98.812 163.6588
545.911457 98.851 163.7412
549.867357 98.892 163.8298
553.851922 98.933 163.9240
557.865362 98.975 164.0219
561.907884 99.014 164.1212
565.979700 99.051 164.2188
570.081022 99.084 164.3115
574.212064 99.111 164.3965
578.373042 99.132 164.4714
582.564171 99.144 164.5349
586.785671 99.148 164.5862
591.037762 99.142 164.6257
595.320665 99.126 164.6540
599.634604 99.100 164.6724
603.979804 99.063 164.6823
608.356491 99.017 164.6853
612.764893 98.962 164.6827
617.205240 98.899 164.6758
621.677763 98.831 164.6652
626.182696 98.759 164.6513
630.720274 98.684 164.6342
635.290733 98.610 164.6135
639.894312 98.538 164.5891
644.531250 98.469 164.5602
649.201789 98.404 164.5264
653.906173 98.346 164.4873
658.644647 98.294 164.4424
663.417457 98.250 164.3914
668.224854 98.214 164.3342
673.067086 98.186 164.2709
677.944408 98.166 164.2017
682.857073 98.153 164.1267
687.805336 98.149 164.0464
692.789457 98.151 163.9611
697.809695 98.160 163.8713
702.866312 98.174 163.7778
707.959571 98.192 163.6813
713.089738 98.213 163.5826
718.257080 98.235 163.4827
723.461867 98.257 163.3828
728.704370 98.277 163.2839
733.984862 98.294 163.1876
739.303619 98.307 163.0951
744.660918 98.314 163.0078
750.057038 98.316 162.9274
755.492260 98.312 162.8553
760.966869 98.302 162.7929
766.481148 98.287 162.7416
772.035387 98.268 162.7027
777.629873 98.244 162.6772
783.264900 98.216 162.6660
788.940760 98.185 162.6699
794.657750 98.150 162.6895
800.416168 98.110 162.7250
806.216313 98.065 162.7768
812.058489 98.015 162.8447
817.943000 97.958 162.9285
823.870152 97.895 163.0276
829.840255 97.825 163.1413
835.853619 97.750 163.2685
841.910559 97.669 163.4082
848.011390 97.585 163.5590
854.156430 97.500 163.7193
860.346000 97.416 163.8873
866.580422 97.336 164.0611
872.860020 97.262 164.2383
879.185124 97.197 164.4165
885.556062 97.144 164.5928
891.973166 97.103 164.7641
898.436771 97.076 164.9271
904.947215 97.063 165.0781
911.504835 97.063 165.2135
918.109975 97.075 165.3298
924.762978 97.097 165.4239
931.464192 97.126 165.4939
938.213966 97.159 165.5393
945.012651 97.195 165.5618
951.860602 97.229 165.5654
958.758176 97.259 165.5563
965.705733 97.284 165.5427
972.703635 97.303 165.5340
979.752246 97.315 165.5397
986.851935 97.320 165.5685
994.003071 97.319 165.6281
1001.206027 97.314 165.7243
1008.461179 97.305 165.8620
1015.768904 97.297 166.0449
1023.129584 97.290 166.2758
1030.543603 97.287 166.5573
1038.011347 97.291 166.8912
1045.533205 97.305 167.2782
1053.109569 97.332 167.7176
1060.740836 97.374 168.2056
1068.427401 97.434 168.7346
1076.169666 97.513 169.2915
1083.968035 97.612 169.8570
1091.822915 97.731 170.4053
1099.734713 97.867 170.9055
1107.703844 98.016 171.3242
1115.730723 98.174 171.6299
1123.815768 98.334 171.7982
1131.959400 98.489 171.8161
1140.162045 98.633 171.6848
1148.424129 98.760 171.4191
1156.746083 98.866 171.0448
1165.128342 98.951 170.5938
1173.571343 99.013 170.0995
1182.075524 99.056 169.5925
1190.641331 99.081 169.0987
1199.269209 99.093 168.6376
1207.959608 99.096 168.2231
1216.712981 99.093 167.8630
1225.529785 99.088 167.5610
1234.410479 99.085 167.3170
1243.355526 99.085 167.1282
1252.365393 99.090 166.9903
1261.440549 99.102 166.8977
1270.581467 99.121 166.8445
1279.788624 99.146 166.8245
1289.062500 99.178 166.8319
1298.403578 99.216 166.8616
1307.812346 99.259 166.9088
1317.289293 99.305 166.9696
1326.834914 99.353 167.0410
1336.449707 99.403 167.1207
1346.134173 99.454 167.2070
1355.888816 99.503 167.2986
1365.714145 99.552 167.3945
1375.610673 99.599 167.4941
1385.578915 99.643 167.5966
1395.619391 99.686 167.7010
1405.732624 99.726 167.8065
1415.919142 99.764 167.9122
1426.179476 99.800 168.0169
1436.514160 99.835 168.1197
1446.923734 99.868 168.2194
1457.408740 99.899 168.3148
1467.969724 99.930 168.4048
1478.607238 99.959 168.4885
1489.321836 99.987 168.5648
1500.114076 100.013 168.6330
1510.984521 100.037 168.6922
1521.933737 100.059 168.7421
1532.962297 100.078 168.7824
1544.070773 100.094 168.8131
1555.259747 100.107 168.8345
1566.529800 100.116 168.8470
1577.881521 100.122 168.8514
1589.315501 100.125 168.8486
1600.832336 100.126 168.8393
1612.432627 100.125 168.8246
1624.116978 100.122 168.8055
1635.886000 100.118 168.7827
1647.740304 100.114 168.7568
1659.680509 100.109 168.7284
1671.707238 100.104 168.6978
1683.821118 100.098 168.6650
1696.022780 100.092 168.6303
1708.312860 100.086 168.5939
1720.692000 100.079 168.5557
1733.160843 100.072 168.5159
1745.720041 100.065 168.4745
1758.370248 100.058 168.4319
1771.112124 100.053 168.3879
1783.946332 100.049 168.3429
1796.873543 100.047 168.2969
1809.894429 100.046 168.2501
1823.009670 100.047 168.2024
1836.219950 100.049 168.1540
1849.525956 100.053 168.1048
1862.928384 100.056 168.0549
1876.427931 100.059 168.0043
1890.025301 100.060 167.9531
1903.721204 100.059 167.9012
1917.516352 100.055 167.8485
1931.411466 100.048 167.7951
1945.407270 100.037 167.7408
1959.504493 100.022 167.6857
1973.703870 100.004 167.6298
1988.006142 99.983 167.5735
2002.412054 99.958 167.5171
2016.922357 99.932 167.4613
2031.537808 99.904 167.4068
2046.259169 99.875 167.3544
2061.087206 99.846 167.3052
2076.022694 99.818 167.2599
2091.066410 99.792 167.2196
2106.219139 99.768 167.1851
2121.481671 99.747 167.1573
2136.854802 99.730 167.1370
2152.339333 99.717 167.1248
2167.936071 99.709 167.1214
2183.645829 99.706 167.1273
2199.469427 99.709 167.1428
2215.407689 99.718 167.1678
2231.461446 99.734 167.2021
2247.631536 99.758 167.2452
2263.918800 99.788 167.2964
2280.324089 99.826 167.3546
2296.848258 99.872 167.4189
2313.492167 99.924 167.4884
2330.256685 99.983 167.5623
2347.142685 100.048 167.6402
2364.151049 100.118 167.7219
2381.282662 100.192 167.8077
2398.538418 100.269 167.8981
2415.919216 100.349 167.9939
2433.425962 100.429 168.0959
2451.059570 100.510 168.2050
2468.820958 100.591 168.3219
2486.711052 100.670 168.4470
2504.730786 100.747 168.5805
2522.881098 100.822 168.7220
2541.162934 100.894 168.8711
2559.577248 100.962 169.0266
2578.125000 101.025 169.1872
2596.807157 101.084 169.3514
2615.624692 101.138 169.5176
2634.578586 101.187 169.6844
2653.669829 101.230 169.8510
2672.899414 101.266 170.0167
2692.268345 101.297 170.1819
2711.777632 101.321 170.3472
2731.428290 101.339 170.5138
2751.221345 101.350 170.6830
2771.157829 101.357 170.8558
2791.238781 101.358 171.0329
2811.465248 101.354 171.2143
2831.838284 101.346 171.3993
2852.358952 101.335 171.5864
2873.028321 101.321 171.7737
2893.847468 101.304 171.9590
2914.817480 101.285 172.1402
2935.939449 101.264 172.3153
2957.214476 101.240 172.4830
2978.643672 101.215 172.6423
3000.228152 101.188 172.7928
3021.969041 101.159 172.9344
3043.867475 101.129 173.0676
3065.924593 101.097 173.1932
3088.141547 101.064 173.3122
3110.519493 101.029 173.4261
3133.059600 100.994 173.5362
3155.763041 100.958 173.6443
3178.631001 100.922 173.7521
3201.664672 100.885 173.8612
3224.865254 100.848 173.9733
3248.233957 100.812 174.0900
3271.771999 100.776 174.2128
3295.480608 100.742 174.3433
3319.361019 100.709 174.4830
3343.414477 100.679 174.6337
3367.642236 100.652 174.7971
3392.045560 100.629 174.9753
3416.625721 100.610 175.1703
3441.383999 100.595 175.3843
3466.321686 100.586 175.6192
3491.440082 100.583 175.8769
3516.740496 100.587 176.1588
3542.224247 100.598 176.4661
3567.892664 100.616 176.7990
3593.747085 100.643 177.1577
3619.788858 100.678 177.5413
3646.019340 100.723 177.9486
3672.439900 100.777 178.3778
3699.051913 100.842 178.8267
3725.856768 100.917 179.2924
3752.855862 101.002 179.7716
3780.050603 101.100 -179.7396
3807.442408 101.209 -179.2462
3835.032705 101.331 -178.7537
3862.822933 101.465 -178.2692
3890.814540 101.611 -177.8006
3919.008986 101.771 -177.3570
3947.407741 101.942 -176.9484
3976.012284 102.124 -176.5854
4004.824108 102.316 -176.2781
4033.844715 102.518 -176.0362
4063.075616 102.726 -175.8681
4092.518337 102.940 -175.7808
4122.174412 103.158 -175.7798
4152.045387 103.378 -175.8688
4182.132820 103.598 -176.0501
4212.438278 103.819 -176.3247
4242.963342 104.037 -176.6921
4273.709604 104.252 -177.1514
4304.678665 104.464 -177.7006
4335.872141 104.672 -178.3375
4367.291658 104.874 -179.0599
4398.938854 105.071 -179.8654
4430.815378 105.262 179.2484
4462.922893 105.446 178.2838
4495.263072 105.622 177.2435
4527.837601 105.791 176.1301
4560.648179 105.950 174.9467
4593.696515 106.099 173.6965
4626.984334 106.238 172.3832
4660.513370 106.364 171.0111
4694.285371 106.478 169.5847
4728.302098 106.577 168.1096
4762.565324 106.661 166.5920
4797.076835 106.728 165.0394
4831.838432 106.778 163.4600
4866.851925 106.810 161.8635
4902.119140 106.822 160.2604
4937.641916 106.815 158.6622
4973.422105 106.788 157.0812
5009.461572 106.741 155.5300
5045.762195 106.673 154.0217
5082.325868 106.586 152.5695
5119.154496 106.479 151.1866
5156.250000 106.354 149.8863
5193.614313 106.211 148.6814
5231.249383 106.051 147.5847
5269.157173 105.875 146.6084
5307.339658 105.684 145.7637
5345.798829 105.481 145.0611
5384.536691 105.268 144.5094
5423.555263 105.045 144.1154
5462.856580 104.817 143.8830
5502.442691 104.587 143.8130
5542.315659 104.358 143.9017
5582.477563 104.134 144.1406
5622.930497 103.919 144.5159
5663.676569 103.718 145.0081
5704.717904 103.536 145.5920
5746.056642 103.376 146.2376
5787.694937 103.242 146.9108
5829.634960 103.137 147.5749
5871.878898 103.061 148.1921
5914.428953 103.015 148.7254
5957.287343 102.998 149.1405
6000.456303 103.007 149.4072
6043.938083 103.037 149.5005
6087.734950 103.083 149.4017
6131.849187 103.140 149.0985
6176.283094 103.201 148.5853
6221.038987 103.261 147.8628
6266.119200 103.312 146.9374
6311.526083 103.349 145.8209
6357.262002 103.367 144.5294
6403.329344 103.363 143.0827
6449.730508 103.331 141.5032
6496.467914 103.270 139.8155
6543.543998 103.178 138.0452
6590.961215 103.054 136.2184
6638.722037 102.896 134.3611
6686.828954 102.706 132.4991
6735.284473 102.483 130.6569
6784.091120 102.230 128.8588
6833.251441 101.947 127.1279
6882.767998 101.636 125.4871
6932.643372 101.299 123.9587
6982.880164 100.938 122.5649
7033.480992 100.556 121.3279
7084.448495 100.155 120.2694
7135.785329 99.738 119.4108
7187.494171 99.309 118.7716
7239.577717 98.872 118.3687
7292.038681 98.431 118.2141
7344.879799 97.994 118.3122
7398.103826 97.567 118.6570
7451.713536 97.159 119.2275
7505.711724 96.780 119.9846
7560.101205 96.440 120.8679
7614.884815 96.151 121.7951
7670.065409 95.922 122.6643
7725.645865 95.762 123.3595
7781.629080 95.676 123.7592
7838.017972 95.663 123.7454
7894.815481 95.719 123.2116
7952.024569 95.835 122.0665
8009.648217 95.996 120.2343
8067.689429 96.188 117.6505
8126.151233 96.394 114.2545
8185.036674 96.599 109.9776
8244.348824 96.786 104.7261
8304.090774 96.944 98.3524
8364.265639 97.062 90.6027
8424.876556 97.133 81.0131
8485.926684 97.154 68.7097
8547.419207 97.128 52.0851
8609.357330 97.060 28.8375
8671.744282 96.960 -1.0946
8734.583316 96.838 -30.6780
8797.877707 96.706 -53.3168
8861.630756 96.574 -69.4600
8925.845785 96.447 -81.4602
8990.526143 96.330 -90.9343
9055.675202 96.222 -98.7866
9121.296357 96.121 -105.5212
9187.393031 96.024 -111.4305
9253.968668 95.924 -116.6914
9321.026740 95.817 -121.4156
9388.570742 95.698 -125.6757
9456.604196 95.565 -129.5192
9525.130648 95.413 -132.9779
9594.153671 95.243 -136.0733
9663.676863 95.054 -138.8204
9733.703850 94.847 -141.2314
9804.238280 94.625 -143.3189
9875.283832 94.392 -145.0983
9946.844210 94.152 -146.5900
10018.923143 93.909 -147.8205
10091.524390 93.667 -148.8224
10164.651736 93.429 -149.6323
10238.308993 93.198 -150.2881
10312.500000 92.973 -150.8259
10387.228626 92.755 -151.2769
10462.498767 92.543 -151.6652
10538.314345 92.333 -152.0070
10614.679315 92.123 -152.3109
10691.597657 91.910 -152.5789
10769.073381 91.693 -152.8077
10847.110526 91.470 -152.9904
10925.713161 91.238 -153.1173
11004.885382 90.998 -153.1780
11084.631318 90.749 -153.1630
11164.955126 90.493 -153.0657
11245.860993 90.233 -152.8851
11327.353138 89.971 -152.6287
11409.435808 89.711 -152.3142
11492.113283 89.458 -151.9711
11575.389873 89.215 -151.6399
11659.269920 88.985 -151.3693
11743.757796 88.768 -151.2115
11828.857906 88.565 -151.2168
11914.574686 88.371 -151.4272
12000.912606 88.180 -151.8724
12087.876166 87.986 -152.5668
12175.469900 87.778 -153.5074
12263.698373 87.550 -154.6750
12352.566187 87.290 -156.0345
12442.077974 86.992 -157.5359
12532.238400 86.648 -159.1145
12623.052165 86.253 -160.6887
12714.524005 85.803 -162.1560
12806.658687 85.297 -163.3849
12899.461015 84.736 -164.1996
12992.935827 84.127 -164.3540
13087.087996 83.480 -163.4858
13181.922430 82.815 -161.0391
13277.444074 82.160 -156.1523
13373.657907 81.554 -147.6108
13470.568945 81.044 -134.3608
13568.182241 80.680 -117.4361
13666.502883 80.501 -101.1166
13765.535996 80.519 -89.0498
13865.286744 80.719 -81.5291
13965.760328 81.063 -77.3716
14066.961984 81.504 -75.4775
14168.896989 81.999 -75.1183
14271.570658 82.511 -75.8463
14374.988342 83.015 -77.3864
14479.155433 83.494 -79.5638
14584.077362 83.933 -82.2621
14689.759598 84.326 -85.3976
14796.207652 84.666 -88.9060
14903.427072 84.951 -92.7345
15011.423448 85.180 -96.8387
15120.202410 85.354 -101.1812
15229.769630 85.473 -105.7317
15340.130819 85.540 -110.4677
15451.291730 85.556 -115.3728
15563.258160 85.522 -120.4359
15676.035944 85.438 -125.6476
15789.630962 85.302 -130.9963
15904.049137 85.110 -136.4653
16019.296433 84.859 -142.0298
16135.378859 84.544 -147.6558
16252.302465 84.163 -153.3002
16370.073348 83.713 -158.9122
16488.697648 83.192 -164.4340
16608.181548 82.600 -169.8012
16728.531278 81.937 -174.9423
16849.753112 81.206 -179.7773
16971.853368 80.407 175.7828
17094.838414 79.545 171.8361
17218.714660 78.622 168.4862
17343.488565 77.643 165.8346
17469.166632 76.614 163.9662
17595.755415 75.539 162.9291
17723.261512 74.426 162.7131
17851.691571 73.282 163.2398
17981.052287 72.116 164.3737
18111.350404 70.935 165.9598
18242.592715 69.752 167.8701
18374.786062 68.580 170.0332
18507.937336 67.439 172.4279
18642.053479 66.356 175.0399
18777.141484 65.367 177.7981
18913.208391 64.512 -179.4722
19050.261296 63.831 -177.0369
19188.307342 63.344 -175.1692
19327.353727 63.048 -174.0376
19467.407699 62.909 -173.6399
19608.476560 62.877 -173.8137
19750.567664 62.902 -174.2999
19893.688419 62.942 -174.8197
20037.846286 62.968 -175.1441
