* Measurement data measured by REW V5.31.3
* Source: EXCL: Headset (USB-C to 3.5mm Headphone Jack Adapter), MICROPHONE (Master Volume), 0, volume: 0.750
* Format: 256k Log Swept Sine, 1 sweep at -12.0 dBFS with no timing reference
* Dated: Apr 1, 2025 10:57:37 PM
* REW Settings:
*  C-weighting compensation: Off
*  Target level: 75.0 dB
* Note: ; 
* Measurement: Ouro (golem) R10
* Smoothing: 1/6 octave
* Frequency Step: 96 ppo
* Start Frequency: 20.0 Hz
*
* Freq(Hz) SPL(dB) Phase(degrees)
20.187378 92.155 -178.1466
20.333664 92.165 -178.1913
20.481010 92.181 -178.2414
20.629424 92.205 -178.2844
20.778913 92.238 -178.3096
20.929486 92.283 -178.3111
21.081150 92.341 -178.2888
21.233912 92.411 -178.2487
21.387782 92.491 -178.2016
21.542767 92.580 -178.1618
21.698874 92.673 -178.1437
21.856113 92.767 -178.1606
22.014492 92.856 -178.2221
22.174018 92.937 -178.3336
22.334700 93.007 -178.4954
22.496546 93.061 -178.7037
22.659566 93.098 -178.9510
22.823766 93.117 -179.2277
22.989157 93.118 -179.5231
23.155745 93.102 -179.8267
23.323542 93.071 179.8701
23.492554 93.027 179.5742
23.662790 92.972 179.2894
23.834261 92.910 179.0171
24.006973 92.844 178.7564
24.180938 92.775 178.5051
24.356163 92.705 178.2598
24.532658 92.638 178.0177
24.710431 92.572 177.7761
24.889493 92.510 177.5330
25.069853 92.452 177.2873
25.251519 92.397 177.0375
25.434502 92.347 176.7823
25.618811 92.300 176.5193
25.804456 92.257 176.2457
25.991445 92.218 175.9579
26.179790 92.181 175.6528
26.369500 92.145 175.3281
26.560584 92.109 174.9832
26.753053 92.071 174.6198
26.946917 92.032 174.2421
27.142185 91.989 173.8565
27.338869 91.941 173.4710
27.536977 91.889 173.0943
27.736522 91.833 172.7343
27.937512 91.773 172.3975
28.139959 91.709 172.0883
28.343872 91.643 171.8083
28.549264 91.575 171.5570
28.756143 91.506 171.3319
28.964522 91.435 171.1296
29.174411 91.365 170.9466
29.385821 91.294 170.7797
29.598763 91.224 170.6266
29.813248 91.156 170.4860
30.029287 91.089 170.3574
30.246891 91.025 170.2410
30.466073 90.966 170.1375
30.686842 90.911 170.0481
30.909212 90.861 169.9749
31.133193 90.818 169.9204
31.358797 90.780 169.8875
31.586035 90.749 169.8789
31.814921 90.724 169.8965
32.045465 90.705 169.9400
32.277680 90.692 170.0067
32.511577 90.684 170.0903
32.747169 90.682 170.1821
32.984469 90.685 170.2720
33.223488 90.691 170.3499
33.464239 90.699 170.4081
33.706735 90.707 170.4434
33.950987 90.715 170.4569
34.197010 90.720 170.4551
34.444816 90.724 170.4482
34.694417 90.726 170.4481
34.945827 90.725 170.4670
35.199059 90.724 170.5146
35.454126 90.723 170.5976
35.711041 90.721 170.7187
35.969818 90.720 170.8770
36.230470 90.718 171.0695
36.493011 90.715 171.2916
36.757455 90.710 171.5385
37.023814 90.704 171.8056
37.292104 90.695 172.0889
37.562338 90.685 172.3843
37.834530 90.674 172.6880
38.108695 90.664 172.9957
38.384846 90.657 173.3029
38.662999 90.653 173.6053
38.943167 90.653 173.8990
39.225365 90.659 174.1811
39.509608 90.669 174.4500
39.795911 90.684 174.7055
40.084289 90.701 174.9488
40.374756 90.720 175.1824
40.667328 90.739 175.4097
40.962020 90.757 175.6353
41.258848 90.773 175.8641
41.557827 90.786 176.1016
41.858972 90.797 176.3531
42.162299 90.806 176.6228
42.467824 90.813 176.9141
42.775564 90.821 177.2277
43.085533 90.831 177.5623
43.397749 90.842 177.9141
43.712227 90.858 178.2770
44.028983 90.877 178.6436
44.348036 90.900 179.0057
44.669400 90.928 179.3552
44.993093 90.958 179.6854
45.319131 90.992 179.9913
45.647532 91.028 -179.7297
45.978313 91.066 -179.4777
46.311491 91.105 -179.2509
46.647083 91.147 -179.0461
46.985107 91.190 -178.8596
47.325581 91.234 -178.6881
47.668521 91.280 -178.5289
48.013947 91.325 -178.3799
48.361876 91.371 -178.2399
48.712326 91.416 -178.1073
49.065315 91.460 -177.9811
49.420863 91.502 -177.8600
49.778987 91.544 -177.7431
50.139706 91.585 -177.6304
50.503039 91.627 -177.5222
50.869005 91.670 -177.4195
51.237623 91.715 -177.3237
51.608912 91.761 -177.2369
51.982891 91.810 -177.1613
52.359580 91.860 -177.0999
52.739000 91.913 -177.0560
53.121168 91.966 -177.0327
53.506106 92.020 -177.0327
53.893833 92.074 -177.0575
54.284370 92.127 -177.1077
54.677737 92.180 -177.1830
55.073955 92.233 -177.2827
55.473043 92.284 -177.4062
55.875024 92.334 -177.5532
56.279917 92.383 -177.7236
56.687745 92.431 -177.9182
57.098527 92.478 -178.1375
57.512287 92.523 -178.3822
57.929045 92.568 -178.6520
58.348822 92.612 -178.9450
58.771642 92.656 -179.2576
59.197525 92.702 -179.5848
59.626495 92.750 -179.9219
60.058573 92.801 179.7353
60.493782 92.856 179.3896
60.932145 92.915 179.0424
61.373685 92.976 178.6947
61.818424 93.040 178.3470
62.266386 93.104 177.9995
62.717593 93.169 177.6519
63.172071 93.232 177.3036
63.629842 93.294 176.9542
64.090930 93.354 176.6033
64.555359 93.412 176.2509
65.023154 93.468 175.8972
65.494339 93.521 175.5417
65.968938 93.573 175.1843
66.446976 93.623 174.8243
66.928478 93.672 174.4616
67.413469 93.718 174.0962
67.901975 93.762 173.7289
68.394021 93.804 173.3611
68.889632 93.844 172.9945
69.388835 93.881 172.6311
69.891655 93.914 172.2724
70.398118 93.945 171.9194
70.908252 93.972 171.5725
71.422083 93.996 171.2313
71.939636 94.017 170.8951
72.460941 94.035 170.5628
72.986023 94.051 170.2333
73.514909 94.064 169.9052
74.047629 94.074 169.5770
74.584208 94.082 169.2474
75.124676 94.088 168.9152
75.669061 94.092 168.5795
76.217390 94.093 168.2395
76.769692 94.092 167.8947
77.325997 94.090 167.5450
77.886333 94.085 167.1909
78.450730 94.078 166.8331
79.019216 94.070 166.4727
79.591822 94.060 166.1102
80.168577 94.048 165.7461
80.749512 94.035 165.3806
81.334656 94.021 165.0139
81.924040 94.006 164.6468
82.517696 93.990 164.2803
83.115653 93.973 163.9155
83.717943 93.956 163.5531
84.324598 93.938 163.1933
84.935649 93.919 162.8358
85.551128 93.900 162.4796
86.171066 93.881 162.1242
86.795497 93.861 161.7687
87.424453 93.840 161.4127
88.057967 93.819 161.0557
88.696071 93.798 160.6975
89.338800 93.775 160.3380
89.986185 93.753 159.9771
90.638262 93.729 159.6148
91.295065 93.704 159.2514
91.956626 93.678 158.8867
92.622982 93.652 158.5203
93.294166 93.624 158.1523
93.970214 93.595 157.7827
94.651161 93.565 157.4117
95.337042 93.534 157.0402
96.027894 93.503 156.6685
96.723752 93.472 156.2968
97.424652 93.440 155.9249
98.130631 93.408 155.5526
98.841726 93.376 155.1795
99.557974 93.343 154.8055
100.279412 93.310 154.4308
101.006078 93.276 154.0554
101.738010 93.243 153.6799
102.475245 93.209 153.3047
103.217823 93.175 152.9305
103.965782 93.140 152.5578
104.719161 93.106 152.1870
105.477999 93.071 151.8185
106.242336 93.035 151.4529
107.012212 92.999 151.0902
107.787666 92.963 150.7310
108.568740 92.926 150.3755
109.355474 92.889 150.0243
110.147909 92.851 149.6777
110.946086 92.813 149.3362
111.750047 92.775 149.0002
112.559834 92.737 148.6696
113.375489 92.697 148.3443
114.197055 92.658 148.0241
115.024574 92.617 147.7088
115.858089 92.576 147.3982
116.697645 92.534 147.0925
117.543284 92.490 146.7917
118.395051 92.446 146.4964
119.252990 92.401 146.2068
120.117147 92.354 145.9233
120.987565 92.306 145.6458
121.864291 92.257 145.3740
122.747370 92.207 145.1073
123.636848 92.156 144.8459
124.532771 92.104 144.5899
125.435187 92.050 144.3401
126.344142 91.995 144.0976
127.259684 91.939 143.8636
128.181860 91.882 143.6394
129.110718 91.824 143.4261
130.046308 91.764 143.2244
130.988677 91.702 143.0350
131.937875 91.639 142.8581
132.893951 91.575 142.6940
133.856956 91.508 142.5428
134.826938 91.440 142.4048
135.803950 91.370 142.2798
136.788041 91.297 142.1677
137.779264 91.223 142.0680
138.777669 91.146 141.9800
139.783309 91.068 141.9031
140.796237 90.989 141.8366
141.816504 90.908 141.7799
142.844165 90.826 141.7327
143.879273 90.744 141.6947
144.921881 90.662 141.6659
145.972045 90.579 141.6461
147.029819 90.496 141.6352
148.095257 90.414 141.6328
149.168417 90.332 141.6382
150.249353 90.251 141.6508
151.338121 90.171 141.6699
152.434780 90.091 141.6948
153.539385 90.011 141.7255
154.651995 89.932 141.7621
155.772667 89.853 141.8048
156.901460 89.774 141.8544
158.038432 89.696 141.9116
159.183644 89.618 141.9773
160.337154 89.539 142.0522
161.499023 89.462 142.1374
162.669312 89.384 142.2333
163.848081 89.307 142.3407
165.035392 89.231 142.4599
166.231306 89.155 142.5912
167.435887 89.079 142.7348
168.649196 89.005 142.8902
169.871298 88.932 143.0569
171.102255 88.860 143.2341
172.342133 88.789 143.4210
173.590995 88.719 143.6167
174.848907 88.650 143.8207
176.115934 88.582 144.0324
177.392143 88.515 144.2516
178.677599 88.449 144.4781
179.972371 88.383 144.7117
181.276525 88.319 144.9526
182.590129 88.255 145.2010
183.913252 88.192 145.4572
185.245964 88.130 145.7215
186.588332 88.070 145.9944
187.940428 88.011 146.2759
189.302322 87.952 146.5660
190.674085 87.896 146.8643
192.055788 87.840 147.1696
193.447503 87.786 147.4810
194.849303 87.733 147.7971
196.261262 87.682 148.1168
197.683452 87.632 148.4391
199.115948 87.584 148.7631
200.558824 87.538 149.0879
202.012156 87.495 149.4123
203.476019 87.453 149.7352
204.950490 87.413 150.0553
206.435646 87.375 150.3718
207.931564 87.339 150.6843
209.438322 87.305 150.9931
210.955998 87.272 151.2988
212.484672 87.242 151.6023
214.024424 87.214 151.9041
215.575333 87.187 152.2047
217.137481 87.162 152.5039
218.710948 87.140 152.8014
220.295818 87.119 153.0967
221.892172 87.100 153.3892
223.500094 87.083 153.6786
225.119668 87.069 153.9648
226.750978 87.057 154.2477
228.394109 87.047 154.5274
230.049147 87.039 154.8039
231.716178 87.034 155.0773
233.395289 87.030 155.3475
235.086567 87.029 155.6145
236.790102 87.029 155.8783
238.505980 87.032 156.1387
240.234293 87.035 156.3960
241.975130 87.040 156.6502
243.728581 87.047 156.9017
245.494739 87.054 157.1509
247.273695 87.063 157.3981
249.065542 87.073 157.6437
250.870374 87.085 157.8876
252.688284 87.097 158.1298
254.519367 87.110 158.3701
256.363720 87.124 158.6083
258.221437 87.139 158.8444
260.092616 87.155 159.0781
261.977354 87.172 159.3094
263.875750 87.190 159.5383
265.787903 87.208 159.7648
267.713911 87.227 159.9885
269.653877 87.248 160.2091
271.607900 87.269 160.4263
273.576083 87.292 160.6395
275.558528 87.316 160.8482
277.555338 87.341 161.0518
279.566619 87.368 161.2493
281.592474 87.396 161.4397
283.633009 87.426 161.6218
285.688331 87.458 161.7940
287.758546 87.490 161.9548
289.843763 87.525 162.1029
291.944090 87.560 162.2370
294.059638 87.596 162.3561
296.190515 87.634 162.4597
298.336833 87.672 162.5472
300.498705 87.710 162.6187
302.676243 87.749 162.6743
304.869559 87.788 162.7143
307.078770 87.827 162.7393
309.303989 87.866 162.7500
311.545334 87.905 162.7473
313.802919 87.943 162.7319
316.076865 87.980 162.7047
318.367288 88.016 162.6669
320.674309 88.051 162.6193
322.998047 88.084 162.5630
325.338624 88.116 162.4990
327.696162 88.146 162.4284
330.070783 88.173 162.3522
332.462612 88.198 162.2715
334.871773 88.221 162.1871
337.298392 88.241 162.1001
339.742595 88.258 162.0113
342.204510 88.272 161.9216
344.684265 88.283 161.8318
347.181989 88.292 161.7427
349.697813 88.297 161.6547
352.231868 88.300 161.5683
354.784285 88.301 161.4839
357.355198 88.299 161.4018
359.944741 88.295 161.3224
362.553049 88.289 161.2462
365.180258 88.281 161.1735
367.826505 88.272 161.1046
370.491927 88.262 161.0401
373.176665 88.250 160.9802
375.880856 88.237 160.9250
378.604644 88.223 160.8750
381.348169 88.208 160.8302
384.111575 88.193 160.7907
386.895006 88.176 160.7565
389.698607 88.159 160.7276
392.522524 88.141 160.7041
395.366904 88.123 160.6860
398.231895 88.104 160.6731
401.117648 88.085 160.6652
404.024312 88.066 160.6619
406.952038 88.045 160.6629
409.900981 88.024 160.6676
412.871292 88.003 160.6757
415.863128 87.981 160.6865
418.876643 87.957 160.6999
421.911996 87.933 160.7156
424.969344 87.907 160.7333
428.048847 87.880 160.7532
431.150666 87.852 160.7749
434.274961 87.823 160.7983
437.421897 87.792 160.8230
440.591636 87.761 160.8486
443.784345 87.729 160.8744
447.000189 87.696 160.8997
450.239337 87.662 160.9237
453.501956 87.628 160.9456
456.788219 87.594 160.9649
460.098294 87.559 160.9810
463.432356 87.525 160.9938
466.790578 87.491 161.0031
470.173135 87.457 161.0089
473.580203 87.424 161.0112
477.011961 87.391 161.0101
480.468586 87.359 161.0058
483.950259 87.328 160.9984
487.457163 87.297 160.9879
490.989478 87.267 160.9746
494.547390 87.237 160.9585
498.131084 87.208 160.9397
501.740748 87.179 160.9182
505.376568 87.151 160.8940
509.038735 87.123 160.8671
512.727439 87.095 160.8378
516.442874 87.068 160.8062
520.185232 87.042 160.7729
523.954708 87.015 160.7386
527.751500 86.989 160.7044
531.575805 86.964 160.6714
535.427822 86.939 160.6408
539.307753 86.915 160.6142
543.215800 86.891 160.5928
547.152165 86.868 160.5777
551.117055 86.845 160.5701
555.110677 86.823 160.5709
559.133237 86.801 160.5809
563.184947 86.780 160.6010
567.266018 86.759 160.6321
571.376661 86.739 160.6748
575.517092 86.719 160.7300
579.687526 86.699 160.7984
583.888181 86.679 160.8805
588.119275 86.659 160.9768
592.381030 86.640 161.0876
596.673667 86.620 161.2132
600.997410 86.600 161.3537
605.352485 86.580 161.5090
609.739119 86.560 161.6791
614.157540 86.539 161.8637
618.607979 86.519 162.0624
623.090667 86.499 162.2746
627.605839 86.479 162.4995
632.153730 86.459 162.7362
636.734576 86.440 162.9838
641.348617 86.421 163.2412
645.996094 86.402 163.5071
650.677248 86.384 163.7805
655.392323 86.367 164.0602
660.141566 86.350 164.3452
664.925224 86.335 164.6344
669.743546 86.320 164.9268
674.596784 86.306 165.2213
679.485191 86.292 165.5168
684.409020 86.280 165.8126
689.368530 86.268 166.1075
694.363979 86.257 166.4011
699.395626 86.246 166.6927
704.463736 86.236 166.9820
709.568570 86.227 167.2690
714.710396 86.218 167.5536
719.889483 86.209 167.8359
725.106099 86.201 168.1158
730.360516 86.193 168.3931
735.653010 86.186 168.6678
740.983855 86.179 168.9397
746.353329 86.172 169.2086
751.761713 86.166 169.4742
757.209288 86.160 169.7365
762.696339 86.156 169.9953
768.223151 86.151 170.2503
773.790013 86.148 170.5012
779.397214 86.147 170.7473
785.045047 86.147 170.9874
790.733808 86.149 171.2199
796.463791 86.153 171.4424
802.235296 86.160 171.6516
808.048623 86.169 171.8439
813.904077 86.182 172.0146
819.801961 86.198 172.1589
825.742584 86.217 172.2715
831.726255 86.238 172.3475
837.753287 86.261 172.3828
843.823992 86.284 172.3746
849.938689 86.307 172.3224
856.097695 86.328 172.2281
862.301332 86.345 172.0965
868.549922 86.357 171.9352
874.843793 86.364 171.7541
881.183272 86.366 171.5638
887.568689 86.361 171.3753
894.000378 86.351 171.1980
900.478673 86.337 171.0394
907.003913 86.320 170.9043
913.576437 86.301 170.7949
920.196588 86.281 170.7111
926.864712 86.262 170.6510
933.581156 86.245 170.6114
940.346270 86.230 170.5883
947.160407 86.217 170.5775
954.023921 86.208 170.5749
960.937172 86.201 170.5770
967.900519 86.198 170.5806
974.914325 86.197 170.5836
981.978956 86.199 170.5846
989.094780 86.204 170.5828
996.262169 86.210 170.5784
1003.481495 86.218 170.5720
1010.753136 86.227 170.5647
1018.077470 86.237 170.5582
1025.454879 86.247 170.5542
1032.885748 86.258 170.5547
1040.370463 86.270 170.5620
1047.909417 86.281 170.5781
1055.503000 86.293 170.6056
1063.151610 86.304 170.6469
1070.855645 86.316 170.7044
1078.615506 86.328 170.7811
1086.431599 86.340 170.8799
1094.304330 86.352 171.0041
1102.234110 86.365 171.1572
1110.221353 86.380 171.3426
1118.266475 86.397 171.5635
1126.369895 86.418 171.8226
1134.532035 86.443 172.1213
1142.753322 86.475 172.4592
1151.034184 86.514 172.8331
1159.375052 86.564 173.2360
1167.776361 86.624 173.6564
1176.238550 86.698 174.0778
1184.762060 86.783 174.4788
1193.347334 86.882 174.8347
1201.994821 86.990 175.1196
1210.704971 87.106 175.3104
1219.478238 87.225 175.3901
1228.315080 87.342 175.3517
1237.215957 87.453 175.1998
1246.181334 87.554 174.9498
1255.211678 87.643 174.6252
1264.307459 87.716 174.2537
1273.469152 87.776 173.8626
1282.697235 87.823 173.4767
1291.992188 87.858 173.1156
1301.354495 87.885 172.7933
1310.784647 87.905 172.5186
1320.283132 87.921 172.2957
1329.850448 87.935 172.1246
1339.487093 87.949 172.0028
1349.193569 87.963 171.9257
1358.970381 87.980 171.8875
1368.818041 88.000 171.8818
1378.737061 88.024 171.9021
1388.727958 88.052 171.9420
1398.791253 88.085 171.9957
1408.927471 88.123 172.0579
1419.137140 88.165 172.1241
1429.420793 88.213 172.1904
1439.778965 88.264 172.2534
1450.212197 88.320 172.3103
1460.721033 88.380 172.3591
1471.306019 88.443 172.3980
1481.967709 88.509 172.4259
1492.706658 88.577 172.4421
1503.523426 88.647 172.4461
1514.418576 88.717 172.4379
1525.392678 88.787 172.4176
1536.446302 88.857 172.3855
1547.580025 88.925 172.3421
1558.794428 88.992 172.2878
1570.090095 89.056 172.2231
1581.467615 89.117 172.1484
1592.927581 89.175 172.0641
1604.470591 89.229 171.9706
1616.097246 89.279 171.8682
1627.808153 89.325 171.7574
1639.603922 89.367 171.6386
1651.485168 89.404 171.5125
1663.452510 89.437 171.3794
1675.506573 89.465 171.2401
1687.647984 89.489 171.0950
1699.877377 89.510 170.9449
1712.195390 89.526 170.7904
1724.602663 89.538 170.6320
1737.099845 89.547 170.4706
1749.687587 89.552 170.3066
1762.366544 89.553 170.1407
1775.137379 89.552 169.9735
1788.000756 89.547 169.8055
1800.957346 89.538 169.6375
1814.007826 89.526 169.4697
1827.152874 89.511 169.3029
1840.393177 89.493 169.1375
1853.729425 89.470 168.9742
1867.162312 89.444 168.8138
1880.692540 89.414 168.6567
1894.320813 89.380 168.5039
1908.047843 89.342 168.3560
1921.874344 89.299 168.2137
1935.801038 89.252 168.0781
1949.828650 89.201 167.9496
1963.957912 89.146 167.8292
1978.189561 89.086 167.7173
1992.524338 89.023 167.6144
2006.962991 88.955 167.5210
2021.506272 88.885 167.4372
2036.154940 88.810 167.3630
2050.909758 88.733 167.2982
2065.771495 88.654 167.2426
2080.740927 88.572 167.1959
2095.818833 88.487 167.1577
2111.006001 88.401 167.1279
2126.303220 88.314 167.1063
2141.711290 88.225 167.0933
2157.231013 88.135 167.0891
2172.863198 88.045 167.0940
2188.608660 87.954 167.1083
2204.468221 87.863 167.1320
2220.442706 87.772 167.1649
2236.532950 87.682 167.2068
2252.739789 87.592 167.2571
2269.064070 87.503 167.3153
2285.506644 87.415 167.3813
2302.068367 87.328 167.4548
2318.750104 87.242 167.5363
2335.552723 87.157 167.6265
2352.477101 87.073 167.7266
2369.524119 86.990 167.8381
2386.694668 86.908 167.9626
2403.989641 86.828 168.1023
2421.409941 86.749 168.2587
2438.956476 86.672 168.4335
2456.630160 86.598 168.6281
2474.431915 86.527 168.8433
2492.362668 86.459 169.0792
2510.423356 86.396 169.3356
2528.614918 86.338 169.6115
2546.938304 86.285 169.9054
2565.394469 86.238 170.2154
2583.984375 86.198 170.5392
2602.708991 86.163 170.8745
2621.569293 86.135 171.2188
2640.566265 86.114 171.5702
2659.700897 86.099 171.9266
2678.974186 86.090 172.2865
2698.387137 86.087 172.6484
2717.940763 86.090 173.0109
2737.636082 86.098 173.3727
2757.474121 86.112 173.7327
2777.455915 86.131 174.0894
2797.582506 86.154 174.4415
2817.854942 86.181 174.7876
2838.274281 86.212 175.1264
2858.841586 86.245 175.4565
2879.557931 86.281 175.7772
2900.424394 86.317 176.0877
2921.442065 86.354 176.3880
2942.612039 86.391 176.6783
2963.935418 86.427 176.9595
2985.413316 86.460 177.2329
3007.046852 86.491 177.5002
3028.837153 86.519 177.7633
3050.785356 86.542 178.0247
3072.892604 86.561 178.2865
3095.160050 86.576 178.5514
3117.588856 86.584 178.8220
3140.180190 86.587 179.1008
3162.935230 86.583 179.3907
3185.855163 86.574 179.6943
3208.941182 86.557 -179.9857
3232.194493 86.535 -179.6467
3255.616307 86.505 -179.2858
3279.207844 86.470 -178.9007
3302.970336 86.429 -178.4888
3326.905021 86.382 -178.0475
3351.013146 86.330 -177.5745
3375.295969 86.274 -177.0674
3399.754755 86.215 -176.5242
3424.390779 86.153 -175.9431
3449.205326 86.090 -175.3230
3474.199690 86.026 -174.6636
3499.375173 85.965 -173.9659
3524.733088 85.906 -173.2324
3550.274757 85.853 -172.4674
3576.001511 85.806 -171.6771
3601.914692 85.768 -170.8693
3628.015651 85.740 -170.0535
3654.305748 85.723 -169.2398
3680.786354 85.717 -168.4389
3707.458849 85.724 -167.6609
3734.324624 85.744 -166.9151
3761.385080 85.776 -166.2096
3788.641627 85.819 -165.5507
3816.095686 85.873 -164.9432
3843.748688 85.938 -164.3901
3871.602076 86.011 -163.8928
3899.657300 86.091 -163.4514
3927.915825 86.178 -163.0647
3956.379122 86.269 -162.7305
3985.048676 86.365 -162.4460
4013.925981 86.463 -162.2077
4043.012544 86.562 -162.0117
4072.309879 86.661 -161.8535
4101.819515 86.760 -161.7280
4131.542990 86.856 -161.6295
4161.481854 86.949 -161.5510
4191.637667 87.038 -161.4849
4222.012001 87.123 -161.4220
4252.606441 87.202 -161.3526
4283.422580 87.276 -161.2664
4314.462026 87.345 -161.1534
4345.726396 87.411 -161.0047
4377.217321 87.473 -160.8133
4408.936442 87.535 -160.5752
4440.885413 87.598 -160.2898
4473.065899 87.664 -159.9609
4505.479579 87.735 -159.5963
4538.128141 87.813 -159.2082
4571.013288 87.900 -158.8122
4604.136735 87.997 -158.4266
4637.500207 88.104 -158.0710
4671.105446 88.221 -157.7655
4704.954201 88.347 -157.5292
4739.048239 88.482 -157.3790
4773.389336 88.624 -157.3290
4807.979283 88.770 -157.3900
4842.819883 88.918 -157.5689
4877.912952 89.067 -157.8686
4913.260320 89.212 -158.2883
4948.863830 89.353 -158.8235
4984.725337 89.486 -159.4661
5020.846712 89.610 -160.2053
5057.229836 89.722 -161.0274
5093.876609 89.822 -161.9167
5130.788938 89.907 -162.8559
5167.968750 89.979 -163.8266
5205.417982 90.035 -164.8098
5243.138586 90.078 -165.7865
5281.132530 90.108 -166.7384
5319.401793 90.126 -167.6481
5357.948371 90.135 -168.5001
5396.774274 90.137 -169.2814
5435.881525 90.135 -169.9819
5475.272163 90.132 -170.5953
5514.948243 90.132 -171.1192
5554.911831 90.138 -171.5560
5595.165012 90.152 -171.9128
5635.709884 90.178 -172.2007
5676.548561 90.218 -172.4353
5717.683172 90.273 -172.6350
5759.115861 90.344 -172.8207
5800.848789 90.430 -173.0141
5842.884130 90.530 -173.2367
5885.224077 90.643 -173.5087
5927.870837 90.766 -173.8480
5970.826633 90.896 -174.2692
6014.093704 91.032 -174.7836
6057.674306 91.169 -175.3987
6101.570711 91.304 -176.1186
6145.785208 91.436 -176.9443
6190.320101 91.562 -177.8743
6235.177712 91.680 -178.9050
6280.360380 91.787 179.9684
6325.870460 91.883 178.7516
6371.710325 91.967 177.4503
6417.882365 92.038 176.0699
6464.388986 92.094 174.6157
6511.232613 92.136 173.0918
6558.415689 92.163 171.5021
6605.940673 92.174 169.8499
6653.810042 92.170 168.1383
6702.026292 92.149 166.3704
6750.591937 92.111 164.5497
6799.509509 92.055 162.6803
6848.781558 91.981 160.7669
6898.410653 91.888 158.8152
6948.399380 91.775 156.8316
6998.750346 91.643 154.8229
7049.466176 91.490 152.7964
7100.549514 91.318 150.7595
7152.003023 91.126 148.7187
7203.829385 90.915 146.6802
7256.031302 90.686 144.6489
7308.611496 90.439 142.6278
7361.572708 90.176 140.6180
7414.917698 89.899 138.6177
7468.649249 89.610 136.6221
7522.770160 89.310 134.6222
7577.283253 89.002 132.6050
7632.191371 88.688 130.5528
7687.497376 88.371 128.4434
7743.204151 88.051 126.2504
7799.314600 87.731 123.9436
7855.831649 87.411 121.4908
7912.758244 87.091 118.8583
7970.097352 86.768 116.0129
8027.851962 86.440 112.9231
8086.025087 86.102 109.5598
8144.619758 85.749 105.8969
8203.639030 85.376 101.9102
8263.085980 84.976 97.5747
8322.963708 84.545 92.8600
8383.275334 84.077 87.7208
8444.024002 83.573 82.0838
8505.212881 83.033 75.8260
8566.845160 82.462 68.7415
8628.924051 81.871 60.4892
8691.452792 81.275 50.5201
8754.434642 80.695 38.0069
8817.872884 80.159 21.9547
8881.770826 79.699 1.9952
8946.131799 79.345 -20.0420
9010.959157 79.122 -40.4718
9076.256282 79.041 -57.0386
9142.026576 79.096 -69.8820
9208.273470 79.266 -80.0114
9275.000415 79.521 -88.3428
9342.210891 79.826 -95.5161
9409.908403 80.151 -101.9493
9478.096478 80.468 -107.9116
9546.778672 80.755 -113.5725
9615.958566 80.995 -119.0339
9685.639765 81.173 -124.3489
9755.825904 81.282 -129.5351
9826.520640 81.315 -134.5841
9897.727659 81.270 -139.4705
9969.450674 81.145 -144.1597
10041.693423 80.946 -148.6149
10114.459673 80.675 -152.8023
10187.753217 80.341 -156.6953
10261.577877 79.950 -160.2759
10335.937500 79.510 -163.5359
10410.835964 79.030 -166.4766
10486.277173 78.517 -169.1085
10562.265060 77.980 -171.4501
10638.803587 77.426 -173.5275
10715.896743 76.862 -175.3737
10793.548548 76.293 -177.0275
10871.763050 75.725 -178.5328
10950.544327 75.162 -179.9373
11029.896485 74.607 178.7094
11109.823662 74.061 177.3578
11190.330024 73.524 175.9614
11271.419768 72.993 174.4786
11353.097122 72.466 172.8755
11435.366344 71.937 171.1272
11518.231722 71.399 169.2186
11601.697577 70.847 167.1443
11685.768261 70.271 164.9070
11770.448155 69.667 162.5153
11855.741674 69.027 159.9792
11941.653265 68.347 157.3049
12028.187408 67.623 154.4858
12115.348612 66.856 151.4919
12203.141422 66.046 148.2532
12291.570415 65.201 144.6335
12380.640201 64.330 140.3897
12470.355424 63.454 135.0987
12560.720760 62.602 128.0353
12651.740920 61.817 117.9991
12743.420650 61.156 103.3166
12835.764729 60.683 83.0977
12928.777972 60.451 60.4347
13022.465227 60.481 41.1246
13116.831378 60.753 27.2331
13211.881345 61.215 17.4905
13307.620084 61.802 10.3018
13404.052584 62.455 4.5914
13501.183875 63.130 -0.2833
13599.019019 63.795 -4.7005
13697.563116 64.429 -8.8835
13796.821305 65.019 -12.9638
13896.798760 65.557 -17.0155
13997.500692 66.038 -21.0761
14098.932352 66.461 -25.1589
14201.099028 66.824 -29.2615
14304.006046 67.130 -33.3719
14407.658770 67.382 -37.4745
14512.062604 67.588 -41.5547
14617.222992 67.752 -45.6032
14723.145416 67.885 -49.6189
14829.835397 67.992 -53.6109
14937.298497 68.081 -57.5983
15045.540320 68.158 -61.6089
15154.566507 68.226 -65.6761
15264.382743 68.284 -69.8346
15374.994752 68.330 -74.1165
15486.408302 68.360 -78.5470
15598.629201 68.368 -83.1422
15711.663298 68.347 -87.9075
15825.516487 68.291 -92.8389
15940.194703 68.195 -97.9238
16055.703925 68.054 -103.1441
16172.050174 67.866 -108.4790
16289.239516 67.629 -113.9069
16407.278061 67.344 -119.4073
16526.171961 67.011 -124.9629
16645.927415 66.632 -130.5586
16766.550667 66.209 -136.1833
16888.048005 65.743 -141.8285
17010.425762 65.237 -147.4889
17133.690320 64.695 -153.1631
17257.848103 64.120 -158.8551
17382.905584 63.517 -164.5754
17508.869284 62.892 -170.3419
17635.745768 62.250 -176.1783
17763.541652 61.598 177.8887
17892.263597 60.939 171.8333
18021.918315 60.279 165.6353
18152.512564 59.619 159.2842
18284.053153 58.961 152.7843
18416.546939 58.307 146.1572
18550.000830 57.659 139.4426
18684.421783 57.021 132.6963
18819.816805 56.403 125.9863
18956.192956 55.818 119.3864
19093.557344 55.287 112.9775
19231.917131 54.826 106.8639
19371.279531 54.451 101.1965
19511.651807 54.167 96.1873
19653.041280 53.970 92.0942
19795.455318 53.848 89.1804
19938.901348 53.791 87.6622
