* Measurement data measured by REW V5.31.3
* Source: EXCL: Headset (USB-C to 3.5mm Headphone Jack Adapter), MICROPHONE (Master Volume), 0, volume: 0.260
* Format: 256k Log Swept Sine, 1 sweep at -12.0 dBFS with no timing reference
* Dated: Mar 5, 2025 11:02:59 AM
* REW Settings:
*  C-weighting compensation: Off
*  Target level: 75.0 dB
* Note: ; 
* Measurement: Ouroboros (glasses) L8
* Smoothing: 1/6 octave
* Frequency Step: 96 ppo
* Start Frequency: 20.0 Hz
*
* Freq(Hz) SPL(dB) Phase(degrees)
20.141602 89.256 -73.7489
20.287556 89.284 -73.9298
20.434568 89.321 -74.1686
20.582645 89.364 -74.4551
20.731796 89.410 -74.7781
20.882027 89.456 -75.1268
21.033346 89.500 -75.4912
21.185763 89.538 -75.8624
21.339284 89.569 -76.2336
21.493917 89.591 -76.5997
21.649671 89.604 -76.9577
21.806553 89.608 -77.3072
21.964572 89.604 -77.6503
22.123737 89.592 -77.9913
22.284054 89.574 -78.3374
22.445534 89.551 -78.6971
22.608183 89.525 -79.0805
22.772012 89.499 -79.4977
22.937027 89.473 -79.9577
23.103238 89.448 -80.4676
23.270654 89.427 -81.0307
23.439282 89.408 -81.6464
23.609133 89.392 -82.3094
23.780215 89.379 -83.0099
23.952536 89.369 -83.7345
24.126106 89.362 -84.4675
24.300934 89.358 -85.1922
24.477028 89.357 -85.8935
24.654399 89.360 -86.5588
24.833055 89.366 -87.1798
25.013005 89.378 -87.7536
25.194260 89.394 -88.2823
25.376828 89.416 -88.7733
25.560719 89.443 -89.2374
25.745942 89.476 -89.6878
25.932508 89.513 -90.1377
26.120426 89.555 -90.5990
26.309705 89.600 -91.0803
26.500356 89.647 -91.5861
26.692388 89.697 -92.1160
26.885812 89.748 -92.6652
27.080638 89.801 -93.2246
27.276876 89.856 -93.7824
27.474535 89.914 -94.3256
27.673627 89.974 -94.8411
27.874161 90.036 -95.3179
28.076149 90.101 -95.7485
28.279600 90.168 -96.1295
28.484526 90.236 -96.4631
28.690937 90.302 -96.7560
28.898843 90.366 -97.0199
29.108256 90.424 -97.2693
29.319186 90.475 -97.5207
29.531645 90.516 -97.7907
29.745644 90.545 -98.0941
29.961193 90.561 -98.4427
30.178304 90.563 -98.8445
30.396989 90.550 -99.3026
30.617258 90.524 -99.8162
30.839123 90.486 -100.3803
31.062596 90.439 -100.9870
31.287688 90.387 -101.6265
31.514412 90.334 -102.2881
31.742778 90.282 -102.9612
31.972800 90.238 -103.6359
32.204488 90.202 -104.3032
32.437855 90.177 -104.9551
32.672913 90.166 -105.5844
32.909674 90.166 -106.1845
33.148151 90.179 -106.7496
33.388356 90.203 -107.2752
33.630302 90.235 -107.7585
33.874001 90.276 -108.1996
34.119466 90.323 -108.6017
34.366710 90.374 -108.9715
34.615745 90.427 -109.3182
34.866585 90.480 -109.6529
35.119243 90.531 -109.9866
35.373731 90.577 -110.3287
35.630064 90.616 -110.6858
35.888254 90.646 -111.0609
36.148315 90.665 -111.4536
36.410261 90.674 -111.8608
36.674104 90.672 -112.2779
36.939860 90.661 -112.6998
37.207542 90.642 -113.1224
37.477163 90.617 -113.5424
37.748738 90.589 -113.9579
38.022281 90.559 -114.3676
38.297806 90.528 -114.7705
38.575327 90.498 -115.1651
38.854860 90.469 -115.5497
39.136419 90.441 -115.9225
39.420017 90.416 -116.2813
39.705671 90.392 -116.6246
39.993395 90.371 -116.9513
40.283203 90.350 -117.2606
40.575112 90.332 -117.5517
40.869136 90.316 -117.8242
41.165290 90.301 -118.0778
41.463591 90.290 -118.3127
41.764053 90.282 -118.5304
42.066693 90.277 -118.7335
42.371525 90.277 -118.9262
42.678567 90.282 -119.1134
42.987834 90.291 -119.2997
43.299341 90.303 -119.4891
43.613106 90.317 -119.6832
43.929145 90.333 -119.8819
44.247473 90.350 -120.0834
44.568109 90.367 -120.2850
44.891068 90.384 -120.4843
45.216367 90.401 -120.6800
45.544023 90.419 -120.8728
45.874054 90.439 -121.0648
46.206476 90.460 -121.2594
46.541307 90.483 -121.4600
46.878565 90.509 -121.6689
47.218266 90.535 -121.8871
47.560429 90.563 -122.1142
47.905072 90.592 -122.3486
48.252212 90.622 -122.5888
48.601867 90.653 -122.8340
48.954056 90.685 -123.0836
49.308798 90.717 -123.3373
49.666109 90.750 -123.5942
50.026010 90.783 -123.8524
50.388520 90.816 -124.1091
50.753656 90.850 -124.3611
51.121437 90.884 -124.6059
51.491884 90.918 -124.8425
51.865016 90.952 -125.0716
52.240851 90.986 -125.2954
52.619410 91.019 -125.5168
53.000712 91.052 -125.7389
53.384777 91.084 -125.9645
53.771625 91.115 -126.1958
54.161276 91.146 -126.4340
54.553751 91.177 -126.6801
54.949070 91.208 -126.9343
55.347254 91.239 -127.1967
55.748323 91.271 -127.4676
56.152298 91.304 -127.7467
56.559201 91.338 -128.0337
56.969052 91.375 -128.3270
57.381873 91.413 -128.6243
57.797686 91.454 -128.9215
58.216512 91.497 -129.2139
58.638373 91.542 -129.4957
59.063291 91.585 -129.7615
59.491288 91.627 -130.0065
59.922386 91.666 -130.2285
60.356608 91.701 -130.4280
60.793977 91.731 -130.6095
61.234515 91.759 -130.7804
61.678246 91.786 -130.9495
62.125192 91.812 -131.1246
62.575377 91.838 -131.3112
63.028824 91.865 -131.5113
63.485557 91.894 -131.7243
63.945599 91.923 -131.9484
64.408975 91.952 -132.1813
64.875709 91.980 -132.4212
65.345825 92.007 -132.6673
65.819348 92.033 -132.9193
66.296302 92.057 -133.1773
66.776713 92.081 -133.4416
67.260604 92.104 -133.7124
67.748002 92.126 -133.9902
68.238932 92.149 -134.2752
68.733420 92.171 -134.5678
69.231490 92.194 -134.8680
69.733170 92.217 -135.1749
70.238485 92.241 -135.4870
70.747463 92.264 -135.8017
71.260128 92.288 -136.1165
71.776508 92.311 -136.4291
72.296630 92.335 -136.7380
72.820521 92.359 -137.0433
73.348209 92.382 -137.3460
73.879720 92.406 -137.6480
74.415083 92.430 -137.9513
74.954326 92.455 -138.2574
75.497475 92.479 -138.5672
76.044561 92.503 -138.8806
76.595612 92.526 -139.1971
77.150655 92.550 -139.5156
77.709720 92.573 -139.8346
78.272837 92.595 -140.1528
78.840034 92.617 -140.4686
79.411342 92.638 -140.7808
79.986789 92.659 -141.0883
80.566406 92.679 -141.3901
81.150224 92.699 -141.6857
81.738272 92.718 -141.9751
82.330581 92.737 -142.2587
82.927182 92.756 -142.5370
83.528107 92.774 -142.8106
84.133386 92.792 -143.0801
84.743051 92.810 -143.3458
85.357134 92.829 -143.6080
85.975667 92.847 -143.8672
86.598682 92.866 -144.1240
87.226212 92.885 -144.3795
87.858289 92.905 -144.6350
88.494946 92.927 -144.8917
89.136217 92.949 -145.1506
89.782135 92.972 -145.4125
90.432733 92.997 -145.6774
91.088046 93.022 -145.9455
91.748108 93.048 -146.2164
92.412952 93.074 -146.4900
93.082615 93.101 -146.7659
93.757130 93.127 -147.0440
94.436533 93.152 -147.3241
95.120859 93.177 -147.6060
95.810144 93.199 -147.8899
96.504423 93.220 -148.1758
97.203734 93.239 -148.4636
97.908112 93.255 -148.7532
98.617595 93.270 -149.0441
99.332219 93.282 -149.3354
100.052021 93.293 -149.6265
100.777039 93.302 -149.9165
101.507311 93.311 -150.2051
102.242875 93.319 -150.4924
102.983769 93.327 -150.7785
103.730032 93.334 -151.0638
104.481702 93.343 -151.3484
105.238820 93.352 -151.6322
106.001424 93.363 -151.9146
106.769554 93.376 -152.1954
107.543250 93.390 -152.4747
108.322553 93.407 -152.7533
109.107503 93.425 -153.0324
109.898141 93.445 -153.3135
110.694508 93.465 -153.5974
111.496646 93.486 -153.8842
112.304596 93.507 -154.1734
113.118402 93.527 -154.4640
113.938104 93.547 -154.7552
114.763747 93.565 -155.0464
115.595372 93.582 -155.3375
116.433024 93.598 -155.6292
117.276746 93.612 -155.9225
118.126581 93.625 -156.2190
118.982575 93.636 -156.5200
119.844772 93.645 -156.8264
120.713217 93.653 -157.1379
121.587954 93.659 -157.4536
122.469031 93.664 -157.7717
123.356492 93.670 -158.0906
124.250384 93.675 -158.4088
125.150753 93.680 -158.7252
126.057647 93.687 -159.0389
126.971113 93.694 -159.3495
127.891198 93.702 -159.6566
128.817950 93.712 -159.9601
129.751418 93.724 -160.2601
130.691651 93.736 -160.5568
131.638696 93.750 -160.8507
132.592604 93.764 -161.1421
133.553425 93.779 -161.4308
134.521208 93.793 -161.7168
135.496004 93.807 -162.0002
136.477864 93.819 -162.2814
137.466839 93.830 -162.5611
138.462981 93.839 -162.8396
139.466340 93.846 -163.1173
140.476971 93.851 -163.3944
141.494925 93.853 -163.6709
142.520256 93.853 -163.9469
143.553016 93.851 -164.2227
144.593260 93.846 -164.4986
145.641043 93.840 -164.7747
146.696418 93.832 -165.0510
147.759441 93.823 -165.3271
148.830166 93.813 -165.6025
149.908651 93.804 -165.8764
150.994951 93.795 -166.1479
152.089123 93.786 -166.4157
153.191223 93.777 -166.6786
154.301310 93.769 -166.9359
155.419441 93.762 -167.1872
156.545674 93.755 -167.4332
157.680069 93.748 -167.6750
158.822683 93.741 -167.9144
159.973578 93.734 -168.1532
161.132813 93.727 -168.3930
162.300447 93.720 -168.6350
163.476543 93.713 -168.8798
164.661162 93.705 -169.1273
165.854364 93.697 -169.3771
167.056213 93.688 -169.6285
168.266772 93.680 -169.8807
169.486102 93.670 -170.1327
170.714268 93.660 -170.3834
171.951334 93.649 -170.6319
173.197364 93.637 -170.8770
174.452424 93.624 -171.1174
175.716578 93.610 -171.3521
176.989893 93.594 -171.5803
178.272434 93.578 -171.8017
179.564270 93.560 -172.0164
180.865467 93.541 -172.2248
182.176092 93.522 -172.4276
183.496216 93.501 -172.6256
184.825905 93.479 -172.8194
186.165229 93.455 -173.0100
187.514259 93.429 -173.1980
188.873065 93.402 -173.3841
190.241717 93.373 -173.5688
191.620287 93.341 -173.7520
193.008847 93.308 -173.9335
194.407468 93.272 -174.1125
195.816225 93.235 -174.2879
197.235190 93.195 -174.4586
198.664438 93.154 -174.6234
200.104042 93.111 -174.7812
201.554078 93.066 -174.9313
203.014622 93.020 -175.0735
204.485750 92.974 -175.2080
205.967538 92.927 -175.3358
207.460064 92.881 -175.4578
208.963405 92.837 -175.5754
210.477640 92.795 -175.6900
212.002848 92.757 -175.8030
213.539108 92.722 -175.9157
215.086500 92.693 -176.0286
216.645105 92.668 -176.1420
218.215005 92.650 -176.2555
219.796281 92.636 -176.3680
221.389015 92.628 -176.4787
222.993292 92.625 -176.5866
224.609193 92.626 -176.6911
226.236804 92.630 -176.7917
227.876209 92.638 -176.8882
229.527494 92.649 -176.9801
231.190745 92.661 -177.0669
232.866048 92.676 -177.1479
234.553491 92.692 -177.2227
236.253163 92.709 -177.2915
237.965150 92.727 -177.3546
239.689544 92.746 -177.4130
241.426433 92.765 -177.4678
243.175909 92.785 -177.5201
244.938062 92.804 -177.5705
246.712984 92.823 -177.6197
248.500768 92.841 -177.6681
250.301507 92.858 -177.7162
252.115295 92.875 -177.7644
253.942226 92.892 -177.8127
255.782396 92.908 -177.8611
257.635901 92.924 -177.9094
259.502837 92.939 -177.9574
261.383301 92.955 -178.0045
263.277392 92.970 -178.0502
265.185209 92.985 -178.0941
267.106850 92.999 -178.1358
269.042417 93.012 -178.1752
270.992009 93.023 -178.2122
272.955729 93.032 -178.2469
274.933678 93.038 -178.2798
276.925961 93.041 -178.3114
278.932681 93.040 -178.3424
280.953942 93.036 -178.3732
282.989850 93.028 -178.4041
285.040511 93.015 -178.4353
287.106032 92.998 -178.4665
289.186521 92.977 -178.4976
291.282086 92.953 -178.5285
293.392836 92.924 -178.5594
295.518881 92.892 -178.5911
297.660333 92.858 -178.6242
299.817302 92.821 -178.6595
301.989902 92.783 -178.6975
304.178245 92.744 -178.7383
306.382446 92.704 -178.7815
308.602620 92.665 -178.8267
310.838882 92.628 -178.8735
313.091348 92.592 -178.9214
315.360137 92.559 -178.9706
317.645367 92.529 -179.0215
319.947156 92.503 -179.0750
322.265625 92.481 -179.1319
324.600895 92.463 -179.1931
326.953086 92.449 -179.2591
329.322323 92.441 -179.3303
331.708729 92.437 -179.4065
334.112427 92.439 -179.4875
336.533543 92.446 -179.5728
338.972204 92.458 -179.6617
341.428536 92.474 -179.7537
343.902668 92.495 -179.8484
346.394729 92.520 -179.9453
348.904848 92.549 179.9559
351.433156 92.580 179.8556
353.979786 92.613 179.7544
356.544869 92.647 179.6528
359.128540 92.680 179.5513
361.730934 92.712 179.4506
364.352185 92.742 179.3508
366.992431 92.769 179.2524
369.651810 92.792 179.1559
372.330459 92.810 179.0619
375.028519 92.823 178.9711
377.746130 92.831 178.8845
380.483434 92.834 178.8027
383.240574 92.831 178.7266
386.017693 92.823 178.6565
388.814937 92.811 178.5928
391.632450 92.795 178.5356
394.470380 92.777 178.4848
397.328875 92.758 178.4403
400.208084 92.738 178.4017
403.108157 92.719 178.3685
406.029245 92.702 178.3398
408.971500 92.689 178.3146
411.935076 92.680 178.2919
414.920127 92.677 178.2703
417.926810 92.679 178.2482
420.955280 92.687 178.2241
424.005695 92.701 178.1966
427.078215 92.719 178.1641
430.173000 92.743 178.1250
433.290211 92.769 178.0781
436.430010 92.798 178.0223
439.592562 92.828 177.9568
442.778031 92.858 177.8810
445.986583 92.887 177.7946
449.218386 92.914 177.6976
452.473607 92.939 177.5903
455.752418 92.960 177.4734
459.054987 92.978 177.3474
462.381489 92.993 177.2132
465.732096 93.005 177.0715
469.106983 93.013 176.9233
472.506325 93.019 176.7697
475.930301 93.023 176.6116
479.379088 93.024 176.4501
482.852867 93.023 176.2860
486.351817 93.021 176.1201
489.876123 93.018 175.9530
493.425968 93.014 175.7852
497.001536 93.010 175.6172
500.603014 93.007 175.4492
504.230589 93.005 175.2816
507.884452 93.006 175.1145
511.564792 93.010 174.9485
515.271802 93.018 174.7839
519.005673 93.031 174.6212
522.766602 93.049 174.4608
526.554785 93.072 174.3033
530.370418 93.100 174.1489
534.213700 93.133 173.9980
538.084833 93.170 173.8506
541.984018 93.210 173.7072
545.911457 93.252 173.5679
549.867357 93.294 173.4333
553.851922 93.335 173.3038
557.865362 93.373 173.1798
561.907884 93.408 173.0620
565.979700 93.437 172.9506
570.081022 93.459 172.8461
574.212064 93.475 172.7486
578.373042 93.482 172.6584
582.564171 93.480 172.5754
586.785671 93.470 172.4994
591.037762 93.449 172.4301
595.320665 93.419 172.3669
599.634604 93.379 172.3092
603.979804 93.329 172.2567
608.356491 93.271 172.2090
612.764893 93.205 172.1661
617.205240 93.133 172.1282
621.677763 93.056 172.0955
626.182696 92.976 172.0681
630.720274 92.895 172.0461
635.290733 92.816 172.0298
639.894312 92.739 172.0187
644.531250 92.668 172.0125
649.201789 92.604 172.0099
653.906173 92.548 172.0096
658.644647 92.502 172.0095
663.417457 92.465 172.0071
668.224854 92.440 171.9998
673.067086 92.426 171.9846
677.944408 92.423 171.9587
682.857073 92.431 171.9194
687.805336 92.449 171.8641
692.789457 92.477 171.7912
697.809695 92.513 171.6993
702.866312 92.555 171.5881
707.959571 92.603 171.4576
713.089738 92.654 171.3087
718.257080 92.707 171.1426
723.461867 92.759 170.9608
728.704370 92.809 170.7650
733.984862 92.856 170.5570
739.303619 92.898 170.3387
744.660918 92.935 170.1119
750.057038 92.965 169.8786
755.492260 92.988 169.6407
760.966869 93.005 169.4006
766.481148 93.016 169.1606
772.035387 93.021 168.9232
777.629873 93.020 168.6909
783.264900 93.014 168.4664
788.940760 93.003 168.2522
794.657750 92.986 168.0510
800.416168 92.964 167.8649
806.216313 92.935 167.6960
812.058489 92.900 167.5457
817.943000 92.858 167.4146
823.870152 92.809 167.3024
829.840255 92.755 167.2078
835.853619 92.695 167.1283
841.910559 92.632 167.0596
848.011390 92.567 166.9963
854.156430 92.503 166.9313
860.346000 92.443 166.8563
866.580422 92.388 166.7621
872.860020 92.341 166.6396
879.185124 92.303 166.4803
885.556062 92.275 166.2780
891.973166 92.256 166.0291
898.436771 92.244 165.7342
904.947215 92.240 165.3978
911.504835 92.239 165.0282
918.109975 92.240 164.6365
924.762978 92.242 164.2354
931.464192 92.243 163.8373
938.213966 92.241 163.4536
945.012651 92.236 163.0934
951.860602 92.228 162.7637
958.758176 92.216 162.4688
965.705733 92.199 162.2109
972.703635 92.179 161.9909
979.752246 92.154 161.8080
986.851935 92.127 161.6611
994.003071 92.096 161.5483
1001.206027 92.063 161.4678
1008.461179 92.028 161.4175
1015.768904 91.994 161.3959
1023.129584 91.960 161.4016
1030.543603 91.928 161.4341
1038.011347 91.899 161.4933
1045.533205 91.875 161.5799
1053.109569 91.856 161.6955
1060.740836 91.843 161.8425
1068.427401 91.836 162.0246
1076.169666 91.835 162.2458
1083.968035 91.842 162.5112
1091.822915 91.855 162.8254
1099.734713 91.875 163.1927
1107.703844 91.902 163.6158
1115.730723 91.938 164.0940
1123.815768 91.982 164.6224
1131.959400 92.038 165.1901
1140.162045 92.105 165.7789
1148.424129 92.186 166.3631
1156.746083 92.281 166.9107
1165.128342 92.389 167.3862
1173.571343 92.508 167.7549
1182.075524 92.636 167.9880
1190.641331 92.767 168.0675
1199.269209 92.899 167.9886
1207.959608 93.025 167.7602
1216.712981 93.143 167.4018
1225.529785 93.251 166.9402
1234.410479 93.347 166.4047
1243.355526 93.431 165.8240
1252.365393 93.505 165.2230
1261.440549 93.569 164.6226
1270.581467 93.625 164.0381
1279.788624 93.675 163.4808
1289.062500 93.720 162.9575
1298.403578 93.760 162.4720
1307.812346 93.797 162.0260
1317.289293 93.830 161.6192
1326.834914 93.861 161.2503
1336.449707 93.890 160.9174
1346.134173 93.915 160.6181
1355.888816 93.938 160.3497
1365.714145 93.957 160.1096
1375.610673 93.974 159.8951
1385.578915 93.987 159.7036
1395.619391 93.998 159.5325
1405.732624 94.006 159.3795
1415.919142 94.011 159.2421
1426.179476 94.014 159.1183
1436.514160 94.015 159.0059
1446.923734 94.014 158.9027
1457.408740 94.012 158.8070
1467.969724 94.008 158.7169
1478.607238 94.003 158.6307
1489.321836 93.997 158.5469
1500.114076 93.990 158.4642
1510.984521 93.981 158.3814
1521.933737 93.970 158.2975
1532.962297 93.956 158.2117
1544.070773 93.939 158.1234
1555.259747 93.920 158.0317
1566.529800 93.898 157.9365
1577.881521 93.873 157.8372
1589.315501 93.846 157.7338
1600.832336 93.817 157.6261
1612.432627 93.786 157.5140
1624.116978 93.754 157.3978
1635.886000 93.722 157.2774
1647.740304 93.689 157.1530
1659.680509 93.655 157.0248
1671.707238 93.621 156.8931
1683.821118 93.587 156.7580
1696.022780 93.551 156.6198
1708.312860 93.515 156.4787
1720.692000 93.478 156.3351
1733.160843 93.439 156.1893
1745.720041 93.400 156.0418
1758.370248 93.361 155.8931
1771.112124 93.322 155.7438
1783.946332 93.283 155.5945
1796.873543 93.245 155.4460
1809.894429 93.208 155.2989
1823.009670 93.172 155.1539
1836.219950 93.136 155.0118
1849.525956 93.100 154.8734
1862.928384 93.063 154.7392
1876.427931 93.026 154.6102
1890.025301 92.985 154.4870
1903.721204 92.942 154.3706
1917.516352 92.896 154.2618
1931.411466 92.845 154.1615
1945.407270 92.791 154.0706
1959.504493 92.732 153.9897
1973.703870 92.669 153.9196
1988.006142 92.602 153.8608
2002.412054 92.532 153.8136
2016.922357 92.461 153.7780
2031.537808 92.388 153.7534
2046.259169 92.315 153.7395
2061.087206 92.243 153.7353
2076.022694 92.172 153.7400
2091.066410 92.104 153.7529
2106.219139 92.038 153.7737
2121.481671 91.976 153.8028
2136.854802 91.917 153.8409
2152.339333 91.862 153.8892
2167.936071 91.812 153.9492
2183.645829 91.767 154.0223
2199.469427 91.727 154.1094
2215.407689 91.694 154.2110
2231.461446 91.667 154.3271
2247.631536 91.648 154.4574
2263.918800 91.636 154.6012
2280.324089 91.631 154.7580
2296.848258 91.634 154.9272
2313.492167 91.644 155.1089
2330.256685 91.661 155.3030
2347.142685 91.685 155.5099
2364.151049 91.714 155.7301
2381.282662 91.749 155.9641
2398.538418 91.788 156.2122
2415.919216 91.831 156.4746
2433.425962 91.876 156.7516
2451.059570 91.924 157.0427
2468.820958 91.973 157.3473
2486.711052 92.022 157.6642
2504.730786 92.072 157.9921
2522.881098 92.120 158.3289
2541.162934 92.167 158.6723
2559.577248 92.212 159.0201
2578.125000 92.253 159.3698
2596.807157 92.291 159.7197
2615.624692 92.325 160.0678
2634.578586 92.354 160.4130
2653.669829 92.378 160.7545
2672.899414 92.396 161.0916
2692.268345 92.409 161.4240
2711.777632 92.417 161.7514
2731.428290 92.418 162.0734
2751.221345 92.414 162.3900
2771.157829 92.404 162.7008
2791.238781 92.389 163.0058
2811.465248 92.369 163.3050
2831.838284 92.343 163.5987
2852.358952 92.312 163.8874
2873.028321 92.277 164.1718
2893.847468 92.236 164.4529
2914.817480 92.191 164.7323
2935.939449 92.141 165.0115
2957.214476 92.087 165.2928
2978.643672 92.028 165.5786
3000.228152 91.966 165.8716
3021.969041 91.901 166.1746
3043.867475 91.832 166.4902
3065.924593 91.762 166.8210
3088.141547 91.690 167.1692
3110.519493 91.617 167.5363
3133.059600 91.544 167.9236
3155.763041 91.472 168.3319
3178.631001 91.401 168.7615
3201.664672 91.332 169.2123
3224.865254 91.265 169.6835
3248.233957 91.203 170.1741
3271.771999 91.145 170.6822
3295.480608 91.092 171.2060
3319.361019 91.046 171.7433
3343.414477 91.006 172.2923
3367.642236 90.973 172.8513
3392.045560 90.948 173.4189
3416.625721 90.932 173.9943
3441.383999 90.924 174.5764
3466.321686 90.926 175.1645
3491.440082 90.937 175.7575
3516.740496 90.957 176.3537
3542.224247 90.988 176.9512
3567.892664 91.028 177.5474
3593.747085 91.077 178.1392
3619.788858 91.136 178.7233
3646.019340 91.204 179.2965
3672.439900 91.280 179.8557
3699.051913 91.365 -179.6019
3725.856768 91.456 -179.0782
3752.855862 91.554 -178.5746
3780.050603 91.658 -178.0916
3807.442408 91.767 -177.6295
3835.032705 91.881 -177.1882
3862.822933 92.000 -176.7673
3890.814540 92.122 -176.3665
3919.008986 92.248 -175.9849
3947.407741 92.376 -175.6219
3976.012284 92.507 -175.2761
4004.824108 92.640 -174.9462
4033.844715 92.774 -174.6303
4063.075616 92.909 -174.3268
4092.518337 93.045 -174.0337
4122.174412 93.183 -173.7495
4152.045387 93.321 -173.4727
4182.132820 93.462 -173.2025
4212.438278 93.605 -172.9388
4242.963342 93.750 -172.6822
4273.709604 93.900 -172.4344
4304.678665 94.054 -172.1984
4335.872141 94.213 -171.9783
4367.291658 94.379 -171.7794
4398.938854 94.551 -171.6085
4430.815378 94.731 -171.4729
4462.922893 94.918 -171.3809
4495.263072 95.112 -171.3412
4527.837601 95.313 -171.3627
4560.648179 95.520 -171.4541
4593.696515 95.731 -171.6237
4626.984334 95.946 -171.8790
4660.513370 96.163 -172.2262
4694.285371 96.379 -172.6702
4728.302098 96.593 -173.2142
4762.565324 96.803 -173.8592
4797.076835 97.005 -174.6045
4831.838432 97.198 -175.4468
4866.851925 97.381 -176.3811
4902.119140 97.550 -177.4003
4937.641916 97.705 -178.4954
4973.422105 97.843 -179.6560
5009.461572 97.964 179.1299
5045.762195 98.066 177.8753
5082.325868 98.150 176.5944
5119.154496 98.213 175.3018
5156.250000 98.256 174.0122
5193.614313 98.280 172.7403
5231.249383 98.284 171.5000
5269.157173 98.270 170.3041
5307.339658 98.239 169.1639
5345.798829 98.191 168.0889
5384.536691 98.129 167.0865
5423.555263 98.053 166.1617
5462.856580 97.967 165.3172
5502.442691 97.872 164.5533
5542.315659 97.770 163.8679
5582.477563 97.664 163.2561
5622.930497 97.558 162.7104
5663.676569 97.453 162.2203
5704.717904 97.352 161.7726
5746.056642 97.258 161.3514
5787.694937 97.173 160.9387
5829.634960 97.099 160.5154
5871.878898 97.036 160.0618
5914.428953 96.985 159.5590
5957.287343 96.944 158.9900
6000.456303 96.911 158.3405
6043.938083 96.883 157.5997
6087.734950 96.858 156.7607
6131.849187 96.832 155.8212
6176.283094 96.800 154.7825
6221.038987 96.760 153.6502
6266.119200 96.707 152.4331
6311.526083 96.639 151.1425
6357.262002 96.553 149.7916
6403.329344 96.448 148.3950
6449.730508 96.323 146.9675
6496.467914 96.176 145.5241
6543.543998 96.008 144.0792
6590.961215 95.819 142.6459
6638.722037 95.611 141.2365
6686.828954 95.386 139.8614
6735.284473 95.144 138.5290
6784.091120 94.889 137.2459
6833.251441 94.623 136.0163
6882.767998 94.348 134.8423
6932.643372 94.067 133.7235
6982.880164 93.783 132.6574
7033.480992 93.497 131.6391
7084.448495 93.211 130.6616
7135.785329 92.926 129.7154
7187.494171 92.644 128.7886
7239.577717 92.365 127.8671
7292.038681 92.089 126.9340
7344.879799 91.816 125.9695
7398.103826 91.545 124.9511
7451.713536 91.276 123.8535
7505.711724 91.007 122.6481
7560.101205 90.737 121.3039
7614.884815 90.465 119.7867
7670.065409 90.192 118.0591
7725.645865 89.918 116.0793
7781.629080 89.645 113.8000
7838.017972 89.374 111.1648
7894.815481 89.111 108.1044
7952.024569 88.862 104.5292
8009.648217 88.633 100.3176
8067.689429 88.435 95.2960
8126.151233 88.274 89.2028
8185.036674 88.161 81.6241
8244.348824 88.100 71.8793
8304.090774 88.094 58.8561
8364.265639 88.141 40.9992
8424.876556 88.236 17.4505
8485.926684 88.367 -8.8713
8547.419207 88.522 -32.1388
8609.357330 88.687 -49.9341
8671.744282 88.851 -63.2865
8734.583316 89.004 -73.6851
8797.877707 89.140 -82.1438
8861.630756 89.256 -89.2628
8925.845785 89.355 -95.3945
8990.526143 89.437 -100.7553
9055.675202 89.509 -105.4877
9121.296357 89.576 -109.6958
9187.393031 89.642 -113.4636
9253.968668 89.713 -116.8650
9321.026740 89.791 -119.9692
9388.570742 89.876 -122.8417
9456.604196 89.966 -125.5435
9525.130648 90.059 -128.1290
9594.153671 90.148 -130.6437
9663.676863 90.228 -133.1213
9733.703850 90.290 -135.5826
9804.238280 90.330 -138.0354
9875.283832 90.341 -140.4758
9946.844210 90.320 -142.8905
10018.923143 90.265 -145.2606
10091.524390 90.177 -147.5647
10164.651736 90.056 -149.7830
10238.308993 89.906 -151.8995
10312.500000 89.731 -153.9050
10387.228626 89.536 -155.7980
10462.498767 89.327 -157.5855
10538.314345 89.107 -159.2825
10614.679315 88.883 -160.9113
10691.597657 88.657 -162.4996
10769.073381 88.430 -164.0779
10847.110526 88.204 -165.6769
10925.713161 87.976 -167.3242
11004.885382 87.742 -169.0409
11084.631318 87.498 -170.8391
11164.955126 87.237 -172.7189
11245.860993 86.950 -174.6669
11327.353138 86.632 -176.6541
11409.435808 86.274 -178.6360
11492.113283 85.870 179.4465
11575.389873 85.416 177.6650
11659.269920 84.908 176.0989
11743.757796 84.348 174.8286
11828.857906 83.738 173.9279
11914.574686 83.083 173.4543
12000.912606 82.391 173.4401
12087.876166 81.672 173.8844
12175.469900 80.937 174.7501
12263.698373 80.197 175.9680
12352.566187 79.463 177.4493
12442.077974 78.745 179.1082
12532.238400 78.052 -179.1133
12623.052165 77.388 -177.2189
12714.524005 76.760 -175.1367
12806.658687 76.175 -172.6975
12899.461015 75.642 -169.6115
12992.935827 75.178 -165.4459
13087.087996 74.805 -159.6333
13181.922430 74.549 -151.6152
13277.444074 74.433 -141.3036
13373.657907 74.470 -129.7514
13470.568945 74.653 -119.0303
13568.182241 74.956 -110.8440
13666.502883 75.343 -105.6337
13765.535996 75.774 -102.9929
13865.286744 76.214 -102.3044
13965.760328 76.636 -103.0303
14066.961984 77.023 -104.7682
14168.896989 77.364 -107.2332
14271.570658 77.657 -110.2268
14374.988342 77.898 -113.6135
14479.155433 78.090 -117.3020
14584.077362 78.234 -121.2322
14689.759598 78.332 -125.3647
14796.207652 78.382 -129.6737
14903.427072 78.385 -134.1392
15011.423448 78.339 -138.7429
15120.202410 78.240 -143.4641
15229.769630 78.085 -148.2780
15340.130819 77.873 -153.1558
15451.291730 77.602 -158.0662
15563.258160 77.271 -162.9780
15676.035944 76.882 -167.8628
15789.630962 76.437 -172.6964
15904.049137 75.939 -177.4582
16019.296433 75.390 177.8706
16135.378859 74.794 173.3117
16252.302465 74.151 168.8941
16370.073348 73.463 164.6583
16488.697648 72.730 160.6578
16608.181548 71.953 156.9567
16728.531278 71.135 153.6214
16849.753112 70.279 150.7056
16971.853368 69.394 148.2286
17094.838414 68.489 146.1506
17218.714660 67.581 144.3538
17343.488565 66.685 142.6435
17469.166632 65.821 140.7766
17595.755415 65.001 138.5122
17723.261512 64.237 135.6612
17851.691571 63.530 132.1128
17981.052287 62.871 127.8333
18111.350404 62.250 122.8444
18242.592715 61.649 117.1953
18374.786062 61.053 110.9357
18507.937336 60.452 104.0937
18642.053479 59.839 96.6570
18777.141484 59.210 88.5536
18913.208391 58.570 79.6351
19050.261296 57.926 69.6672
19188.307342 57.290 58.3585
19327.353727 56.680 45.5035
19467.407699 56.115 31.3391
19608.476560 55.618 16.9775
19750.567664 55.215 4.3105
19893.688419 54.931 -4.8865
20037.846286 54.783 -9.6406
