* Measurement data measured by REW V5.31.3
* Source: EXCL: Headset (USB-C to 3.5mm Headphone Jack Adapter), MICROPHONE (Master Volume), 0, volume: 0.260
* Format: 256k Log Swept Sine, 1 sweep at -12.0 dBFS with no timing reference
* Dated: Mar 5, 2025 10:57:31 AM
* REW Settings:
*  C-weighting compensation: Off
*  Target level: 75.0 dB
* Note: ; 
* Measurement: Ouroboros Reprint R8
* Smoothing: 1/6 octave
* Frequency Step: 96 ppo
* Start Frequency: 20.0 Hz
*
* Freq(Hz) SPL(dB) Phase(degrees)
20.141602 98.083 -119.0810
20.287556 98.069 -119.3078
20.434568 98.049 -119.6094
20.582645 98.026 -119.9737
20.731796 97.999 -120.3870
20.882027 97.970 -120.8348
21.033346 97.938 -121.3030
21.185763 97.906 -121.7784
21.339284 97.873 -122.2495
21.493917 97.840 -122.7069
21.649671 97.806 -123.1441
21.806553 97.773 -123.5571
21.964572 97.740 -123.9452
22.123737 97.707 -124.3107
22.284054 97.674 -124.6585
22.445534 97.640 -124.9961
22.608183 97.604 -125.3325
22.772012 97.566 -125.6785
22.937027 97.525 -126.0451
23.103238 97.480 -126.4434
23.270654 97.432 -126.8837
23.439282 97.380 -127.3750
23.609133 97.325 -127.9243
23.780215 97.266 -128.5363
23.952536 97.205 -129.2130
24.126106 97.144 -129.9531
24.300934 97.082 -130.7519
24.477028 97.023 -131.6012
24.654399 96.966 -132.4895
24.833055 96.915 -133.4019
25.013005 96.869 -134.3214
25.194260 96.829 -135.2288
25.376828 96.796 -136.1048
25.560719 96.770 -136.9305
25.745942 96.750 -137.6894
25.932508 96.734 -138.3683
26.120426 96.724 -138.9586
26.309705 96.717 -139.4570
26.500356 96.713 -139.8664
26.692388 96.710 -140.1954
26.885812 96.709 -140.4579
27.080638 96.707 -140.6725
27.276876 96.705 -140.8605
27.474535 96.700 -141.0444
27.673627 96.693 -141.2458
27.874161 96.682 -141.4838
28.076149 96.666 -141.7731
28.279600 96.646 -142.1229
28.484526 96.619 -142.5365
28.690937 96.587 -143.0114
28.898843 96.551 -143.5395
29.108256 96.510 -144.1083
29.319186 96.465 -144.7027
29.531645 96.419 -145.3060
29.745644 96.371 -145.9019
29.961193 96.322 -146.4756
30.178304 96.273 -147.0147
30.396989 96.225 -147.5101
30.617258 96.176 -147.9559
30.839123 96.127 -148.3497
31.062596 96.077 -148.6920
31.287688 96.028 -148.9863
31.514412 95.979 -149.2381
31.742778 95.931 -149.4551
31.972800 95.886 -149.6465
32.204488 95.845 -149.8219
32.437855 95.810 -149.9907
32.672913 95.780 -150.1606
32.909674 95.757 -150.3371
33.148151 95.740 -150.5222
33.388356 95.729 -150.7143
33.630302 95.722 -150.9089
33.874001 95.719 -151.0992
34.119466 95.717 -151.2774
34.366710 95.715 -151.4366
34.615745 95.710 -151.5712
34.866585 95.702 -151.6779
35.119243 95.690 -151.7553
35.373731 95.671 -151.8037
35.630064 95.646 -151.8238
35.888254 95.614 -151.8164
36.148315 95.575 -151.7817
36.410261 95.530 -151.7202
36.674104 95.480 -151.6322
36.939860 95.429 -151.5196
37.207542 95.376 -151.3851
37.477163 95.324 -151.2325
37.748738 95.274 -151.0658
38.022281 95.226 -150.8887
38.297806 95.181 -150.7034
38.575327 95.138 -150.5115
38.854860 95.099 -150.3143
39.136419 95.062 -150.1139
39.420017 95.029 -149.9140
39.705671 94.999 -149.7196
39.993395 94.972 -149.5361
40.283203 94.950 -149.3682
40.575112 94.930 -149.2181
40.869136 94.914 -149.0850
41.165290 94.900 -148.9655
41.463591 94.889 -148.8554
41.764053 94.881 -148.7504
42.066693 94.877 -148.6478
42.371525 94.877 -148.5466
42.678567 94.880 -148.4464
42.987834 94.887 -148.3472
43.299341 94.897 -148.2481
43.613106 94.911 -148.1480
43.929145 94.930 -148.0464
44.247473 94.954 -147.9443
44.568109 94.984 -147.8451
44.891068 95.022 -147.7540
45.216367 95.068 -147.6765
45.544023 95.121 -147.6171
45.874054 95.181 -147.5783
46.206476 95.246 -147.5601
46.541307 95.317 -147.5614
46.878565 95.392 -147.5810
47.218266 95.470 -147.6188
47.560429 95.551 -147.6759
47.905072 95.633 -147.7541
48.252212 95.715 -147.8550
48.601867 95.796 -147.9788
48.954056 95.876 -148.1247
49.308798 95.955 -148.2909
49.666109 96.033 -148.4756
50.026010 96.110 -148.6777
50.388520 96.187 -148.8973
50.753656 96.264 -149.1352
51.121437 96.340 -149.3919
51.491884 96.417 -149.6673
51.865016 96.492 -149.9599
52.240851 96.566 -150.2674
52.619410 96.638 -150.5872
53.000712 96.708 -150.9175
53.384777 96.776 -151.2580
53.771625 96.843 -151.6102
54.161276 96.907 -151.9767
54.553751 96.969 -152.3605
54.949070 97.028 -152.7641
55.347254 97.084 -153.1890
55.748323 97.135 -153.6358
56.152298 97.183 -154.1039
56.559201 97.228 -154.5925
56.969052 97.269 -155.1000
57.381873 97.307 -155.6243
57.797686 97.343 -156.1626
58.216512 97.377 -156.7109
58.638373 97.411 -157.2641
59.063291 97.445 -157.8166
59.491288 97.478 -158.3624
59.922386 97.512 -158.8969
60.356608 97.546 -159.4174
60.793977 97.581 -159.9240
61.234515 97.617 -160.4196
61.678246 97.652 -160.9086
62.125192 97.687 -161.3961
62.575377 97.720 -161.8865
63.028824 97.751 -162.3827
63.485557 97.780 -162.8864
63.945599 97.806 -163.3983
64.408975 97.828 -163.9182
64.875709 97.846 -164.4457
65.345825 97.861 -164.9799
65.819348 97.872 -165.5197
66.296302 97.879 -166.0640
66.776713 97.884 -166.6115
67.260604 97.886 -167.1607
67.748002 97.885 -167.7102
68.238932 97.883 -168.2590
68.733420 97.879 -168.8061
69.231490 97.874 -169.3513
69.733170 97.868 -169.8944
70.238485 97.862 -170.4357
70.747463 97.854 -170.9752
71.260128 97.846 -171.5127
71.776508 97.837 -172.0475
72.296630 97.826 -172.5786
72.820521 97.815 -173.1047
73.348209 97.802 -173.6246
73.879720 97.788 -174.1374
74.415083 97.772 -174.6420
74.954326 97.754 -175.1379
75.497475 97.734 -175.6245
76.044561 97.712 -176.1014
76.595612 97.689 -176.5681
77.150655 97.665 -177.0239
77.709720 97.639 -177.4684
78.272837 97.611 -177.9009
78.840034 97.583 -178.3207
79.411342 97.554 -178.7272
79.986789 97.524 -179.1202
80.566406 97.493 -179.4997
81.150224 97.463 -179.8665
81.738272 97.432 179.7785
82.330581 97.402 179.4343
82.927182 97.372 179.0995
83.528107 97.343 178.7728
84.133386 97.316 178.4528
84.743051 97.289 178.1377
85.357134 97.264 177.8262
85.975667 97.240 177.5168
86.598682 97.218 177.2082
87.226212 97.198 176.8993
87.858289 97.181 176.5889
88.494946 97.165 176.2758
89.136217 97.151 175.9590
89.782135 97.139 175.6374
90.432733 97.129 175.3103
91.088046 97.121 174.9775
91.748108 97.113 174.6390
92.412952 97.107 174.2954
93.082615 97.101 173.9473
93.757130 97.096 173.5955
94.436533 97.089 173.2405
95.120859 97.082 172.8829
95.810144 97.073 172.5226
96.504423 97.061 172.1598
97.203734 97.047 171.7942
97.908112 97.030 171.4255
98.617595 97.010 171.0536
99.332219 96.988 170.6782
100.052021 96.963 170.2992
100.777039 96.936 169.9164
101.507311 96.908 169.5298
102.242875 96.878 169.1388
102.983769 96.847 168.7433
103.730032 96.815 168.3428
104.481702 96.783 167.9373
105.238820 96.751 167.5273
106.001424 96.718 167.1137
106.769554 96.685 166.6982
107.543250 96.652 166.2828
108.322553 96.619 165.8696
109.107503 96.586 165.4603
109.898141 96.553 165.0563
110.694508 96.519 164.6584
111.496646 96.485 164.2670
112.304596 96.451 163.8817
113.118402 96.415 163.5022
113.938104 96.378 163.1281
114.763747 96.340 162.7586
115.595372 96.301 162.3934
116.433024 96.259 162.0323
117.276746 96.215 161.6754
118.126581 96.168 161.3227
118.982575 96.120 160.9744
119.844772 96.068 160.6303
120.713217 96.014 160.2905
121.587954 95.958 159.9552
122.469031 95.899 159.6246
123.356492 95.840 159.2996
124.250384 95.779 158.9810
125.150753 95.719 158.6693
126.057647 95.658 158.3653
126.971113 95.597 158.0693
127.891198 95.538 157.7814
128.817950 95.479 157.5016
129.751418 95.421 157.2299
130.691651 95.363 156.9666
131.638696 95.307 156.7116
132.592604 95.251 156.4656
133.553425 95.195 156.2286
134.521208 95.139 156.0012
135.496004 95.082 155.7838
136.477864 95.024 155.5770
137.466839 94.965 155.3814
138.462981 94.904 155.1974
139.466340 94.841 155.0251
140.476971 94.776 154.8643
141.494925 94.708 154.7149
142.520256 94.638 154.5766
143.553016 94.565 154.4492
144.593260 94.490 154.3324
145.641043 94.412 154.2259
146.696418 94.333 154.1292
147.759441 94.253 154.0417
148.830166 94.173 153.9631
149.908651 94.092 153.8929
150.994951 94.012 153.8308
152.089123 93.933 153.7773
153.191223 93.855 153.7330
154.301310 93.779 153.6987
155.419441 93.704 153.6752
156.545674 93.631 153.6630
157.680069 93.559 153.6623
158.822683 93.488 153.6732
159.973578 93.419 153.6959
161.132813 93.350 153.7306
162.300447 93.283 153.7777
163.476543 93.216 153.8374
164.661162 93.149 153.9095
165.854364 93.083 153.9933
167.056213 93.018 154.0880
168.266772 92.953 154.1930
169.486102 92.888 154.3076
170.714268 92.824 154.4316
171.951334 92.761 154.5650
173.197364 92.698 154.7079
174.452424 92.636 154.8605
175.716578 92.574 155.0230
176.989893 92.512 155.1954
178.272434 92.451 155.3778
179.564270 92.390 155.5699
180.865467 92.330 155.7718
182.176092 92.270 155.9830
183.496216 92.211 156.2033
184.825905 92.151 156.4321
186.165229 92.092 156.6687
187.514259 92.033 156.9124
188.873065 91.974 157.1621
190.241717 91.915 157.4170
191.620287 91.855 157.6762
193.008847 91.796 157.9390
194.407468 91.736 158.2048
195.816225 91.675 158.4730
197.235190 91.614 158.7430
198.664438 91.554 159.0142
200.104042 91.493 159.2861
201.554078 91.433 159.5581
203.014622 91.375 159.8297
204.485750 91.318 160.1003
205.967538 91.263 160.3698
207.460064 91.210 160.6377
208.963405 91.162 160.9040
210.477640 91.117 161.1683
212.002848 91.077 161.4302
213.539108 91.042 161.6891
215.086500 91.012 161.9446
216.645105 90.988 162.1964
218.215005 90.970 162.4446
219.796281 90.958 162.6893
221.389015 90.952 162.9309
222.993292 90.951 163.1695
224.609193 90.955 163.4049
226.236804 90.964 163.6369
227.876209 90.977 163.8651
229.527494 90.994 164.0889
231.190745 91.014 164.3082
232.866048 91.037 164.5228
234.553491 91.062 164.7328
236.253163 91.089 164.9383
237.965150 91.118 165.1393
239.689544 91.147 165.3359
241.426433 91.177 165.5277
243.175909 91.207 165.7147
244.938062 91.236 165.8966
246.712984 91.265 166.0738
248.500768 91.294 166.2463
250.301507 91.321 166.4149
252.115295 91.348 166.5804
253.942226 91.374 166.7438
255.782396 91.399 166.9061
257.635901 91.422 167.0681
259.502837 91.445 167.2302
261.383301 91.467 167.3925
263.277392 91.487 167.5548
265.185209 91.506 167.7171
267.106850 91.524 167.8792
269.042417 91.541 168.0410
270.992009 91.555 168.2028
272.955729 91.568 168.3647
274.933678 91.579 168.5273
276.925961 91.587 168.6906
278.932681 91.592 168.8548
280.953942 91.595 169.0197
282.989850 91.595 169.1845
285.040511 91.592 169.3485
287.106032 91.586 169.5108
289.186521 91.577 169.6703
291.282086 91.566 169.8259
293.392836 91.553 169.9765
295.518881 91.538 170.1205
297.660333 91.521 170.2563
299.817302 91.504 170.3824
301.989902 91.486 170.4974
304.178245 91.467 170.5999
306.382446 91.449 170.6889
308.602620 91.432 170.7636
310.838882 91.416 170.8237
313.091348 91.401 170.8693
315.360137 91.389 170.9005
317.645367 91.379 170.9179
319.947156 91.372 170.9223
322.265625 91.368 170.9147
324.600895 91.367 170.8961
326.953086 91.370 170.8676
329.322323 91.377 170.8303
331.708729 91.388 170.7852
334.112427 91.402 170.7332
336.533543 91.421 170.6751
338.972204 91.443 170.6118
341.428536 91.469 170.5437
343.902668 91.499 170.4715
346.394729 91.532 170.3956
348.904848 91.567 170.3167
351.433156 91.604 170.2349
353.979786 91.642 170.1508
356.544869 91.681 170.0647
359.128540 91.719 169.9769
361.730934 91.755 169.8877
364.352185 91.789 169.7977
366.992431 91.820 169.7073
369.651810 91.847 169.6172
372.330459 91.869 169.5279
375.028519 91.886 169.4398
377.746130 91.898 169.3532
380.483434 91.904 169.2682
383.240574 91.905 169.1847
386.017693 91.900 169.1023
388.814937 91.891 169.0207
391.632450 91.877 168.9393
394.470380 91.860 168.8577
397.328875 91.840 168.7756
400.208084 91.819 168.6926
403.108157 91.797 168.6085
406.029245 91.776 168.5234
408.971500 91.757 168.4374
411.935076 91.740 168.3505
414.920127 91.727 168.2632
417.926810 91.717 168.1755
420.955280 91.710 168.0877
424.005695 91.707 168.0001
427.078215 91.708 167.9129
430.173000 91.711 167.8265
433.290211 91.716 167.7411
436.430010 91.723 167.6569
439.592562 91.729 167.5742
442.778031 91.734 167.4930
445.986583 91.738 167.4136
449.218386 91.739 167.3360
452.473607 91.738 167.2603
455.752418 91.733 167.1866
459.054987 91.726 167.1148
462.381489 91.715 167.0450
465.732096 91.701 166.9769
469.106983 91.684 166.9108
472.506325 91.665 166.8464
475.930301 91.643 166.7839
479.379088 91.620 166.7230
482.852867 91.595 166.6640
486.351817 91.569 166.6071
489.876123 91.542 166.5528
493.425968 91.514 166.5018
497.001536 91.486 166.4550
500.603014 91.459 166.4134
504.230589 91.434 166.3782
507.884452 91.410 166.3503
511.564792 91.390 166.3310
515.271802 91.375 166.3209
519.005673 91.364 166.3208
522.766602 91.359 166.3310
526.554785 91.360 166.3518
530.370418 91.368 166.3835
534.213700 91.381 166.4261
538.084833 91.400 166.4796
541.984018 91.423 166.5436
545.911457 91.450 166.6176
549.867357 91.478 166.7007
553.851922 91.507 166.7923
557.865362 91.535 166.8912
561.907884 91.560 166.9965
565.979700 91.582 167.1073
570.081022 91.598 167.2228
574.212064 91.609 167.3420
578.373042 91.612 167.4642
582.564171 91.608 167.5886
586.785671 91.595 167.7144
591.037762 91.573 167.8410
595.320665 91.542 167.9681
599.634604 91.502 168.0952
603.979804 91.453 168.2222
608.356491 91.395 168.3488
612.764893 91.330 168.4748
617.205240 91.260 168.6000
621.677763 91.184 168.7242
626.182696 91.106 168.8467
630.720274 91.028 168.9670
635.290733 90.950 169.0845
639.894312 90.875 169.1986
644.531250 90.804 169.3088
649.201789 90.738 169.4147
653.906173 90.679 169.5161
658.644647 90.628 169.6132
663.417457 90.585 169.7061
668.224854 90.550 169.7953
673.067086 90.524 169.8816
677.944408 90.507 169.9659
682.857073 90.499 170.0491
687.805336 90.499 170.1321
692.789457 90.508 170.2156
697.809695 90.524 170.3000
702.866312 90.547 170.3857
707.959571 90.575 170.4727
713.089738 90.608 170.5610
718.257080 90.644 170.6508
723.461867 90.681 170.7420
728.704370 90.718 170.8350
733.984862 90.754 170.9302
739.303619 90.787 171.0282
744.660918 90.817 171.1294
750.057038 90.843 171.2344
755.492260 90.866 171.3437
760.966869 90.885 171.4578
766.481148 90.901 171.5770
772.035387 90.915 171.7014
777.629873 90.927 171.8307
783.264900 90.938 171.9645
788.940760 90.947 172.1016
794.657750 90.954 172.2407
800.416168 90.960 172.3796
806.216313 90.963 172.5154
812.058489 90.962 172.6445
817.943000 90.958 172.7625
823.870152 90.949 172.8645
829.840255 90.936 172.9449
835.853619 90.918 172.9984
841.910559 90.896 173.0194
848.011390 90.871 173.0038
854.156430 90.842 172.9488
860.346000 90.812 172.8536
866.580422 90.781 172.7204
872.860020 90.749 172.5539
879.185124 90.719 172.3618
885.556062 90.690 172.1535
891.973166 90.665 171.9396
898.436771 90.644 171.7306
904.947215 90.627 171.5355
911.504835 90.616 171.3613
918.109975 90.611 171.2128
924.762978 90.612 171.0923
931.464192 90.618 171.0004
938.213966 90.629 170.9358
945.012651 90.644 170.8964
951.860602 90.661 170.8793
958.758176 90.680 170.8817
965.705733 90.699 170.9005
972.703635 90.717 170.9331
979.752246 90.735 170.9771
986.851935 90.751 171.0306
994.003071 90.765 171.0921
1001.206027 90.778 171.1606
1008.461179 90.790 171.2357
1015.768904 90.801 171.3170
1023.129584 90.814 171.4046
1030.543603 90.829 171.4988
1038.011347 90.846 171.6000
1045.533205 90.868 171.7087
1053.109569 90.894 171.8258
1060.740836 90.926 171.9520
1068.427401 90.963 172.0884
1076.169666 91.005 172.2364
1083.968035 91.051 172.3975
1091.822915 91.101 172.5737
1099.734713 91.153 172.7667
1107.703844 91.207 172.9789
1115.730723 91.260 173.2124
1123.815768 91.313 173.4692
1131.959400 91.366 173.7513
1140.162045 91.417 174.0596
1148.424129 91.470 174.3939
1156.746083 91.524 174.7518
1165.128342 91.582 175.1288
1173.571343 91.646 175.5164
1182.075524 91.720 175.9025
1190.641331 91.804 176.2708
1199.269209 91.901 176.6015
1207.959608 92.012 176.8726
1216.712981 92.134 177.0619
1225.529785 92.266 177.1505
1234.410479 92.404 177.1260
1243.355526 92.544 176.9850
1252.365393 92.681 176.7341
1261.440549 92.812 176.3897
1270.581467 92.934 175.9747
1279.788624 93.045 175.5151
1289.062500 93.145 175.0364
1298.403578 93.234 174.5610
1307.812346 93.314 174.1066
1317.289293 93.386 173.6857
1326.834914 93.450 173.3058
1336.449707 93.510 172.9701
1346.134173 93.564 172.6786
1355.888816 93.616 172.4290
1365.714145 93.664 172.2169
1375.610673 93.710 172.0375
1385.578915 93.753 171.8856
1395.619391 93.795 171.7557
1405.732624 93.834 171.6429
1415.919142 93.872 171.5428
1426.179476 93.909 171.4513
1436.514160 93.945 171.3650
1446.923734 93.979 171.2808
1457.408740 94.012 171.1962
1467.969724 94.045 171.1092
1478.607238 94.076 171.0182
1489.321836 94.107 170.9216
1500.114076 94.135 170.8185
1510.984521 94.162 170.7079
1521.933737 94.187 170.5891
1532.962297 94.209 170.4614
1544.070773 94.228 170.3246
1555.259747 94.244 170.1782
1566.529800 94.256 170.0221
1577.881521 94.266 169.8562
1589.315501 94.273 169.6805
1600.832336 94.278 169.4952
1612.432627 94.281 169.3005
1624.116978 94.283 169.0967
1635.886000 94.283 168.8843
1647.740304 94.283 168.6639
1659.680509 94.282 168.4357
1671.707238 94.280 168.2005
1683.821118 94.277 167.9585
1696.022780 94.272 167.7103
1708.312860 94.267 167.4561
1720.692000 94.260 167.1964
1733.160843 94.253 166.9314
1745.720041 94.244 166.6616
1758.370248 94.235 166.3873
1771.112124 94.227 166.1088
1783.946332 94.219 165.8265
1796.873543 94.211 165.5407
1809.894429 94.205 165.2517
1823.009670 94.199 164.9598
1836.219950 94.193 164.6654
1849.525956 94.188 164.3687
1862.928384 94.181 164.0702
1876.427931 94.173 163.7702
1890.025301 94.162 163.4691
1903.721204 94.148 163.1672
1917.516352 94.129 162.8651
1931.411466 94.107 162.5631
1945.407270 94.079 162.2617
1959.504493 94.047 161.9615
1973.703870 94.010 161.6633
1988.006142 93.968 161.3676
2002.412054 93.922 161.0753
2016.922357 93.874 160.7871
2031.537808 93.823 160.5041
2046.259169 93.770 160.2272
2061.087206 93.717 159.9572
2076.022694 93.664 159.6953
2091.066410 93.612 159.4422
2106.219139 93.561 159.1985
2121.481671 93.514 158.9648
2136.854802 93.470 158.7413
2152.339333 93.429 158.5278
2167.936071 93.393 158.3240
2183.645829 93.363 158.1290
2199.469427 93.338 157.9420
2215.407689 93.319 157.7616
2231.461446 93.306 157.5863
2247.631536 93.301 157.4145
2263.918800 93.302 157.2448
2280.324089 93.309 157.0759
2296.848258 93.323 156.9067
2313.492167 93.343 156.7369
2330.256685 93.367 156.5666
2347.142685 93.396 156.3962
2364.151049 93.428 156.2270
2381.282662 93.462 156.0603
2398.538418 93.498 155.8978
2415.919216 93.534 155.7414
2433.425962 93.569 155.5931
2451.059570 93.603 155.4546
2468.820958 93.634 155.3276
2486.711052 93.663 155.2134
2504.730786 93.687 155.1131
2522.881098 93.708 155.0272
2541.162934 93.723 154.9562
2559.577248 93.733 154.9001
2578.125000 93.738 154.8587
2596.807157 93.736 154.8318
2615.624692 93.727 154.8188
2634.578586 93.712 154.8196
2653.669829 93.690 154.8338
2672.899414 93.662 154.8613
2692.268345 93.626 154.9019
2711.777632 93.583 154.9557
2731.428290 93.533 155.0227
2751.221345 93.477 155.1025
2771.157829 93.415 155.1949
2791.238781 93.347 155.2996
2811.465248 93.273 155.4160
2831.838284 93.194 155.5438
2852.358952 93.109 155.6828
2873.028321 93.020 155.8325
2893.847468 92.927 155.9930
2914.817480 92.829 156.1642
2935.939449 92.728 156.3459
2957.214476 92.623 156.5382
2978.643672 92.514 156.7413
3000.228152 92.403 156.9550
3021.969041 92.289 157.1797
3043.867475 92.172 157.4155
3065.924593 92.053 157.6630
3088.141547 91.933 157.9227
3110.519493 91.810 158.1960
3133.059600 91.686 158.4845
3155.763041 91.561 158.7903
3178.631001 91.435 159.1160
3201.664672 91.307 159.4648
3224.865254 91.179 159.8401
3248.233957 91.050 160.2457
3271.771999 90.922 160.6856
3295.480608 90.795 161.1637
3319.361019 90.669 161.6840
3343.414477 90.547 162.2500
3367.642236 90.428 162.8652
3392.045560 90.315 163.5329
3416.625721 90.208 164.2558
3441.383999 90.109 165.0367
3466.321686 90.019 165.8778
3491.440082 89.940 166.7812
3516.740496 89.873 167.7479
3542.224247 89.819 168.7780
3567.892664 89.780 169.8697
3593.747085 89.757 171.0190
3619.788858 89.753 172.2188
3646.019340 89.769 173.4585
3672.439900 89.805 174.7245
3699.051913 89.861 176.0008
3725.856768 89.939 177.2695
3752.855862 90.036 178.5132
3780.050603 90.153 179.7158
3807.442408 90.287 -179.1365
3835.032705 90.436 -178.0545
3862.822933 90.599 -177.0461
3890.814540 90.774 -176.1164
3919.008986 90.958 -175.2688
3947.407741 91.150 -174.5050
3976.012284 91.349 -173.8255
4004.824108 91.551 -173.2300
4033.844715 91.757 -172.7174
4063.075616 91.964 -172.2860
4092.518337 92.172 -171.9336
4122.174412 92.379 -171.6572
4152.045387 92.584 -171.4537
4182.132820 92.786 -171.3191
4212.438278 92.986 -171.2492
4242.963342 93.182 -171.2395
4273.709604 93.374 -171.2856
4304.678665 93.564 -171.3835
4335.872141 93.750 -171.5298
4367.291658 93.934 -171.7224
4398.938854 94.116 -171.9604
4430.815378 94.296 -172.2443
4462.922893 94.475 -172.5755
4495.263072 94.652 -172.9561
4527.837601 94.827 -173.3884
4560.648179 95.000 -173.8746
4593.696515 95.169 -174.4164
4626.984334 95.335 -175.0147
4660.513370 95.495 -175.6692
4694.285371 95.649 -176.3787
4728.302098 95.795 -177.1406
4762.565324 95.934 -177.9515
4797.076835 96.062 -178.8067
4831.838432 96.181 -179.7010
4866.851925 96.288 179.3720
4902.119140 96.383 178.4189
4937.641916 96.466 177.4467
4973.422105 96.537 176.4630
5009.461572 96.595 175.4749
5045.762195 96.640 174.4901
5082.325868 96.672 173.5158
5119.154496 96.692 172.5592
5156.250000 96.700 171.6272
5193.614313 96.695 170.7258
5231.249383 96.679 169.8608
5269.157173 96.652 169.0370
5307.339658 96.614 168.2579
5345.798829 96.566 167.5265
5384.536691 96.508 166.8440
5423.555263 96.442 166.2108
5462.856580 96.368 165.6254
5502.442691 96.287 165.0856
5542.315659 96.200 164.5875
5582.477563 96.109 164.1262
5622.930497 96.014 163.6957
5663.676569 95.917 163.2898
5704.717904 95.819 162.9015
5746.056642 95.721 162.5240
5787.694937 95.624 162.1509
5829.634960 95.529 161.7763
5871.878898 95.436 161.3953
5914.428953 95.346 161.0041
5957.287343 95.257 160.6005
6000.456303 95.170 160.1837
6043.938083 95.083 159.7546
6087.734950 94.997 159.3155
6131.849187 94.909 158.8701
6176.283094 94.819 158.4230
6221.038987 94.726 157.9791
6266.119200 94.630 157.5430
6311.526083 94.531 157.1188
6357.262002 94.429 156.7091
6403.329344 94.325 156.3149
6449.730508 94.221 155.9352
6496.467914 94.117 155.5667
6543.543998 94.016 155.2036
6590.961215 93.919 154.8381
6638.722037 93.830 154.4600
6686.828954 93.750 154.0573
6735.284473 93.682 153.6162
6784.091120 93.626 153.1222
6833.251441 93.584 152.5600
6882.767998 93.557 151.9141
6932.643372 93.544 151.1699
6982.880164 93.545 150.3133
7033.480992 93.557 149.3321
7084.448495 93.577 148.2157
7135.785329 93.604 146.9554
7187.494171 93.634 145.5446
7239.577717 93.662 143.9786
7292.038681 93.687 142.2539
7344.879799 93.704 140.3683
7398.103826 93.710 138.3196
7451.713536 93.704 136.1054
7505.711724 93.685 133.7216
7560.101205 93.650 131.1622
7614.884815 93.601 128.4179
7670.065409 93.539 125.4755
7725.645865 93.464 122.3176
7781.629080 93.378 118.9215
7838.017972 93.284 115.2595
7894.815481 93.184 111.2988
7952.024569 93.078 107.0012
8009.648217 92.968 102.3237
8067.689429 92.854 97.2189
8126.151233 92.735 91.6350
8185.036674 92.609 85.5162
8244.348824 92.472 78.8033
8304.090774 92.322 71.4343
8364.265639 92.156 63.3479
8424.876556 91.970 54.4894
8485.926684 91.764 44.8250
8547.419207 91.537 34.3638
8609.357330 91.291 23.1882
8671.744282 91.032 11.4822
8734.583316 90.765 -0.4652
8797.877707 90.498 -12.2966
8861.630756 90.243 -23.6603
8925.845785 90.010 -34.2845
8990.526143 89.810 -44.0165
9055.675202 89.651 -52.8168
9121.296357 89.542 -60.7304
9187.393031 89.484 -67.8507
9253.968668 89.475 -74.2923
9321.026740 89.509 -80.1719
9388.570742 89.577 -85.5975
9456.604196 89.665 -90.6622
9525.130648 89.761 -95.4402
9594.153671 89.851 -99.9863
9663.676863 89.924 -104.3364
9733.703850 89.971 -108.5085
9804.238280 89.985 -112.5071
9875.283832 89.961 -116.3260
9946.844210 89.900 -119.9539
10018.923143 89.801 -123.3778
10091.524390 89.669 -126.5878
10164.651736 89.510 -129.5795
10238.308993 89.328 -132.3561
10312.500000 89.130 -134.9293
10387.228626 88.924 -137.3186
10462.498767 88.714 -139.5505
10538.314345 88.506 -141.6564
10614.679315 88.302 -143.6704
10691.597657 88.104 -145.6271
10769.073381 87.912 -147.5594
10847.110526 87.724 -149.4969
10925.713161 87.538 -151.4642
11004.885382 87.349 -153.4798
11084.631318 87.152 -155.5549
11164.955126 86.943 -157.6930
11245.860993 86.714 -159.8886
11327.353138 86.461 -162.1274
11409.435808 86.178 -164.3859
11492.113283 85.861 -166.6329
11575.389873 85.507 -168.8323
11659.269920 85.116 -170.9467
11743.757796 84.689 -172.9437
11828.857906 84.229 -174.8022
11914.574686 83.745 -176.5189
12000.912606 83.243 -178.1125
12087.876166 82.733 -179.6250
12175.469900 82.226 178.8811
12263.698373 81.728 177.3298
12352.566187 81.247 175.6403
12442.077974 80.784 173.7360
12532.238400 80.339 171.5520
12623.052165 79.907 169.0383
12714.524005 79.481 166.1606
12806.658687 79.055 162.8969
12899.461015 78.618 159.2324
12992.935827 78.163 155.1522
13087.087996 77.686 150.6293
13181.922430 77.183 145.6074
13277.444074 76.656 139.9678
13373.657907 76.110 133.4589
13470.568945 75.554 125.5231
13568.182241 75.004 114.7892
13666.502883 74.479 97.3113
13765.535996 74.000 61.4457
13865.286744 73.589 7.7258
13965.760328 73.264 -23.7855
14066.961984 73.035 -39.5863
14168.896989 72.903 -49.6940
14271.570658 72.857 -57.4036
14374.988342 72.881 -63.9248
14479.155433 72.956 -69.7927
14584.077362 73.060 -75.2806
14689.759598 73.176 -80.5448
14796.207652 73.288 -85.6814
14903.427072 73.383 -90.7527
15011.423448 73.453 -95.8005
15120.202410 73.492 -100.8535
15229.769630 73.494 -105.9322
15340.130819 73.458 -111.0516
15451.291730 73.381 -116.2231
15563.258160 73.260 -121.4545
15676.035944 73.093 -126.7493
15789.630962 72.877 -132.1047
15904.049137 72.609 -137.5098
16019.296433 72.285 -142.9434
16135.378859 71.901 -148.3729
16252.302465 71.454 -153.7532
16370.073348 70.941 -159.0259
16488.697648 70.361 -164.1179
16608.181548 69.714 -168.9403
16728.531278 69.000 -173.3849
16849.753112 68.221 -177.3186
16971.853368 67.383 179.4221
17094.838414 66.490 177.0354
17218.714660 65.550 175.7468
17343.488565 64.574 175.7708
17469.166632 63.574 177.2146
17595.755415 62.566 179.9258
17723.261512 61.568 -176.6328
17851.691571 60.599 -173.2961
17981.052287 59.677 -170.8708
18111.350404 58.815 -169.8333
18242.592715 58.019 -170.2859
18374.786062 57.290 -172.0969
18507.937336 56.618 -175.0483
18642.053479 55.990 -178.9231
18777.141484 55.394 176.4636
18913.208391 54.816 171.2607
19050.261296 54.251 165.5942
19188.307342 53.696 159.5898
19327.353727 53.156 153.4048
19467.407699 52.645 147.2649
19608.476560 52.183 141.4963
19750.567664 51.797 136.5292
19893.688419 51.517 132.8462
20037.846286 51.369 130.8774
