* Measurement data measured by REW V5.31.3
* Source: EXCL: Headset (USB-C to 3.5mm Headphone Jack Adapter), MICROPHONE (Master Volume), 0, volume: 0.260
* Format: 256k Log Swept Sine, 1 sweep at -12.0 dBFS with no timing reference
* Dated: Mar 5, 2025 11:01:09 AM
* REW Settings:
*  C-weighting compensation: Off
*  Target level: 75.0 dB
* Note: ; 
* Measurement: Ouroboros (glasses) L6
* Smoothing: 1/6 octave
* Frequency Step: 96 ppo
* Start Frequency: 20.0 Hz
*
* Freq(Hz) SPL(dB) Phase(degrees)
20.141602 91.324 -73.0072
20.287556 91.318 -73.1706
20.434568 91.310 -73.3867
20.582645 91.300 -73.6459
20.731796 91.287 -73.9387
20.882027 91.272 -74.2564
21.033346 91.256 -74.5922
21.185763 91.239 -74.9415
21.339284 91.221 -75.3024
21.493917 91.203 -75.6752
21.649671 91.186 -76.0620
21.806553 91.170 -76.4662
21.964572 91.155 -76.8920
22.123737 91.143 -77.3432
22.284054 91.134 -77.8235
22.445534 91.127 -78.3353
22.608183 91.123 -78.8798
22.772012 91.122 -79.4567
22.937027 91.125 -80.0644
23.103238 91.131 -80.7000
23.270654 91.140 -81.3595
23.439282 91.153 -82.0383
23.609133 91.169 -82.7309
23.780215 91.188 -83.4316
23.952536 91.210 -84.1342
24.126106 91.233 -84.8325
24.300934 91.257 -85.5205
24.477028 91.281 -86.1922
24.654399 91.305 -86.8427
24.833055 91.327 -87.4678
25.013005 91.349 -88.0649
25.194260 91.370 -88.6336
25.376828 91.390 -89.1755
25.560719 91.411 -89.6947
25.745942 91.432 -90.1977
25.932508 91.455 -90.6923
26.120426 91.481 -91.1876
26.309705 91.509 -91.6921
26.500356 91.539 -92.2131
26.692388 91.572 -92.7557
26.885812 91.607 -93.3216
27.080638 91.644 -93.9096
27.276876 91.682 -94.5153
27.474535 91.722 -95.1321
27.673627 91.762 -95.7525
27.874161 91.803 -96.3689
28.076149 91.845 -96.9752
28.279600 91.887 -97.5673
28.484526 91.930 -98.1439
28.690937 91.972 -98.7058
28.898843 92.012 -99.2554
29.108256 92.050 -99.7963
29.319186 92.084 -100.3317
29.531645 92.113 -100.8643
29.745644 92.136 -101.3958
29.961193 92.153 -101.9270
30.178304 92.165 -102.4581
30.396989 92.172 -102.9896
30.617258 92.175 -103.5222
30.839123 92.177 -104.0571
31.062596 92.177 -104.5959
31.287688 92.178 -105.1393
31.514412 92.179 -105.6870
31.742778 92.183 -106.2370
31.972800 92.190 -106.7850
32.204488 92.199 -107.3252
32.437855 92.213 -107.8513
32.672913 92.230 -108.3576
32.909674 92.253 -108.8404
33.148151 92.281 -109.2993
33.388356 92.315 -109.7368
33.630302 92.355 -110.1585
33.874001 92.398 -110.5712
34.119466 92.443 -110.9815
34.366710 92.488 -111.3941
34.615745 92.530 -111.8107
34.866585 92.567 -112.2298
35.119243 92.598 -112.6476
35.373731 92.621 -113.0593
35.630064 92.637 -113.4603
35.888254 92.645 -113.8483
36.148315 92.647 -114.2238
36.410261 92.644 -114.5895
36.674104 92.636 -114.9500
36.939860 92.624 -115.3102
37.207542 92.608 -115.6736
37.477163 92.588 -116.0414
37.748738 92.564 -116.4120
38.022281 92.536 -116.7819
38.297806 92.505 -117.1467
38.575327 92.471 -117.5019
38.854860 92.435 -117.8451
39.136419 92.398 -118.1759
39.420017 92.362 -118.4961
39.705671 92.328 -118.8096
39.993395 92.296 -119.1205
40.283203 92.267 -119.4329
40.575112 92.240 -119.7491
40.869136 92.215 -120.0693
41.165290 92.191 -120.3915
41.463591 92.169 -120.7120
41.764053 92.147 -121.0255
42.066693 92.127 -121.3267
42.371525 92.107 -121.6106
42.678567 92.089 -121.8738
42.987834 92.073 -122.1146
43.299341 92.061 -122.3334
43.613106 92.054 -122.5325
43.929145 92.054 -122.7159
44.247473 92.060 -122.8887
44.568109 92.074 -123.0560
44.891068 92.096 -123.2228
45.216367 92.124 -123.3931
45.544023 92.157 -123.5696
45.874054 92.194 -123.7539
46.206476 92.233 -123.9465
46.541307 92.272 -124.1470
46.878565 92.310 -124.3546
47.218266 92.345 -124.5685
47.560429 92.378 -124.7878
47.905072 92.408 -125.0116
48.252212 92.436 -125.2390
48.601867 92.462 -125.4692
48.954056 92.487 -125.7018
49.308798 92.513 -125.9366
49.666109 92.540 -126.1740
50.026010 92.569 -126.4149
50.388520 92.600 -126.6603
50.753656 92.633 -126.9110
51.121437 92.667 -127.1675
51.491884 92.703 -127.4294
51.865016 92.739 -127.6961
52.240851 92.776 -127.9662
52.619410 92.813 -128.2379
53.000712 92.849 -128.5090
53.384777 92.885 -128.7770
53.771625 92.919 -129.0397
54.161276 92.953 -129.2951
54.553751 92.984 -129.5421
54.949070 93.013 -129.7796
55.347254 93.040 -130.0070
55.748323 93.066 -130.2231
56.152298 93.090 -130.4265
56.559201 93.114 -130.6156
56.969052 93.138 -130.7895
57.381873 93.163 -130.9484
57.797686 93.188 -131.0950
58.216512 93.215 -131.2352
58.638373 93.244 -131.3787
59.063291 93.273 -131.5378
59.491288 93.304 -131.7259
59.922386 93.336 -131.9539
60.356608 93.368 -132.2275
60.793977 93.401 -132.5456
61.234515 93.434 -132.9011
61.678246 93.468 -133.2828
62.125192 93.503 -133.6783
62.575377 93.538 -134.0766
63.028824 93.573 -134.4693
63.485557 93.608 -134.8512
63.945599 93.642 -135.2201
64.408975 93.673 -135.5761
64.875709 93.704 -135.9207
65.345825 93.732 -136.2558
65.819348 93.759 -136.5835
66.296302 93.785 -136.9055
66.776713 93.811 -137.2238
67.260604 93.836 -137.5401
67.748002 93.861 -137.8562
68.238932 93.886 -138.1738
68.733420 93.911 -138.4934
69.231490 93.936 -138.8153
69.733170 93.962 -139.1387
70.238485 93.988 -139.4628
70.747463 94.014 -139.7863
71.260128 94.040 -140.1088
71.776508 94.065 -140.4301
72.296630 94.091 -140.7510
72.820521 94.116 -141.0722
73.348209 94.141 -141.3946
73.879720 94.165 -141.7189
74.415083 94.189 -142.0453
74.954326 94.213 -142.3736
75.497475 94.237 -142.7032
76.044561 94.260 -143.0336
76.595612 94.283 -143.3640
77.150655 94.305 -143.6940
77.709720 94.326 -144.0229
78.272837 94.347 -144.3505
78.840034 94.366 -144.6760
79.411342 94.385 -144.9989
79.986789 94.403 -145.3184
80.566406 94.421 -145.6340
81.150224 94.439 -145.9449
81.738272 94.457 -146.2508
82.330581 94.474 -146.5513
82.927182 94.492 -146.8461
83.528107 94.509 -147.1355
84.133386 94.527 -147.4200
84.743051 94.544 -147.7004
85.357134 94.562 -147.9780
85.975667 94.580 -148.2542
86.598682 94.599 -148.5305
87.226212 94.619 -148.8084
87.858289 94.640 -149.0894
88.494946 94.663 -149.3749
89.136217 94.687 -149.6656
89.782135 94.713 -149.9621
90.432733 94.741 -150.2643
91.088046 94.770 -150.5717
91.748108 94.800 -150.8838
92.412952 94.831 -151.2002
93.082615 94.862 -151.5206
93.757130 94.893 -151.8450
94.436533 94.924 -152.1733
95.120859 94.953 -152.5056
95.810144 94.981 -152.8416
96.504423 95.007 -153.1811
97.203734 95.030 -153.5234
97.908112 95.051 -153.8681
98.617595 95.070 -154.2142
99.332219 95.086 -154.5610
100.052021 95.100 -154.9075
100.777039 95.113 -155.2533
101.507311 95.125 -155.5982
102.242875 95.135 -155.9427
102.983769 95.146 -156.2881
103.730032 95.155 -156.6359
104.481702 95.165 -156.9877
105.238820 95.174 -157.3449
106.001424 95.184 -157.7081
106.769554 95.195 -158.0774
107.543250 95.206 -158.4522
108.322553 95.217 -158.8311
109.107503 95.230 -159.2126
109.898141 95.243 -159.5950
110.694508 95.257 -159.9770
111.496646 95.271 -160.3579
112.304596 95.285 -160.7378
113.118402 95.300 -161.1175
113.938104 95.313 -161.4981
114.763747 95.326 -161.8805
115.595372 95.337 -162.2654
116.433024 95.348 -162.6528
117.276746 95.356 -163.0420
118.126581 95.363 -163.4320
118.982575 95.368 -163.8214
119.844772 95.371 -164.2088
120.713217 95.373 -164.5937
121.587954 95.373 -164.9763
122.469031 95.373 -165.3574
123.356492 95.371 -165.7382
124.250384 95.369 -166.1196
125.150753 95.367 -166.5019
126.057647 95.364 -166.8849
126.971113 95.363 -167.2678
127.891198 95.361 -167.6493
128.817950 95.361 -168.0282
129.751418 95.360 -168.4037
130.691651 95.361 -168.7756
131.638696 95.362 -169.1441
132.592604 95.364 -169.5097
133.553425 95.365 -169.8729
134.521208 95.367 -170.2339
135.496004 95.367 -170.5929
136.477864 95.367 -170.9497
137.466839 95.364 -171.3045
138.462981 95.360 -171.6576
139.466340 95.353 -172.0094
140.476971 95.344 -172.3604
141.494925 95.333 -172.7113
142.520256 95.319 -173.0621
143.553016 95.302 -173.4129
144.593260 95.283 -173.7630
145.641043 95.263 -174.1120
146.696418 95.240 -174.4589
147.759441 95.216 -174.8031
148.830166 95.192 -175.1441
149.908651 95.166 -175.4819
150.994951 95.140 -175.8165
152.089123 95.114 -176.1479
153.191223 95.087 -176.4761
154.301310 95.062 -176.8007
155.419441 95.037 -177.1214
156.545674 95.012 -177.4379
157.680069 94.988 -177.7498
158.822683 94.965 -178.0572
159.973578 94.942 -178.3600
161.132813 94.919 -178.6586
162.300447 94.895 -178.9538
163.476543 94.871 -179.2460
164.661162 94.846 -179.5357
165.854364 94.820 -179.8230
167.056213 94.793 179.8925
168.266772 94.765 179.6118
169.486102 94.735 179.3357
170.714268 94.703 179.0655
171.951334 94.671 178.8020
173.197364 94.637 178.5457
174.452424 94.602 178.2967
175.716578 94.567 178.0549
176.989893 94.530 177.8201
178.272434 94.492 177.5922
179.564270 94.452 177.3711
180.865467 94.412 177.1567
182.176092 94.370 176.9493
183.496216 94.327 176.7492
184.825905 94.282 176.5565
186.165229 94.236 176.3714
187.514259 94.188 176.1940
188.873065 94.138 176.0243
190.241717 94.087 175.8624
191.620287 94.034 175.7084
193.008847 93.979 175.5626
194.407468 93.923 175.4250
195.816225 93.864 175.2959
197.235190 93.804 175.1751
198.664438 93.742 175.0623
200.104042 93.679 174.9575
201.554078 93.615 174.8606
203.014622 93.550 174.7715
204.485750 93.486 174.6899
205.967538 93.422 174.6154
207.460064 93.359 174.5469
208.963405 93.299 174.4834
210.477640 93.241 174.4240
212.002848 93.187 174.3676
213.539108 93.137 174.3140
215.086500 93.091 174.2628
216.645105 93.050 174.2138
218.215005 93.015 174.1669
219.796281 92.985 174.1222
221.389015 92.960 174.0798
222.993292 92.940 174.0400
224.609193 92.925 174.0034
226.236804 92.913 173.9703
227.876209 92.905 173.9412
229.527494 92.900 173.9166
231.190745 92.897 173.8969
232.866048 92.897 173.8821
234.553491 92.899 173.8728
236.253163 92.903 173.8690
237.965150 92.908 173.8709
239.689544 92.914 173.8788
241.426433 92.921 173.8928
243.175909 92.928 173.9125
244.938062 92.936 173.9377
246.712984 92.943 173.9681
248.500768 92.951 174.0032
250.301507 92.959 174.0424
252.115295 92.966 174.0853
253.942226 92.973 174.1317
255.782396 92.980 174.1814
257.635901 92.987 174.2340
259.502837 92.993 174.2892
261.383301 93.000 174.3461
263.277392 93.006 174.4038
265.185209 93.011 174.4611
267.106850 93.016 174.5169
269.042417 93.020 174.5708
270.992009 93.023 174.6224
272.955729 93.024 174.6718
274.933678 93.022 174.7192
276.925961 93.017 174.7649
278.932681 93.009 174.8091
280.953942 92.998 174.8519
282.989850 92.983 174.8934
285.040511 92.964 174.9337
287.106032 92.942 174.9727
289.186521 92.915 175.0106
291.282086 92.886 175.0470
293.392836 92.852 175.0820
295.518881 92.816 175.1155
297.660333 92.776 175.1475
299.817302 92.734 175.1784
301.989902 92.691 175.2084
304.178245 92.646 175.2382
306.382446 92.600 175.2679
308.602620 92.555 175.2980
310.838882 92.512 175.3285
313.091348 92.470 175.3592
315.360137 92.431 175.3898
317.645367 92.395 175.4200
319.947156 92.363 175.4496
322.265625 92.335 175.4783
324.600895 92.312 175.5062
326.953086 92.294 175.5331
329.322323 92.282 175.5588
331.708729 92.274 175.5831
334.112427 92.273 175.6054
336.533543 92.276 175.6252
338.972204 92.285 175.6423
341.428536 92.300 175.6563
343.902668 92.319 175.6671
346.394729 92.343 175.6746
348.904848 92.370 175.6791
351.433156 92.401 175.6805
353.979786 92.434 175.6790
356.544869 92.468 175.6744
359.128540 92.503 175.6671
361.730934 92.538 175.6572
364.352185 92.571 175.6449
366.992431 92.601 175.6307
369.651810 92.629 175.6151
372.330459 92.653 175.5988
375.028519 92.672 175.5826
377.746130 92.686 175.5674
380.483434 92.696 175.5540
383.240574 92.700 175.5430
386.017693 92.700 175.5352
388.814937 92.695 175.5306
391.632450 92.686 175.5292
394.470380 92.675 175.5309
397.328875 92.663 175.5352
400.208084 92.650 175.5417
403.108157 92.638 175.5498
406.029245 92.628 175.5591
408.971500 92.621 175.5688
411.935076 92.619 175.5777
414.920127 92.621 175.5848
417.926810 92.629 175.5884
420.955280 92.642 175.5872
424.005695 92.661 175.5795
427.078215 92.685 175.5639
430.173000 92.714 175.5392
433.290211 92.745 175.5044
436.430010 92.779 175.4585
439.592562 92.815 175.4011
442.778031 92.850 175.3317
445.986583 92.884 175.2501
449.218386 92.917 175.1565
452.473607 92.946 175.0511
455.752418 92.973 174.9345
459.054987 92.996 174.8075
462.381489 93.015 174.6710
465.732096 93.031 174.5260
469.106983 93.042 174.3735
472.506325 93.051 174.2144
475.930301 93.056 174.0498
479.379088 93.059 173.8809
482.852867 93.059 173.7088
486.351817 93.058 173.5344
489.876123 93.054 173.3589
493.425968 93.050 173.1829
497.001536 93.045 173.0073
500.603014 93.040 172.8326
504.230589 93.037 172.6593
507.884452 93.035 172.4877
511.564792 93.037 172.3181
515.271802 93.042 172.1510
519.005673 93.052 171.9868
522.766602 93.067 171.8261
526.554785 93.087 171.6696
530.370418 93.112 171.5181
534.213700 93.142 171.3723
538.084833 93.177 171.2333
541.984018 93.214 171.1015
545.911457 93.254 170.9775
549.867357 93.294 170.8615
553.851922 93.333 170.7534
557.865362 93.369 170.6532
561.907884 93.402 170.5605
565.979700 93.430 170.4747
570.081022 93.453 170.3951
574.212064 93.468 170.3210
578.373042 93.476 170.2513
582.564171 93.475 170.1852
586.785671 93.465 170.1215
591.037762 93.446 170.0594
595.320665 93.417 169.9980
599.634604 93.379 169.9368
603.979804 93.331 169.8753
608.356491 93.275 169.8135
612.764893 93.210 169.7516
617.205240 93.139 169.6900
621.677763 93.062 169.6295
626.182696 92.982 169.5706
630.720274 92.900 169.5143
635.290733 92.818 169.4612
639.894312 92.739 169.4119
644.531250 92.663 169.3668
649.201789 92.592 169.3258
653.906173 92.529 169.2887
658.644647 92.473 169.2545
663.417457 92.427 169.2219
668.224854 92.390 169.1891
673.067086 92.364 169.1542
677.944408 92.347 169.1151
682.857073 92.340 169.0699
687.805336 92.343 169.0171
692.789457 92.354 168.9557
697.809695 92.373 168.8853
702.866312 92.399 168.8061
707.959571 92.430 168.7188
713.089738 92.465 168.6245
718.257080 92.501 168.5244
723.461867 92.538 168.4201
728.704370 92.574 168.3128
733.984862 92.608 168.2037
739.303619 92.637 168.0939
744.660918 92.662 167.9844
750.057038 92.683 167.8760
755.492260 92.698 167.7695
760.966869 92.709 167.6656
766.481148 92.715 167.5652
772.035387 92.717 167.4690
777.629873 92.716 167.3780
783.264900 92.711 167.2932
788.940760 92.702 167.2155
794.657750 92.690 167.1459
800.416168 92.673 167.0853
806.216313 92.652 167.0344
812.058489 92.625 166.9935
817.943000 92.592 166.9628
823.870152 92.554 166.9416
829.840255 92.509 166.9286
835.853619 92.460 166.9219
841.910559 92.408 166.9177
848.011390 92.354 166.9113
854.156430 92.301 166.8964
860.346000 92.252 166.8654
866.580422 92.208 166.8098
872.860020 92.171 166.7210
879.185124 92.143 166.5914
885.556062 92.124 166.4152
891.973166 92.114 166.1895
898.436771 92.112 165.9154
904.947215 92.115 165.5978
911.504835 92.123 165.2457
918.109975 92.132 164.8707
924.762978 92.140 164.4856
931.464192 92.148 164.1035
938.213966 92.153 163.7360
945.012651 92.154 163.3923
951.860602 92.153 163.0795
958.758176 92.147 162.8019
965.705733 92.138 162.5617
972.703635 92.124 162.3590
979.752246 92.108 162.1929
986.851935 92.088 162.0614
994.003071 92.066 161.9619
1001.206027 92.042 161.8919
1008.461179 92.016 161.8488
1015.768904 91.990 161.8303
1023.129584 91.965 161.8349
1030.543603 91.942 161.8615
1038.011347 91.922 161.9100
1045.533205 91.905 161.9811
1053.109569 91.894 162.0770
1060.740836 91.888 162.2003
1068.427401 91.887 162.3552
1076.169666 91.893 162.5464
1083.968035 91.905 162.7792
1091.822915 91.924 163.0588
1099.734713 91.948 163.3896
1107.703844 91.980 163.7744
1115.730723 92.020 164.2129
1123.815768 92.068 164.7003
1131.959400 92.127 165.2259
1140.162045 92.197 165.7719
1148.424129 92.280 166.3133
1156.746083 92.377 166.8185
1165.128342 92.486 167.2529
1173.571343 92.606 167.5822
1182.075524 92.734 167.7784
1190.641331 92.866 167.8236
1199.269209 92.997 167.7129
1207.959608 93.123 167.4546
1216.712981 93.240 167.0678
1225.529785 93.347 166.5786
1234.410479 93.443 166.0156
1243.355526 93.527 165.4072
1252.365393 93.599 164.7780
1261.440549 93.663 164.1487
1270.581467 93.718 163.5349
1279.788624 93.766 162.9476
1289.062500 93.809 162.3939
1298.403578 93.848 161.8777
1307.812346 93.883 161.4005
1317.289293 93.915 160.9619
1326.834914 93.944 160.5606
1336.449707 93.970 160.1944
1346.134173 93.993 159.8608
1355.888816 94.013 159.5573
1365.714145 94.030 159.2810
1375.610673 94.043 159.0295
1385.578915 94.052 158.8006
1395.619391 94.058 158.5918
1405.732624 94.060 158.4011
1415.919142 94.059 158.2268
1426.179476 94.055 158.0670
1436.514160 94.049 157.9201
1446.923734 94.040 157.7849
1457.408740 94.029 157.6599
1467.969724 94.016 157.5441
1478.607238 94.001 157.4365
1489.321836 93.984 157.3362
1500.114076 93.966 157.2426
1510.984521 93.946 157.1547
1521.933737 93.923 157.0720
1532.962297 93.898 156.9937
1544.070773 93.870 156.9192
1555.259747 93.839 156.8478
1566.529800 93.805 156.7787
1577.881521 93.770 156.7114
1589.315501 93.732 156.6450
1600.832336 93.693 156.5791
1612.432627 93.652 156.5131
1624.116978 93.611 156.4464
1635.886000 93.570 156.3787
1647.740304 93.529 156.3098
1659.680509 93.488 156.2394
1671.707238 93.447 156.1674
1683.821118 93.407 156.0936
1696.022780 93.366 156.0180
1708.312860 93.324 155.9406
1720.692000 93.283 155.8614
1733.160843 93.241 155.7805
1745.720041 93.199 155.6981
1758.370248 93.157 155.6145
1771.112124 93.116 155.5301
1783.946332 93.076 155.4452
1796.873543 93.037 155.3602
1809.894429 93.000 155.2756
1823.009670 92.965 155.1918
1836.219950 92.930 155.1092
1849.525956 92.896 155.0283
1862.928384 92.861 154.9496
1876.427931 92.826 154.8734
1890.025301 92.788 154.8005
1903.721204 92.748 154.7314
1917.516352 92.705 154.6669
1931.411466 92.658 154.6077
1945.407270 92.607 154.5547
1959.504493 92.551 154.5088
1973.703870 92.492 154.4705
1988.006142 92.429 154.4404
2002.412054 92.363 154.4189
2016.922357 92.295 154.4058
2031.537808 92.226 154.4008
2046.259169 92.157 154.4035
2061.087206 92.088 154.4129
2076.022694 92.021 154.4284
2091.066410 91.956 154.4495
2106.219139 91.893 154.4761
2121.481671 91.834 154.5090
2136.854802 91.778 154.5492
2152.339333 91.725 154.5985
2167.936071 91.677 154.6589
2183.645829 91.633 154.7321
2199.469427 91.595 154.8195
2215.407689 91.563 154.9218
2231.461446 91.537 155.0392
2247.631536 91.518 155.1714
2263.918800 91.506 155.3175
2280.324089 91.502 155.4771
2296.848258 91.505 155.6496
2313.492167 91.515 155.8350
2330.256685 91.532 156.0333
2347.142685 91.555 156.2451
2364.151049 91.584 156.4710
2381.282662 91.617 156.7115
2398.538418 91.656 156.9672
2415.919216 91.697 157.2384
2433.425962 91.741 157.5254
2451.059570 91.788 157.8281
2468.820958 91.835 158.1459
2486.711052 91.883 158.4781
2504.730786 91.931 158.8233
2522.881098 91.978 159.1797
2541.162934 92.024 159.5453
2559.577248 92.067 159.9174
2578.125000 92.108 160.2938
2596.807157 92.145 160.6719
2615.624692 92.179 161.0495
2634.578586 92.208 161.4248
2653.669829 92.233 161.7963
2672.899414 92.253 162.1627
2692.268345 92.267 162.5229
2711.777632 92.277 162.8762
2731.428290 92.281 163.2217
2751.221345 92.280 163.5587
2771.157829 92.274 163.8867
2791.238781 92.263 164.2053
2811.465248 92.247 164.5143
2831.838284 92.226 164.8140
2852.358952 92.200 165.1048
2873.028321 92.169 165.3872
2893.847468 92.133 165.6625
2914.817480 92.093 165.9321
2935.939449 92.048 166.1978
2957.214476 91.999 166.4620
2978.643672 91.945 166.7273
3000.228152 91.888 166.9965
3021.969041 91.827 167.2724
3043.867475 91.763 167.5577
3065.924593 91.696 167.8548
3088.141547 91.628 168.1657
3110.519493 91.560 168.4919
3133.059600 91.490 168.8345
3155.763041 91.422 169.1941
3178.631001 91.354 169.5706
3201.664672 91.288 169.9637
3224.865254 91.225 170.3726
3248.233957 91.164 170.7960
3271.771999 91.108 171.2323
3295.480608 91.056 171.6801
3319.361019 91.009 172.1378
3343.414477 90.968 172.6042
3367.642236 90.932 173.0786
3392.045560 90.904 173.5602
3416.625721 90.883 174.0490
3441.383999 90.869 174.5448
3466.321686 90.864 175.0472
3491.440082 90.867 175.5558
3516.740496 90.878 176.0692
3542.224247 90.899 176.5856
3567.892664 90.928 177.1029
3593.747085 90.966 177.6181
3619.788858 91.012 178.1283
3646.019340 91.066 178.6307
3672.439900 91.128 179.1226
3699.051913 91.197 179.6022
3725.856768 91.272 -179.9321
3752.855862 91.353 -179.4809
3780.050603 91.440 -179.0448
3807.442408 91.531 -178.6240
3835.032705 91.628 -178.2192
3862.822933 91.729 -177.8312
3890.814540 91.835 -177.4611
3919.008986 91.944 -177.1104
3947.407741 92.056 -176.7803
3976.012284 92.170 -176.4718
4004.824108 92.286 -176.1852
4033.844715 92.403 -175.9205
4063.075616 92.519 -175.6764
4092.518337 92.635 -175.4511
4122.174412 92.750 -175.2418
4152.045387 92.863 -175.0450
4182.132820 92.975 -174.8568
4212.438278 93.085 -174.6729
4242.963342 93.194 -174.4892
4273.709604 93.302 -174.3022
4304.678665 93.412 -174.1090
4335.872141 93.523 -173.9080
4367.291658 93.637 -173.6991
4398.938854 93.755 -173.4838
4430.815378 93.879 -173.2653
4462.922893 94.009 -173.0486
4495.263072 94.146 -172.8401
4527.837601 94.291 -172.6474
4560.648179 94.445 -172.4791
4593.696515 94.606 -172.3443
4626.984334 94.774 -172.2523
4660.513370 94.948 -172.2122
4694.285371 95.128 -172.2323
4728.302098 95.312 -172.3201
4762.565324 95.498 -172.4816
4797.076835 95.684 -172.7211
4831.838432 95.868 -173.0414
4866.851925 96.050 -173.4432
4902.119140 96.226 -173.9257
4937.641916 96.395 -174.4861
4973.422105 96.556 -175.1203
5009.461572 96.708 -175.8221
5045.762195 96.848 -176.5843
5082.325868 96.975 -177.3984
5119.154496 97.090 -178.2550
5156.250000 97.190 -179.1440
5193.614313 97.276 179.9447
5231.249383 97.348 179.0214
5269.157173 97.404 178.0956
5307.339658 97.447 177.1761
5345.798829 97.475 176.2704
5384.536691 97.489 175.3848
5423.555263 97.491 174.5240
5462.856580 97.481 173.6910
5502.442691 97.461 172.8876
5542.315659 97.431 172.1138
5582.477563 97.395 171.3680
5622.930497 97.353 170.6466
5663.676569 97.307 169.9442
5704.717904 97.261 169.2530
5746.056642 97.214 168.5636
5787.694937 97.170 167.8649
5829.634960 97.129 167.1451
5871.878898 97.092 166.3924
5914.428953 97.058 165.5960
5957.287343 97.026 164.7469
6000.456303 96.995 163.8386
6043.938083 96.963 162.8676
6087.734950 96.927 161.8333
6131.849187 96.886 160.7385
6176.283094 96.835 159.5884
6221.038987 96.774 158.3907
6266.119200 96.700 157.1545
6311.526083 96.611 155.8901
6357.262002 96.507 154.6078
6403.329344 96.386 153.3177
6449.730508 96.250 152.0292
6496.467914 96.097 150.7502
6543.543998 95.930 149.4872
6590.961215 95.750 148.2453
6638.722037 95.558 147.0276
6686.828954 95.356 145.8357
6735.284473 95.146 144.6693
6784.091120 94.931 143.5268
6833.251441 94.712 142.4049
6882.767998 94.491 141.2991
6932.643372 94.270 140.2040
6982.880164 94.049 139.1132
7033.480992 93.830 138.0199
7084.448495 93.612 136.9169
7135.785329 93.395 135.7970
7187.494171 93.180 134.6523
7239.577717 92.964 133.4745
7292.038681 92.746 132.2542
7344.879799 92.527 130.9800
7398.103826 92.304 129.6381
7451.713536 92.077 128.2111
7505.711724 91.846 126.6775
7560.101205 91.610 125.0114
7614.884815 91.371 123.1813
7670.065409 91.128 121.1509
7725.645865 90.884 118.8778
7781.629080 90.640 116.3130
7838.017972 90.398 113.3992
7894.815481 90.163 110.0676
7952.024569 89.938 106.2324
8009.648217 89.729 101.7807
8067.689429 89.541 96.5560
8126.151233 89.382 90.3279
8185.036674 89.258 82.7395
8244.348824 89.174 73.2166
8304.090774 89.135 60.8374
8364.265639 89.143 44.2884
8424.876556 89.195 22.5538
8485.926684 89.286 -2.7423
8547.419207 89.408 -26.6434
8609.357330 89.550 -45.7863
8671.744282 89.701 -60.3826
8734.583316 89.851 -71.7693
8797.877707 89.991 -81.0258
8861.630756 90.115 -88.8317
8925.845785 90.221 -95.5953
8990.526143 90.306 -101.5659
9055.675202 90.371 -106.9021
9121.296357 90.420 -111.7118
9187.393031 90.453 -116.0737
9253.968668 90.475 -120.0507
9321.026740 90.488 -123.6963
9388.570742 90.495 -127.0591
9456.604196 90.495 -130.1839
9525.130648 90.490 -133.1120
9594.153671 90.477 -135.8802
9663.676863 90.456 -138.5201
9733.703850 90.422 -141.0560
9804.238280 90.372 -143.5048
9875.283832 90.304 -145.8752
9946.844210 90.215 -148.1692
10018.923143 90.102 -150.3829
10091.524390 89.965 -152.5090
10164.651736 89.805 -154.5391
10238.308993 89.624 -156.4659
10312.500000 89.423 -158.2860
10387.228626 89.206 -160.0003
10462.498767 88.978 -161.6160
10538.314345 88.741 -163.1462
10614.679315 88.499 -164.6095
10691.597657 88.255 -166.0289
10769.073381 88.010 -167.4300
10847.110526 87.764 -168.8389
10925.713161 87.516 -170.2799
11004.885382 87.263 -171.7732
11084.631318 87.003 -173.3328
11164.955126 86.730 -174.9647
11245.860993 86.439 -176.6656
11327.353138 86.124 -178.4218
11409.435808 85.780 179.7922
11492.113283 85.400 178.0123
11575.389873 84.981 176.2853
11659.269920 84.518 174.6657
11743.757796 84.011 173.2130
11828.857906 83.459 171.9859
11914.574686 82.866 171.0358
12000.912606 82.236 170.3991
12087.876166 81.576 170.0898
12175.469900 80.894 170.0933
12263.698373 80.202 170.3635
12352.566187 79.508 170.8265
12442.077974 78.824 171.3904
12532.238400 78.159 171.9605
12623.052165 77.519 172.4579
12714.524005 76.910 172.8367
12806.658687 76.335 173.0995
12899.461015 75.796 173.3137
12992.935827 75.298 173.6368
13087.087996 74.848 174.3679
13181.922430 74.455 176.0596
13277.444074 74.137 179.7728
13373.657907 73.910 -172.3920
13470.568945 73.788 -156.8129
13568.182241 73.780 -132.2336
13666.502883 73.880 -109.1457
13765.535996 74.071 -96.0291
13865.286744 74.327 -90.4435
13965.760328 74.623 -88.9827
14066.961984 74.932 -89.7711
14168.896989 75.235 -91.8553
14271.570658 75.521 -94.7290
14374.988342 75.780 -98.1092
14479.155433 76.008 -101.8334
14584.077362 76.203 -105.8081
14689.759598 76.362 -109.9812
14796.207652 76.485 -114.3245
14903.427072 76.567 -118.8224
15011.423448 76.605 -123.4637
15120.202410 76.594 -128.2361
15229.769630 76.529 -133.1223
15340.130819 76.408 -138.0994
15451.291730 76.226 -143.1398
15563.258160 75.984 -148.2139
15676.035944 75.681 -153.2927
15789.630962 75.319 -158.3494
15904.049137 74.900 -163.3583
16019.296433 74.425 -168.2906
16135.378859 73.896 -173.1098
16252.302465 73.312 -177.7653
16370.073348 72.673 177.8123
16488.697648 71.978 173.7127
16608.181548 71.230 170.0459
16728.531278 70.430 166.9365
16849.753112 69.585 164.5118
16971.853368 68.704 162.8774
17094.838414 67.800 162.0746
17218.714660 66.891 162.0223
17343.488565 65.999 162.4675
17469.166632 65.148 162.9944
17595.755415 64.362 163.1205
17723.261512 63.657 162.4364
17851.691571 63.041 160.6998
17981.052287 62.509 157.8392
18111.350404 62.047 153.8995
18242.592715 61.637 148.9758
18374.786062 61.261 143.1649
18507.937336 60.905 136.5334
18642.053479 60.562 129.1034
18777.141484 60.229 120.8469
18913.208391 59.909 111.6987
19050.261296 59.608 101.5942
19188.307342 59.331 90.5524
19327.353727 59.084 78.8101
19467.407699 58.872 66.9539
19608.476560 58.699 55.9078
19750.567664 58.566 46.7000
19893.688419 58.477 40.1605
20037.846286 58.432 36.7862
