* Measurement data measured by REW V5.31.3
* Source: EXCL: Headset (USB-C to 3.5mm Headphone Jack Adapter), MICROPHONE (Master Volume), 0, volume: 0.260
* Format: 256k Log Swept Sine, 1 sweep at -12.0 dBFS with no timing reference
* Dated: Mar 5, 2025 10:54:13 AM
* REW Settings:
*  C-weighting compensation: Off
*  Target level: 75.0 dB
* Note: ; 
* Measurement: Ouroboros Reprint L7
* Smoothing: 1/6 octave
* Frequency Step: 96 ppo
* Start Frequency: 20.0 Hz
*
* Freq(Hz) SPL(dB) Phase(degrees)
20.141602 98.160 -105.1175
20.287556 98.144 -105.3194
20.434568 98.122 -105.5896
20.582645 98.096 -105.9197
20.731796 98.066 -106.3003
20.882027 98.033 -106.7223
21.033346 98.000 -107.1773
21.185763 97.966 -107.6578
21.339284 97.934 -108.1579
21.493917 97.903 -108.6730
21.649671 97.876 -109.2000
21.806553 97.852 -109.7370
21.964572 97.833 -110.2830
22.123737 97.818 -110.8377
22.284054 97.807 -111.4013
22.445534 97.800 -111.9741
22.608183 97.796 -112.5560
22.772012 97.795 -113.1464
22.937027 97.796 -113.7444
23.103238 97.797 -114.3483
23.270654 97.797 -114.9556
23.439282 97.797 -115.5639
23.609133 97.795 -116.1705
23.780215 97.790 -116.7731
23.952536 97.783 -117.3700
24.126106 97.774 -117.9606
24.300934 97.762 -118.5453
24.477028 97.749 -119.1258
24.654399 97.734 -119.7048
24.833055 97.718 -120.2854
25.013005 97.701 -120.8710
25.194260 97.682 -121.4646
25.376828 97.664 -122.0681
25.560719 97.644 -122.6819
25.745942 97.623 -123.3049
25.932508 97.602 -123.9345
26.120426 97.581 -124.5667
26.309705 97.561 -125.1973
26.500356 97.542 -125.8220
26.692388 97.525 -126.4377
26.885812 97.512 -127.0428
27.080638 97.504 -127.6379
27.276876 97.501 -128.2254
27.474535 97.503 -128.8093
27.673627 97.510 -129.3939
27.874161 97.520 -129.9832
28.076149 97.531 -130.5794
28.279600 97.542 -131.1822
28.484526 97.548 -131.7880
28.690937 97.550 -132.3907
28.898843 97.544 -132.9817
29.108256 97.530 -133.5512
29.319186 97.507 -134.0898
29.531645 97.477 -134.5898
29.745644 97.439 -135.0469
29.961193 97.397 -135.4603
30.178304 97.353 -135.8340
30.396989 97.307 -136.1757
30.617258 97.263 -136.4964
30.839123 97.222 -136.8084
31.062596 97.185 -137.1239
31.287688 97.151 -137.4537
31.514412 97.121 -137.8053
31.742778 97.095 -138.1827
31.972800 97.072 -138.5861
32.204488 97.051 -139.0121
32.437855 97.032 -139.4542
32.672913 97.015 -139.9042
32.909674 96.999 -140.3527
33.148151 96.984 -140.7904
33.388356 96.970 -141.2088
33.630302 96.959 -141.6015
33.874001 96.949 -141.9641
34.119466 96.941 -142.2955
34.366710 96.934 -142.5972
34.615745 96.929 -142.8734
34.866585 96.925 -143.1304
35.119243 96.919 -143.3756
35.373731 96.912 -143.6162
35.630064 96.902 -143.8589
35.888254 96.887 -144.1084
36.148315 96.867 -144.3674
36.410261 96.840 -144.6362
36.674104 96.806 -144.9126
36.939860 96.765 -145.1927
37.207542 96.716 -145.4714
37.477163 96.662 -145.7425
37.748738 96.602 -145.9994
38.022281 96.536 -146.2357
38.297806 96.467 -146.4457
38.575327 96.395 -146.6243
38.854860 96.320 -146.7677
39.136419 96.245 -146.8741
39.420017 96.168 -146.9433
39.705671 96.093 -146.9775
39.993395 96.019 -146.9807
40.283203 95.949 -146.9582
40.575112 95.882 -146.9162
40.869136 95.820 -146.8606
41.165290 95.765 -146.7962
41.463591 95.716 -146.7263
41.764053 95.675 -146.6524
42.066693 95.642 -146.5745
42.371525 95.617 -146.4918
42.678567 95.601 -146.4034
42.987834 95.593 -146.3091
43.299341 95.594 -146.2096
43.613106 95.601 -146.1074
43.929145 95.615 -146.0062
44.247473 95.635 -145.9108
44.568109 95.659 -145.8264
44.891068 95.686 -145.7581
45.216367 95.716 -145.7097
45.544023 95.748 -145.6834
45.874054 95.782 -145.6790
46.206476 95.818 -145.6946
46.541307 95.855 -145.7265
46.878565 95.896 -145.7711
47.218266 95.940 -145.8250
47.560429 95.988 -145.8866
47.905072 96.041 -145.9560
48.252212 96.097 -146.0351
48.601867 96.157 -146.1269
48.954056 96.220 -146.2346
49.308798 96.284 -146.3609
49.666109 96.348 -146.5070
50.026010 96.412 -146.6730
50.388520 96.473 -146.8569
50.753656 96.532 -147.0556
51.121437 96.587 -147.2654
51.491884 96.637 -147.4825
51.865016 96.685 -147.7038
52.240851 96.728 -147.9274
52.619410 96.769 -148.1528
53.000712 96.807 -148.3808
53.384777 96.844 -148.6125
53.771625 96.878 -148.8492
54.161276 96.912 -149.0914
54.553751 96.943 -149.3386
54.949070 96.973 -149.5894
55.347254 97.002 -149.8416
55.748323 97.028 -150.0931
56.152298 97.052 -150.3418
56.559201 97.074 -150.5866
56.969052 97.095 -150.8275
57.381873 97.114 -151.0651
57.797686 97.132 -151.3015
58.216512 97.152 -151.5396
58.638373 97.173 -151.7840
59.063291 97.197 -152.0406
59.491288 97.226 -152.3162
59.922386 97.259 -152.6174
60.356608 97.298 -152.9481
60.793977 97.340 -153.3083
61.234515 97.386 -153.6936
61.678246 97.434 -154.0963
62.125192 97.483 -154.5079
62.575377 97.531 -154.9210
63.028824 97.578 -155.3302
63.485557 97.622 -155.7333
63.945599 97.664 -156.1299
64.408975 97.702 -156.5217
64.875709 97.737 -156.9112
65.345825 97.769 -157.3015
65.819348 97.799 -157.6955
66.296302 97.827 -158.0958
66.776713 97.854 -158.5038
67.260604 97.879 -158.9205
67.748002 97.904 -159.3458
68.238932 97.928 -159.7795
68.733420 97.951 -160.2212
69.231490 97.974 -160.6702
69.733170 97.996 -161.1261
70.238485 98.018 -161.5882
70.747463 98.039 -162.0553
71.260128 98.060 -162.5264
71.776508 98.080 -162.9996
72.296630 98.099 -163.4735
72.820521 98.117 -163.9466
73.348209 98.135 -164.4178
73.879720 98.151 -164.8865
74.415083 98.166 -165.3524
74.954326 98.179 -165.8157
75.497475 98.192 -166.2768
76.044561 98.202 -166.7363
76.595612 98.211 -167.1947
77.150655 98.219 -167.6524
77.709720 98.225 -168.1096
78.272837 98.230 -168.5664
78.840034 98.234 -169.0225
79.411342 98.237 -169.4776
79.986789 98.238 -169.9311
80.566406 98.238 -170.3824
81.150224 98.237 -170.8309
81.738272 98.235 -171.2760
82.330581 98.232 -171.7172
82.927182 98.228 -172.1543
83.528107 98.223 -172.5871
84.133386 98.217 -173.0158
84.743051 98.210 -173.4411
85.357134 98.202 -173.8633
85.975667 98.194 -174.2830
86.598682 98.185 -174.7005
87.226212 98.178 -175.1156
87.858289 98.170 -175.5280
88.494946 98.164 -175.9370
89.136217 98.160 -176.3421
89.782135 98.157 -176.7428
90.432733 98.155 -177.1394
91.088046 98.155 -177.5322
91.748108 98.156 -177.9216
92.412952 98.157 -178.3082
93.082615 98.159 -178.6926
93.757130 98.161 -179.0755
94.436533 98.162 -179.4577
95.120859 98.162 -179.8402
95.810144 98.159 179.7763
96.504423 98.155 179.3912
97.203734 98.148 179.0045
97.908112 98.137 178.6164
98.617595 98.124 178.2269
99.332219 98.108 177.8363
100.052021 98.089 177.4442
100.777039 98.068 177.0504
101.507311 98.046 176.6548
102.242875 98.022 176.2575
102.983769 97.997 175.8593
103.730032 97.972 175.4608
104.481702 97.948 175.0629
105.238820 97.924 174.6660
106.001424 97.901 174.2704
106.769554 97.879 173.8759
107.543250 97.858 173.4822
108.322553 97.839 173.0886
109.107503 97.821 172.6946
109.898141 97.804 172.2994
110.694508 97.787 171.9024
111.496646 97.771 171.5024
112.304596 97.755 171.0988
113.118402 97.738 170.6909
113.938104 97.720 170.2786
114.763747 97.702 169.8625
115.595372 97.682 169.4436
116.433024 97.660 169.0231
117.276746 97.636 168.6020
118.126581 97.610 168.1813
118.982575 97.582 167.7615
119.844772 97.552 167.3429
120.713217 97.518 166.9258
121.587954 97.483 166.5108
122.469031 97.445 166.0984
123.356492 97.406 165.6894
124.250384 97.366 165.2844
125.150753 97.326 164.8838
126.057647 97.285 164.4877
126.971113 97.245 164.0959
127.891198 97.205 163.7084
128.817950 97.167 163.3249
129.751418 97.129 162.9453
130.691651 97.092 162.5697
131.638696 97.055 162.1984
132.592604 97.019 161.8317
133.553425 96.983 161.4698
134.521208 96.946 161.1130
135.496004 96.908 160.7616
136.477864 96.868 160.4158
137.466839 96.826 160.0759
138.462981 96.781 159.7426
139.466340 96.734 159.4163
140.476971 96.684 159.0978
141.494925 96.630 158.7875
142.520256 96.574 158.4859
143.553016 96.514 158.1930
144.593260 96.452 157.9086
145.641043 96.387 157.6326
146.696418 96.321 157.3646
147.759441 96.253 157.1047
148.830166 96.184 156.8530
149.908651 96.114 156.6097
150.994951 96.044 156.3751
152.089123 95.974 156.1493
153.191223 95.906 155.9322
154.301310 95.838 155.7232
155.419441 95.771 155.5217
156.545674 95.706 155.3268
157.680069 95.642 155.1385
158.822683 95.579 154.9573
159.973578 95.517 154.7843
161.132813 95.456 154.6208
162.300447 95.396 154.4683
163.476543 95.336 154.3271
164.661162 95.276 154.1974
165.854364 95.216 154.0782
167.056213 95.156 153.9687
168.266772 95.096 153.8673
169.486102 95.036 153.7730
170.714268 94.975 153.6849
171.951334 94.914 153.6023
173.197364 94.852 153.5250
174.452424 94.790 153.4529
175.716578 94.726 153.3861
176.989893 94.662 153.3249
178.272434 94.597 153.2695
179.564270 94.530 153.2204
180.865467 94.463 153.1779
182.176092 94.394 153.1422
183.496216 94.324 153.1132
184.825905 94.253 153.0909
186.165229 94.181 153.0751
187.514259 94.107 153.0658
188.873065 94.032 153.0629
190.241717 93.955 153.0665
191.620287 93.877 153.0768
193.008847 93.798 153.0942
194.407468 93.716 153.1188
195.816225 93.633 153.1509
197.235190 93.549 153.1906
198.664438 93.464 153.2382
200.104042 93.377 153.2941
201.554078 93.289 153.3585
203.014622 93.201 153.4321
204.485750 93.113 153.5152
205.967538 93.025 153.6080
207.460064 92.938 153.7108
208.963405 92.854 153.8235
210.477640 92.772 153.9458
212.002848 92.694 154.0777
213.539108 92.621 154.2189
215.086500 92.553 154.3693
216.645105 92.491 154.5284
218.215005 92.434 154.6956
219.796281 92.384 154.8699
221.389015 92.340 155.0505
222.993292 92.301 155.2368
224.609193 92.268 155.4283
226.236804 92.239 155.6248
227.876209 92.216 155.8267
229.527494 92.197 156.0341
231.190745 92.182 156.2471
232.866048 92.170 156.4659
234.553491 92.162 156.6900
236.253163 92.157 156.9189
237.965150 92.154 157.1517
239.689544 92.152 157.3876
241.426433 92.153 157.6255
243.175909 92.154 157.8648
244.938062 92.156 158.1048
246.712984 92.159 158.3453
248.500768 92.162 158.5861
250.301507 92.165 158.8271
252.115295 92.168 159.0684
253.942226 92.171 159.3099
255.782396 92.175 159.5515
257.635901 92.179 159.7925
259.502837 92.184 160.0321
261.383301 92.189 160.2694
263.277392 92.194 160.5032
265.185209 92.199 160.7328
267.106850 92.204 160.9577
269.042417 92.208 161.1777
270.992009 92.210 161.3928
272.955729 92.211 161.6031
274.933678 92.209 161.8085
276.925961 92.204 162.0088
278.932681 92.195 162.2039
280.953942 92.182 162.3940
282.989850 92.166 162.5795
285.040511 92.146 162.7610
287.106032 92.122 162.9390
289.186521 92.094 163.1142
291.282086 92.063 163.2869
293.392836 92.028 163.4573
295.518881 91.991 163.6255
297.660333 91.951 163.7919
299.817302 91.909 163.9566
301.989902 91.865 164.1198
304.178245 91.820 164.2820
306.382446 91.775 164.4436
308.602620 91.730 164.6052
310.838882 91.686 164.7674
313.091348 91.644 164.9304
315.360137 91.604 165.0945
317.645367 91.567 165.2595
319.947156 91.534 165.4252
322.265625 91.504 165.5913
324.600895 91.480 165.7573
326.953086 91.459 165.9227
329.322323 91.445 166.0870
331.708729 91.436 166.2498
334.112427 91.433 166.4106
336.533543 91.435 166.5694
338.972204 91.444 166.7260
341.428536 91.459 166.8807
343.902668 91.479 167.0335
346.394729 91.504 167.1846
348.904848 91.533 167.3343
351.433156 91.566 167.4827
353.979786 91.602 167.6297
356.544869 91.641 167.7752
359.128540 91.680 167.9189
361.730934 91.720 168.0605
364.352185 91.759 168.1995
366.992431 91.798 168.3357
369.651810 91.833 168.4688
372.330459 91.867 168.5988
375.028519 91.896 168.7254
377.746130 91.922 168.8483
380.483434 91.944 168.9670
383.240574 91.961 169.0811
386.017693 91.975 169.1898
388.814937 91.985 169.2923
391.632450 91.992 169.3875
394.470380 91.998 169.4745
397.328875 92.002 169.5522
400.208084 92.006 169.6196
403.108157 92.011 169.6758
406.029245 92.018 169.7201
408.971500 92.027 169.7520
411.935076 92.040 169.7711
414.920127 92.056 169.7773
417.926810 92.076 169.7706
420.955280 92.100 169.7513
424.005695 92.128 169.7200
427.078215 92.160 169.6775
430.173000 92.193 169.6247
433.290211 92.228 169.5627
436.430010 92.264 169.4924
439.592562 92.298 169.4148
442.778031 92.331 169.3302
445.986583 92.361 169.2392
449.218386 92.389 169.1421
452.473607 92.412 169.0393
455.752418 92.431 168.9316
459.054987 92.446 168.8198
462.381489 92.456 168.7051
465.732096 92.463 168.5890
469.106983 92.465 168.4725
472.506325 92.465 168.3571
475.930301 92.461 168.2437
479.379088 92.454 168.1335
482.852867 92.446 168.0275
486.351817 92.435 167.9265
489.876123 92.423 167.8311
493.425968 92.410 167.7418
497.001536 92.398 167.6592
500.603014 92.386 167.5836
504.230589 92.376 167.5152
507.884452 92.368 167.4545
511.564792 92.365 167.4017
515.271802 92.366 167.3570
519.005673 92.373 167.3206
522.766602 92.386 167.2924
526.554785 92.405 167.2721
530.370418 92.431 167.2592
534.213700 92.463 167.2531
538.084833 92.501 167.2532
541.984018 92.542 167.2586
545.911457 92.587 167.2687
549.867357 92.634 167.2827
553.851922 92.681 167.3000
557.865362 92.726 167.3196
561.907884 92.769 167.3407
565.979700 92.808 167.3623
570.081022 92.842 167.3834
574.212064 92.870 167.4030
578.373042 92.891 167.4200
582.564171 92.904 167.4338
586.785671 92.908 167.4433
591.037762 92.902 167.4479
595.320665 92.887 167.4471
599.634604 92.863 167.4405
603.979804 92.829 167.4278
608.356491 92.786 167.4090
612.764893 92.735 167.3842
617.205240 92.678 167.3536
621.677763 92.614 167.3177
626.182696 92.548 167.2767
630.720274 92.479 167.2312
635.290733 92.410 167.1817
639.894312 92.343 167.1286
644.531250 92.278 167.0724
649.201789 92.219 167.0139
653.906173 92.165 166.9536
658.644647 92.118 166.8917
663.417457 92.079 166.8286
668.224854 92.048 166.7644
673.067086 92.026 166.6991
677.944408 92.012 166.6323
682.857073 92.007 166.5637
687.805336 92.010 166.4926
692.789457 92.022 166.4188
697.809695 92.041 166.3418
702.866312 92.066 166.2614
707.959571 92.097 166.1780
713.089738 92.131 166.0920
718.257080 92.168 166.0043
723.461867 92.205 165.9160
728.704370 92.241 165.8279
733.984862 92.275 165.7413
739.303619 92.306 165.6572
744.660918 92.332 165.5764
750.057038 92.354 165.4994
755.492260 92.371 165.4269
760.966869 92.384 165.3592
766.481148 92.393 165.2965
772.035387 92.398 165.2388
777.629873 92.401 165.1862
783.264900 92.400 165.1385
788.940760 92.396 165.0957
794.657750 92.390 165.0575
800.416168 92.379 165.0236
806.216313 92.364 164.9936
812.058489 92.343 164.9671
817.943000 92.317 164.9436
823.870152 92.284 164.9225
829.840255 92.245 164.9029
835.853619 92.201 164.8837
841.910559 92.152 164.8630
848.011390 92.100 164.8384
854.156430 92.049 164.8064
860.346000 91.999 164.7625
866.580422 91.954 164.7011
872.860020 91.916 164.6161
879.185124 91.887 164.5008
885.556062 91.867 164.3491
891.973166 91.857 164.1562
898.436771 91.857 163.9200
904.947215 91.864 163.6413
911.504835 91.878 163.3246
918.109975 91.894 162.9777
924.762978 91.912 162.6110
931.464192 91.929 162.2360
938.213966 91.944 161.8641
945.012651 91.955 161.5054
951.860602 91.963 161.1680
958.758176 91.965 160.8573
965.705733 91.963 160.5768
972.703635 91.957 160.3280
979.752246 91.945 160.1107
986.851935 91.930 159.9238
994.003071 91.911 159.7656
1001.206027 91.888 159.6342
1008.461179 91.864 159.5274
1015.768904 91.838 159.4439
1023.129584 91.812 159.3824
1030.543603 91.786 159.3426
1038.011347 91.763 159.3249
1045.533205 91.742 159.3308
1053.109569 91.725 159.3625
1060.740836 91.712 159.4236
1068.427401 91.705 159.5183
1076.169666 91.702 159.6517
1083.968035 91.704 159.8296
1091.822915 91.712 160.0578
1099.734713 91.725 160.3416
1107.703844 91.744 160.6849
1115.730723 91.769 161.0887
1123.815768 91.802 161.5498
1131.959400 91.844 162.0594
1140.162045 91.896 162.6012
1148.424129 91.961 163.1518
1156.746083 92.039 163.6804
1165.128342 92.129 164.1523
1173.571343 92.232 164.5320
1182.075524 92.344 164.7889
1190.641331 92.461 164.9022
1199.269209 92.578 164.8637
1207.959608 92.692 164.6793
1216.712981 92.798 164.3666
1225.529785 92.894 163.9515
1234.410479 92.979 163.4636
1243.355526 93.052 162.9324
1252.365393 93.115 162.3846
1261.440549 93.168 161.8420
1270.581467 93.213 161.3217
1279.788624 93.252 160.8354
1289.062500 93.287 160.3904
1298.403578 93.319 159.9902
1307.812346 93.348 159.6358
1317.289293 93.375 159.3257
1326.834914 93.401 159.0573
1336.449707 93.425 158.8268
1346.134173 93.449 158.6302
1355.888816 93.470 158.4635
1365.714145 93.490 158.3226
1375.610673 93.507 158.2038
1385.578915 93.523 158.1037
1395.619391 93.536 158.0194
1405.732624 93.546 157.9483
1415.919142 93.555 157.8880
1426.179476 93.561 157.8366
1436.514160 93.564 157.7924
1446.923734 93.567 157.7539
1457.408740 93.567 157.7199
1467.969724 93.566 157.6894
1478.607238 93.564 157.6614
1489.321836 93.560 157.6352
1500.114076 93.554 157.6099
1510.984521 93.547 157.5849
1521.933737 93.537 157.5595
1532.962297 93.525 157.5331
1544.070773 93.510 157.5051
1555.259747 93.492 157.4749
1566.529800 93.472 157.4421
1577.881521 93.449 157.4062
1589.315501 93.423 157.3671
1600.832336 93.396 157.3242
1612.432627 93.368 157.2776
1624.116978 93.339 157.2271
1635.886000 93.310 157.1725
1647.740304 93.281 157.1139
1659.680509 93.251 157.0510
1671.707238 93.221 156.9841
1683.821118 93.191 156.9131
1696.022780 93.161 156.8382
1708.312860 93.129 156.7596
1720.692000 93.098 156.6775
1733.160843 93.065 156.5922
1745.720041 93.032 156.5042
1758.370248 92.999 156.4140
1771.112124 92.967 156.3220
1783.946332 92.935 156.2288
1796.873543 92.904 156.1350
1809.894429 92.874 156.0414
1823.009670 92.845 155.9485
1836.219950 92.816 155.8574
1849.525956 92.788 155.7688
1862.928384 92.759 155.6838
1876.427931 92.728 155.6033
1890.025301 92.696 155.5283
1903.721204 92.661 155.4597
1917.516352 92.622 155.3985
1931.411466 92.580 155.3456
1945.407270 92.534 155.3015
1959.504493 92.484 155.2668
1973.703870 92.431 155.2419
1988.006142 92.375 155.2266
2002.412054 92.316 155.2205
2016.922357 92.256 155.2227
2031.537808 92.196 155.2319
2046.259169 92.137 155.2466
2061.087206 92.078 155.2651
2076.022694 92.022 155.2856
2091.066410 91.969 155.3070
2106.219139 91.918 155.3283
2121.481671 91.871 155.3495
2136.854802 91.828 155.3715
2152.339333 91.788 155.3954
2167.936071 91.752 155.4232
2183.645829 91.721 155.4565
2199.469427 91.695 155.4971
2215.407689 91.673 155.5459
2231.461446 91.658 155.6035
2247.631536 91.648 155.6703
2263.918800 91.645 155.7460
2280.324089 91.647 155.8308
2296.848258 91.656 155.9250
2313.492167 91.671 156.0293
2330.256685 91.691 156.1446
2347.142685 91.717 156.2724
2364.151049 91.747 156.4141
2381.282662 91.780 156.5713
2398.538418 91.817 156.7457
2415.919216 91.856 156.9388
2433.425962 91.896 157.1520
2451.059570 91.938 157.3865
2468.820958 91.979 157.6428
2486.711052 92.020 157.9211
2504.730786 92.061 158.2207
2522.881098 92.100 158.5404
2541.162934 92.138 158.8781
2559.577248 92.173 159.2312
2578.125000 92.206 159.5966
2596.807157 92.236 159.9715
2615.624692 92.263 160.3528
2634.578586 92.285 160.7383
2653.669829 92.304 161.1259
2672.899414 92.318 161.5138
2692.268345 92.327 161.9009
2711.777632 92.331 162.2861
2731.428290 92.331 162.6686
2751.221345 92.326 163.0472
2771.157829 92.317 163.4213
2791.238781 92.304 163.7898
2811.465248 92.286 164.1520
2831.838284 92.264 164.5074
2852.358952 92.239 164.8553
2873.028321 92.210 165.1959
2893.847468 92.177 165.5291
2914.817480 92.141 165.8557
2935.939449 92.101 166.1767
2957.214476 92.057 166.4940
2978.643672 92.010 166.8093
3000.228152 91.961 167.1249
3021.969041 91.908 167.4431
3043.867475 91.853 167.7660
3065.924593 91.797 168.0950
3088.141547 91.739 168.4318
3110.519493 91.681 168.7770
3133.059600 91.623 169.1314
3155.763041 91.565 169.4956
3178.631001 91.509 169.8699
3201.664672 91.455 170.2546
3224.865254 91.402 170.6498
3248.233957 91.353 171.0549
3271.771999 91.307 171.4693
3295.480608 91.265 171.8919
3319.361019 91.228 172.3214
3343.414477 91.197 172.7564
3367.642236 91.172 173.1956
3392.045560 91.153 173.6381
3416.625721 91.141 174.0831
3441.383999 91.137 174.5300
3466.321686 91.140 174.9783
3491.440082 91.150 175.4273
3516.740496 91.169 175.8764
3542.224247 91.195 176.3245
3567.892664 91.228 176.7702
3593.747085 91.269 177.2121
3619.788858 91.317 177.6485
3646.019340 91.372 178.0781
3672.439900 91.433 178.4997
3699.051913 91.499 178.9128
3725.856768 91.570 179.3173
3752.855862 91.647 179.7142
3780.050603 91.727 -179.8952
3807.442408 91.812 -179.5094
3835.032705 91.900 -179.1264
3862.822933 91.993 -178.7446
3890.814540 92.090 -178.3624
3919.008986 92.190 -177.9785
3947.407741 92.294 -177.5922
3976.012284 92.403 -177.2027
4004.824108 92.515 -176.8099
4033.844715 92.632 -176.4143
4063.075616 92.753 -176.0171
4092.518337 92.878 -175.6203
4122.174412 93.008 -175.2265
4152.045387 93.143 -174.8393
4182.132820 93.284 -174.4626
4212.438278 93.430 -174.1009
4242.963342 93.581 -173.7595
4273.709604 93.739 -173.4440
4304.678665 93.903 -173.1605
4335.872141 94.074 -172.9155
4367.291658 94.251 -172.7159
4398.938854 94.435 -172.5686
4430.815378 94.624 -172.4801
4462.922893 94.819 -172.4568
4495.263072 95.018 -172.5046
4527.837601 95.221 -172.6286
4560.648179 95.427 -172.8330
4593.696515 95.633 -173.1213
4626.984334 95.840 -173.4959
4660.513370 96.044 -173.9581
4694.285371 96.244 -174.5081
4728.302098 96.438 -175.1447
4762.565324 96.626 -175.8652
4797.076835 96.804 -176.6654
4831.838432 96.972 -177.5397
4866.851925 97.127 -178.4810
4902.119140 97.270 -179.4812
4937.641916 97.399 179.4692
4973.422105 97.512 178.3804
5009.461572 97.610 177.2632
5045.762195 97.692 176.1287
5082.325868 97.758 174.9883
5119.154496 97.809 173.8533
5156.250000 97.844 172.7344
5193.614313 97.864 171.6419
5231.249383 97.869 170.5847
5269.157173 97.862 169.5702
5307.339658 97.841 168.6042
5345.798829 97.810 167.6904
5384.536691 97.769 166.8304
5423.555263 97.719 166.0234
5462.856580 97.662 165.2668
5502.442691 97.599 164.5558
5542.315659 97.532 163.8844
5582.477563 97.462 163.2446
5622.930497 97.392 162.6274
5663.676569 97.322 162.0220
5704.717904 97.253 161.4169
5746.056642 97.189 160.7994
5787.694937 97.128 160.1565
5829.634960 97.072 159.4754
5871.878898 97.020 158.7443
5914.428953 96.972 157.9529
5957.287343 96.926 157.0936
6000.456303 96.880 156.1614
6043.938083 96.831 155.1548
6087.734950 96.778 154.0757
6131.849187 96.716 152.9291
6176.283094 96.644 151.7234
6221.038987 96.558 150.4693
6266.119200 96.456 149.1793
6311.526083 96.338 147.8672
6357.262002 96.201 146.5474
6403.329344 96.045 145.2341
6449.730508 95.870 143.9411
6496.467914 95.677 142.6813
6543.543998 95.467 141.4664
6590.961215 95.241 140.3068
6638.722037 95.002 139.2110
6686.828954 94.751 138.1857
6735.284473 94.494 137.2347
6784.091120 94.232 136.3589
6833.251441 93.970 135.5555
6882.767998 93.713 134.8177
6932.643372 93.463 134.1343
6982.880164 93.225 133.4897
7033.480992 93.001 132.8643
7084.448495 92.795 132.2346
7135.785329 92.608 131.5745
7187.494171 92.439 130.8559
7239.577717 92.288 130.0498
7292.038681 92.154 129.1272
7344.879799 92.032 128.0598
7398.103826 91.920 126.8208
7451.713536 91.815 125.3845
7505.711724 91.711 123.7269
7560.101205 91.605 121.8250
7614.884815 91.495 119.6561
7670.065409 91.376 117.1973
7725.645865 91.248 114.4241
7781.629080 91.107 111.3091
7838.017972 90.955 107.8199
7894.815481 90.789 103.9174
7952.024569 90.611 99.5520
8009.648217 90.422 94.6602
8067.689429 90.221 89.1588
8126.151233 90.010 82.9364
8185.036674 89.790 75.8426
8244.348824 89.561 67.6721
8304.090774 89.325 58.1511
8364.265639 89.083 46.9396
8424.876556 88.837 33.6970
8485.926684 88.591 18.2930
8547.419207 88.348 1.1766
8609.357330 88.112 -16.4196
8671.744282 87.888 -32.9515
8734.583316 87.679 -47.3928
8797.877707 87.492 -59.5017
8861.630756 87.330 -69.5146
8925.845785 87.199 -77.8068
8990.526143 87.102 -84.7288
9055.675202 87.045 -90.5653
9121.296357 87.028 -95.5404
9187.393031 87.053 -99.8333
9253.968668 87.119 -103.5925
9321.026740 87.220 -106.9452
9388.570742 87.352 -110.0020
9456.604196 87.504 -112.8580
9525.130648 87.666 -115.5922
9594.153671 87.826 -118.2651
9663.676863 87.973 -120.9174
9733.703850 88.096 -123.5695
9804.238280 88.186 -126.2233
9875.283832 88.236 -128.8646
9946.844210 88.241 -131.4672
10018.923143 88.200 -133.9973
10091.524390 88.113 -136.4180
10164.651736 87.981 -138.6933
10238.308993 87.809 -140.7918
10312.500000 87.604 -142.6888
10387.228626 87.371 -144.3689
10462.498767 87.118 -145.8272
10538.314345 86.855 -147.0710
10614.679315 86.588 -148.1201
10691.597657 86.327 -149.0065
10769.073381 86.077 -149.7734
10847.110526 85.845 -150.4728
10925.713161 85.632 -151.1619
11004.885382 85.439 -151.8978
11084.631318 85.263 -152.7336
11164.955126 85.099 -153.7117
11245.860993 84.939 -154.8600
11327.353138 84.772 -156.1878
11409.435808 84.587 -157.6827
11492.113283 84.372 -159.3101
11575.389873 84.118 -161.0125
11659.269920 83.814 -162.7130
11743.757796 83.457 -164.3184
11828.857906 83.042 -165.7271
11914.574686 82.571 -166.8381
12000.912606 82.049 -167.5637
12087.876166 81.486 -167.8437
12175.469900 80.894 -167.6604
12263.698373 80.288 -167.0514
12352.566187 79.686 -166.1124
12442.077974 79.102 -164.9858
12532.238400 78.550 -163.8339
12623.052165 78.035 -162.8036
12714.524005 77.558 -161.9955
12806.658687 77.113 -161.4456
12899.461015 76.688 -161.1199
12992.935827 76.271 -160.9166
13087.087996 75.849 -160.6677
13181.922430 75.413 -160.1365
13277.444074 74.960 -159.0115
13373.657907 74.498 -156.9057
13470.568945 74.039 -153.3887
13568.182241 73.610 -148.1116
13666.502883 73.240 -141.0800
13765.535996 72.962 -132.9673
13865.286744 72.800 -125.0403
13965.760328 72.761 -118.5076
14066.961984 72.837 -113.9440
14168.896989 73.007 -111.3200
14271.570658 73.240 -110.3273
14374.988342 73.509 -110.6193
14479.155433 73.787 -111.9069
14584.077362 74.056 -113.9741
14689.759598 74.298 -116.6649
14796.207652 74.503 -119.8665
14903.427072 74.657 -123.4921
15011.423448 74.754 -127.4702
15120.202410 74.786 -131.7357
15229.769630 74.746 -136.2251
15340.130819 74.631 -140.8741
15451.291730 74.437 -145.6187
15563.258160 74.165 -150.3971
15676.035944 73.815 -155.1527
15789.630962 73.392 -159.8363
15904.049137 72.899 -164.4069
16019.296433 72.341 -168.8301
16135.378859 71.723 -173.0740
16252.302465 71.049 -177.1049
16370.073348 70.324 179.1192
16488.697648 69.550 175.6507
16608.181548 68.730 172.5524
16728.531278 67.870 169.8895
16849.753112 66.974 167.7125
16971.853368 66.051 166.0309
17094.838414 65.114 164.7855
17218.714660 64.176 163.8297
17343.488565 63.257 162.9372
17469.166632 62.375 161.8410
17595.755415 61.551 160.2879
17723.261512 60.798 158.0832
17851.691571 60.128 155.1073
17981.052287 59.544 151.3046
18111.350404 59.044 146.6581
18242.592715 58.621 141.1629
18374.786062 58.268 134.8035
18507.937336 57.974 127.5391
18642.053479 57.730 119.2969
18777.141484 57.528 109.9760
18913.208391 57.359 99.4759
19050.261296 57.216 87.7698
19188.307342 57.093 75.0372
19327.353727 56.984 61.8124
19467.407699 56.889 49.0048
19608.476560 56.807 37.6655
19750.567664 56.741 28.6539
19893.688419 56.693 22.4772
20037.846286 56.669 19.3552
