* Measurement data measured by REW V5.31.3
* Source: EXCL: Headset (USB-C to 3.5mm Headphone Jack Adapter), MICROPHONE (Master Volume), 0, volume: 0.260
* Format: 256k Log Swept Sine, 1 sweep at -12.0 dBFS with no timing reference
* Dated: Mar 5, 2025 11:00:24 AM
* REW Settings:
*  C-weighting compensation: Off
*  Target level: 75.0 dB
* Note: ; 
* Measurement: Ouroboros (glasses) L4
* Smoothing: 1/6 octave
* Frequency Step: 96 ppo
* Start Frequency: 20.0 Hz
*
* Freq(Hz) SPL(dB) Phase(degrees)
20.141602 90.102 -67.6111
20.287556 90.129 -67.7974
20.434568 90.165 -68.0550
20.582645 90.207 -68.3862
20.731796 90.253 -68.7925
20.882027 90.301 -69.2727
21.033346 90.350 -69.8233
21.185763 90.396 -70.4381
21.339284 90.440 -71.1091
21.493917 90.480 -71.8268
21.649671 90.516 -72.5813
21.806553 90.549 -73.3634
21.964572 90.578 -74.1646
22.123737 90.604 -74.9785
22.284054 90.627 -75.8004
22.445534 90.649 -76.6278
22.608183 90.670 -77.4599
22.772012 90.690 -78.2974
22.937027 90.708 -79.1416
23.103238 90.724 -79.9943
23.270654 90.738 -80.8567
23.439282 90.750 -81.7290
23.609133 90.757 -82.6105
23.780215 90.760 -83.4989
23.952536 90.759 -84.3911
24.126106 90.753 -85.2827
24.300934 90.743 -86.1694
24.477028 90.731 -87.0467
24.654399 90.716 -87.9107
24.833055 90.701 -88.7585
25.013005 90.688 -89.5883
25.194260 90.678 -90.3996
25.376828 90.673 -91.1924
25.560719 90.675 -91.9677
25.745942 90.686 -92.7264
25.932508 90.705 -93.4687
26.120426 90.735 -94.1936
26.309705 90.774 -94.8982
26.500356 90.823 -95.5775
26.692388 90.880 -96.2244
26.885812 90.945 -96.8295
27.080638 91.016 -97.3817
27.276876 91.092 -97.8692
27.474535 91.169 -98.2804
27.673627 91.248 -98.6051
27.874161 91.325 -98.8359
28.076149 91.400 -98.9699
28.279600 91.470 -99.0094
28.484526 91.536 -98.9633
28.690937 91.595 -98.8470
28.898843 91.647 -98.6825
29.108256 91.691 -98.4971
29.319186 91.725 -98.3216
29.531645 91.749 -98.1884
29.745644 91.761 -98.1285
29.961193 91.762 -98.1696
30.178304 91.751 -98.3336
30.396989 91.727 -98.6348
30.617258 91.692 -99.0796
30.839123 91.646 -99.6655
31.062596 91.591 -100.3817
31.287688 91.528 -101.2100
31.514412 91.459 -102.1261
31.742778 91.385 -103.1020
31.972800 91.309 -104.1074
32.204488 91.232 -105.1125
32.437855 91.155 -106.0900
32.672913 91.079 -107.0167
32.909674 91.005 -107.8745
33.148151 90.934 -108.6508
33.388356 90.869 -109.3385
33.630302 90.810 -109.9349
33.874001 90.761 -110.4405
34.119466 90.725 -110.8587
34.366710 90.705 -111.1940
34.615745 90.702 -111.4521
34.866585 90.719 -111.6391
35.119243 90.755 -111.7621
35.373731 90.809 -111.8289
35.630064 90.877 -111.8480
35.888254 90.954 -111.8289
36.148315 91.035 -111.7816
36.410261 91.112 -111.7164
36.674104 91.181 -111.6445
36.939860 91.238 -111.5776
37.207542 91.278 -111.5290
37.477163 91.302 -111.5134
37.748738 91.311 -111.5463
38.022281 91.306 -111.6434
38.297806 91.292 -111.8182
38.575327 91.272 -112.0794
38.854860 91.251 -112.4290
39.136419 91.231 -112.8607
39.420017 91.216 -113.3601
39.705671 91.207 -113.9064
39.993395 91.204 -114.4765
40.283203 91.207 -115.0481
40.575112 91.215 -115.6039
40.869136 91.227 -116.1332
41.165290 91.241 -116.6330
41.463591 91.255 -117.1065
41.764053 91.269 -117.5610
42.066693 91.283 -118.0049
42.371525 91.295 -118.4452
42.678567 91.307 -118.8858
42.987834 91.318 -119.3258
43.299341 91.329 -119.7603
43.613106 91.340 -120.1811
43.929145 91.351 -120.5788
44.247473 91.363 -120.9445
44.568109 91.375 -121.2725
44.891068 91.387 -121.5609
45.216367 91.402 -121.8126
45.544023 91.418 -122.0345
45.874054 91.438 -122.2362
46.206476 91.461 -122.4283
46.541307 91.489 -122.6205
46.878565 91.522 -122.8211
47.218266 91.561 -123.0360
47.560429 91.604 -123.2693
47.905072 91.653 -123.5235
48.252212 91.707 -123.7998
48.601867 91.765 -124.0983
48.954056 91.828 -124.4167
49.308798 91.894 -124.7510
49.666109 91.963 -125.0943
50.026010 92.032 -125.4378
50.388520 92.100 -125.7723
50.753656 92.166 -126.0895
51.121437 92.227 -126.3836
51.491884 92.283 -126.6533
51.865016 92.333 -126.9011
52.240851 92.375 -127.1341
52.619410 92.410 -127.3619
53.000712 92.438 -127.5957
53.384777 92.460 -127.8456
53.771625 92.478 -128.1198
54.161276 92.493 -128.4221
54.553751 92.507 -128.7513
54.949070 92.522 -129.1017
55.347254 92.537 -129.4637
55.748323 92.555 -129.8262
56.152298 92.576 -130.1785
56.559201 92.599 -130.5123
56.969052 92.624 -130.8232
57.381873 92.651 -131.1112
57.797686 92.678 -131.3804
58.216512 92.704 -131.6379
58.638373 92.730 -131.8919
59.063291 92.754 -132.1497
59.491288 92.777 -132.4157
59.922386 92.800 -132.6905
60.356608 92.823 -132.9708
60.793977 92.849 -133.2513
61.234515 92.877 -133.5263
61.678246 92.908 -133.7918
62.125192 92.941 -134.0460
62.575377 92.975 -134.2897
63.028824 93.009 -134.5256
63.485557 93.043 -134.7576
63.945599 93.077 -134.9897
64.408975 93.110 -135.2248
64.875709 93.142 -135.4644
65.345825 93.175 -135.7082
65.819348 93.207 -135.9549
66.296302 93.240 -136.2028
66.776713 93.272 -136.4507
67.260604 93.304 -136.6980
67.748002 93.334 -136.9449
68.238932 93.363 -137.1920
68.733420 93.390 -137.4402
69.231490 93.415 -137.6905
69.733170 93.439 -137.9442
70.238485 93.462 -138.2031
70.747463 93.483 -138.4696
71.260128 93.503 -138.7463
71.776508 93.523 -139.0356
72.296630 93.543 -139.3392
72.820521 93.563 -139.6578
73.348209 93.584 -139.9903
73.879720 93.606 -140.3344
74.415083 93.630 -140.6864
74.954326 93.655 -141.0418
75.497475 93.681 -141.3961
76.044561 93.707 -141.7453
76.595612 93.734 -142.0869
77.150655 93.761 -142.4196
77.709720 93.786 -142.7437
78.272837 93.811 -143.0608
78.840034 93.834 -143.3730
79.411342 93.856 -143.6827
79.986789 93.877 -143.9917
80.566406 93.897 -144.3011
81.150224 93.916 -144.6109
81.738272 93.934 -144.9203
82.330581 93.952 -145.2283
82.927182 93.970 -145.5338
83.528107 93.986 -145.8360
84.133386 94.003 -146.1342
84.743051 94.019 -146.4279
85.357134 94.035 -146.7167
85.975667 94.051 -147.0012
86.598682 94.068 -147.2826
87.226212 94.085 -147.5632
87.858289 94.104 -147.8456
88.494946 94.123 -148.1324
89.136217 94.145 -148.4252
89.782135 94.168 -148.7246
90.432733 94.193 -149.0304
91.088046 94.221 -149.3419
91.748108 94.250 -149.6580
92.412952 94.280 -149.9777
93.082615 94.312 -150.2996
93.757130 94.343 -150.6225
94.436533 94.375 -150.9457
95.120859 94.405 -151.2690
95.810144 94.435 -151.5927
96.504423 94.462 -151.9178
97.203734 94.488 -152.2453
97.908112 94.511 -152.5757
98.617595 94.531 -152.9090
99.332219 94.550 -153.2446
100.052021 94.566 -153.5819
100.777039 94.580 -153.9201
101.507311 94.592 -154.2587
102.242875 94.603 -154.5974
102.983769 94.613 -154.9363
103.730032 94.622 -155.2756
104.481702 94.631 -155.6157
105.238820 94.641 -155.9571
106.001424 94.651 -156.3003
106.769554 94.661 -156.6460
107.543250 94.672 -156.9946
108.322553 94.684 -157.3465
109.107503 94.696 -157.7020
109.898141 94.710 -158.0607
110.694508 94.723 -158.4223
111.496646 94.736 -158.7860
112.304596 94.750 -159.1510
113.118402 94.763 -159.5164
113.938104 94.775 -159.8816
114.763747 94.786 -160.2460
115.595372 94.795 -160.6095
116.433024 94.804 -160.9722
117.276746 94.811 -161.3345
118.126581 94.817 -161.6971
118.982575 94.822 -162.0609
119.844772 94.826 -162.4267
120.713217 94.830 -162.7951
121.587954 94.834 -163.1660
122.469031 94.838 -163.5394
123.356492 94.842 -163.9148
124.250384 94.846 -164.2919
125.150753 94.850 -164.6705
126.057647 94.854 -165.0505
126.971113 94.858 -165.4318
127.891198 94.862 -165.8137
128.817950 94.867 -166.1954
129.751418 94.872 -166.5759
130.691651 94.878 -166.9541
131.638696 94.884 -167.3293
132.592604 94.890 -167.7014
133.553425 94.896 -168.0707
134.521208 94.901 -168.4376
135.496004 94.905 -168.8028
136.477864 94.908 -169.1664
137.466839 94.910 -169.5284
138.462981 94.909 -169.8885
139.466340 94.906 -170.2463
140.476971 94.901 -170.6019
141.494925 94.893 -170.9554
142.520256 94.882 -171.3069
143.553016 94.869 -171.6564
144.593260 94.853 -172.0038
145.641043 94.835 -172.3484
146.696418 94.815 -172.6895
147.759441 94.793 -173.0263
148.830166 94.770 -173.3582
149.908651 94.745 -173.6848
150.994951 94.721 -174.0063
152.089123 94.696 -174.3234
153.191223 94.672 -174.6371
154.301310 94.649 -174.9485
155.419441 94.626 -175.2584
156.545674 94.604 -175.5671
157.680069 94.584 -175.8746
158.822683 94.563 -176.1806
159.973578 94.543 -176.4848
161.132813 94.522 -176.7871
162.300447 94.501 -177.0873
163.476543 94.479 -177.3853
164.661162 94.455 -177.6809
165.854364 94.430 -177.9738
167.056213 94.404 -178.2633
168.266772 94.377 -178.5488
169.486102 94.349 -178.8293
170.714268 94.321 -179.1039
171.951334 94.291 -179.3716
173.197364 94.262 -179.6316
174.452424 94.231 -179.8832
175.716578 94.200 179.8740
176.989893 94.168 179.6400
178.272434 94.135 179.4149
179.564270 94.101 179.1985
180.865467 94.065 178.9907
182.176092 94.028 178.7910
183.496216 93.988 178.5989
184.825905 93.947 178.4138
186.165229 93.904 178.2351
187.514259 93.858 178.0620
188.873065 93.811 177.8940
190.241717 93.762 177.7310
191.620287 93.711 177.5730
193.008847 93.658 177.4201
194.407468 93.603 177.2726
195.816225 93.546 177.1306
197.235190 93.487 176.9941
198.664438 93.427 176.8634
200.104042 93.365 176.7385
201.554078 93.302 176.6197
203.014622 93.238 176.5073
204.485750 93.174 176.4014
205.967538 93.111 176.3016
207.460064 93.048 176.2073
208.963405 92.988 176.1178
210.477640 92.931 176.0322
212.002848 92.876 175.9503
213.539108 92.826 175.8715
215.086500 92.781 175.7958
216.645105 92.740 175.7231
218.215005 92.705 175.6535
219.796281 92.675 175.5872
221.389015 92.651 175.5245
222.993292 92.631 175.4661
224.609193 92.616 175.4123
226.236804 92.605 175.3635
227.876209 92.598 175.3200
229.527494 92.593 175.2817
231.190745 92.592 175.2486
232.866048 92.593 175.2201
234.553491 92.595 175.1962
236.253163 92.600 175.1768
237.965150 92.605 175.1619
239.689544 92.612 175.1518
241.426433 92.620 175.1466
243.175909 92.627 175.1462
244.938062 92.635 175.1503
246.712984 92.643 175.1583
248.500768 92.651 175.1695
250.301507 92.658 175.1830
252.115295 92.665 175.1981
253.942226 92.672 175.2142
255.782396 92.679 175.2314
257.635901 92.686 175.2499
259.502837 92.692 175.2703
261.383301 92.699 175.2932
263.277392 92.705 175.3194
265.185209 92.710 175.3499
267.106850 92.714 175.3850
269.042417 92.716 175.4250
270.992009 92.716 175.4697
272.955729 92.713 175.5181
274.933678 92.707 175.5691
276.925961 92.697 175.6214
278.932681 92.684 175.6740
280.953942 92.666 175.7261
282.989850 92.645 175.7776
285.040511 92.620 175.8284
287.106032 92.591 175.8786
289.186521 92.559 175.9288
291.282086 92.523 175.9797
293.392836 92.484 176.0322
295.518881 92.443 176.0874
297.660333 92.400 176.1463
299.817302 92.355 176.2097
301.989902 92.309 176.2778
304.178245 92.263 176.3508
306.382446 92.216 176.4285
308.602620 92.171 176.5101
310.838882 92.127 176.5949
313.091348 92.086 176.6819
315.360137 92.048 176.7702
317.645367 92.013 176.8590
319.947156 91.982 176.9474
322.265625 91.957 177.0352
324.600895 91.937 177.1217
326.953086 91.922 177.2067
329.322323 91.913 177.2902
331.708729 91.911 177.3716
334.112427 91.915 177.4508
336.533543 91.925 177.5272
338.972204 91.942 177.5999
341.428536 91.964 177.6680
343.902668 91.992 177.7308
346.394729 92.026 177.7875
348.904848 92.064 177.8377
351.433156 92.106 177.8811
353.979786 92.150 177.9172
356.544869 92.196 177.9459
359.128540 92.243 177.9667
361.730934 92.290 177.9797
364.352185 92.336 177.9847
366.992431 92.379 177.9821
369.651810 92.420 177.9719
372.330459 92.457 177.9547
375.028519 92.489 177.9310
377.746130 92.517 177.9013
380.483434 92.540 177.8661
383.240574 92.557 177.8259
386.017693 92.570 177.7809
388.814937 92.578 177.7314
391.632450 92.583 177.6776
394.470380 92.585 177.6195
397.328875 92.584 177.5573
400.208084 92.583 177.4911
403.108157 92.581 177.4213
406.029245 92.581 177.3481
408.971500 92.583 177.2716
411.935076 92.589 177.1920
414.920127 92.598 177.1091
417.926810 92.611 177.0227
420.955280 92.629 176.9323
424.005695 92.650 176.8374
427.078215 92.676 176.7373
430.173000 92.705 176.6315
433.290211 92.736 176.5197
436.430010 92.769 176.4016
439.592562 92.802 176.2772
442.778031 92.834 176.1468
445.986583 92.864 176.0103
449.218386 92.893 175.8678
452.473607 92.918 175.7194
455.752418 92.941 175.5649
459.054987 92.960 175.4044
462.381489 92.975 175.2377
465.732096 92.987 175.0652
469.106983 92.996 174.8873
472.506325 93.002 174.7046
475.930301 93.006 174.5178
479.379088 93.006 174.3278
482.852867 93.005 174.1358
486.351817 93.002 173.9429
489.876123 92.998 173.7502
493.425968 92.993 173.5587
497.001536 92.988 173.3693
500.603014 92.983 173.1826
504.230589 92.979 172.9990
507.884452 92.978 172.8190
511.564792 92.981 172.6429
515.271802 92.987 172.4708
519.005673 92.998 172.3031
522.766602 93.015 172.1400
526.554785 93.037 171.9814
530.370418 93.065 171.8274
534.213700 93.097 171.6779
538.084833 93.135 171.5329
541.984018 93.176 171.3922
545.911457 93.219 171.2558
549.867357 93.262 171.1234
553.851922 93.305 170.9949
557.865362 93.346 170.8699
561.907884 93.384 170.7483
565.979700 93.416 170.6296
570.081022 93.443 170.5135
574.212064 93.462 170.3995
578.373042 93.474 170.2872
582.564171 93.477 170.1760
586.785671 93.471 170.0655
591.037762 93.455 169.9552
595.320665 93.429 169.8448
599.634604 93.393 169.7340
603.979804 93.347 169.6226
608.356491 93.293 169.5105
612.764893 93.230 169.3976
617.205240 93.161 169.2842
621.677763 93.086 169.1705
626.182696 93.008 169.0568
630.720274 92.928 168.9435
635.290733 92.848 168.8310
639.894312 92.770 168.7194
644.531250 92.696 168.6090
649.201789 92.626 168.4995
653.906173 92.564 168.3904
658.644647 92.508 168.2808
663.417457 92.461 168.1694
668.224854 92.423 168.0546
673.067086 92.395 167.9346
677.944408 92.375 167.8077
682.857073 92.365 167.6727
687.805336 92.363 167.5287
692.789457 92.370 167.3754
697.809695 92.383 167.2133
702.866312 92.402 167.0431
707.959571 92.425 166.8663
713.089738 92.451 166.6844
718.257080 92.478 166.4994
723.461867 92.505 166.3129
728.704370 92.530 166.1267
733.984862 92.552 165.9423
739.303619 92.570 165.7611
744.660918 92.582 165.5842
750.057038 92.590 165.4128
755.492260 92.591 165.2480
760.966869 92.587 165.0908
766.481148 92.578 164.9423
772.035387 92.564 164.8039
777.629873 92.547 164.6769
783.264900 92.525 164.5626
788.940760 92.499 164.4624
794.657750 92.469 164.3781
800.416168 92.434 164.3107
806.216313 92.395 164.2616
812.058489 92.350 164.2313
817.943000 92.300 164.2202
823.870152 92.243 164.2275
829.840255 92.182 164.2518
835.853619 92.117 164.2903
841.910559 92.048 164.3389
848.011390 91.980 164.3918
854.156430 91.913 164.4415
860.346000 91.850 164.4795
866.580422 91.794 164.4959
872.860020 91.746 164.4813
879.185124 91.708 164.4267
885.556062 91.681 164.3257
891.973166 91.663 164.1750
898.436771 91.654 163.9750
904.947215 91.652 163.7308
911.504835 91.654 163.4509
918.109975 91.659 163.1468
924.762978 91.665 162.8312
931.464192 91.671 162.5164
938.213966 91.675 162.2136
945.012651 91.676 161.9315
951.860602 91.675 161.6764
958.758176 91.670 161.4522
965.705733 91.661 161.2608
972.703635 91.649 161.1024
979.752246 91.634 160.9759
986.851935 91.615 160.8797
994.003071 91.594 160.8116
1001.206027 91.570 160.7693
1008.461179 91.545 160.7507
1015.768904 91.520 160.7540
1023.129584 91.495 160.7778
1030.543603 91.472 160.8218
1038.011347 91.451 160.8862
1045.533205 91.434 160.9724
1053.109569 91.422 161.0828
1060.740836 91.414 161.2208
1068.427401 91.412 161.3909
1076.169666 91.416 161.5984
1083.968035 91.426 161.8491
1091.822915 91.442 162.1487
1099.734713 91.464 162.5023
1107.703844 91.493 162.9131
1115.730723 91.530 163.3815
1123.815768 91.575 163.9028
1131.959400 91.630 164.4665
1140.162045 91.697 165.0547
1148.424129 91.777 165.6417
1156.746083 91.870 166.1955
1165.128342 91.977 166.6806
1173.571343 92.095 167.0620
1182.075524 92.222 167.3106
1190.641331 92.352 167.4078
1199.269209 92.483 167.3481
1207.959608 92.609 167.1395
1216.712981 92.728 166.8008
1225.529785 92.836 166.3580
1234.410479 92.933 165.8401
1243.355526 93.019 165.2754
1252.365393 93.094 164.6888
1261.440549 93.160 164.1010
1270.581467 93.219 163.5275
1279.788624 93.271 162.9794
1289.062500 93.318 162.4636
1298.403578 93.361 161.9837
1307.812346 93.401 161.5410
1317.289293 93.438 161.1346
1326.834914 93.473 160.7630
1336.449707 93.504 160.4236
1346.134173 93.533 160.1137
1355.888816 93.559 159.8303
1365.714145 93.581 159.5707
1375.610673 93.600 159.3322
1385.578915 93.616 159.1124
1395.619391 93.627 158.9092
1405.732624 93.635 158.7208
1415.919142 93.639 158.5455
1426.179476 93.639 158.3818
1436.514160 93.637 158.2287
1446.923734 93.631 158.0849
1457.408740 93.623 157.9496
1467.969724 93.613 157.8220
1478.607238 93.600 157.7017
1489.321836 93.586 157.5882
1500.114076 93.569 157.4811
1510.984521 93.549 157.3804
1521.933737 93.527 157.2856
1532.962297 93.502 157.1966
1544.070773 93.474 157.1131
1555.259747 93.442 157.0346
1566.529800 93.408 156.9608
1577.881521 93.371 156.8914
1589.315501 93.332 156.8256
1600.832336 93.291 156.7632
1612.432627 93.249 156.7036
1624.116978 93.206 156.6463
1635.886000 93.163 156.5907
1647.740304 93.119 156.5366
1659.680509 93.077 156.4833
1671.707238 93.034 156.4307
1683.821118 92.991 156.3782
1696.022780 92.948 156.3257
1708.312860 92.906 156.2729
1720.692000 92.863 156.2196
1733.160843 92.820 156.1658
1745.720041 92.777 156.1117
1758.370248 92.735 156.0572
1771.112124 92.694 156.0025
1783.946332 92.654 155.9478
1796.873543 92.616 155.8933
1809.894429 92.580 155.8394
1823.009670 92.545 155.7863
1836.219950 92.511 155.7346
1849.525956 92.478 155.6848
1862.928384 92.445 155.6374
1876.427931 92.411 155.5931
1890.025301 92.376 155.5529
1903.721204 92.338 155.5175
1917.516352 92.296 155.4877
1931.411466 92.251 155.4645
1945.407270 92.203 155.4486
1959.504493 92.150 155.4408
1973.703870 92.094 155.4416
1988.006142 92.034 155.4513
2002.412054 91.972 155.4698
2016.922357 91.909 155.4969
2031.537808 91.844 155.5318
2046.259169 91.780 155.5735
2061.087206 91.717 155.6210
2076.022694 91.656 155.6733
2091.066410 91.598 155.7294
2106.219139 91.542 155.7890
2121.481671 91.490 155.8523
2136.854802 91.442 155.9199
2152.339333 91.398 155.9933
2167.936071 91.358 156.0739
2183.645829 91.324 156.1633
2199.469427 91.295 156.2628
2215.407689 91.272 156.3732
2231.461446 91.255 156.4945
2247.631536 91.245 156.6267
2263.918800 91.242 156.7692
2280.324089 91.247 156.9217
2296.848258 91.258 157.0839
2313.492167 91.276 157.2558
2330.256685 91.300 157.4380
2347.142685 91.331 157.6313
2364.151049 91.366 157.8364
2381.282662 91.406 158.0543
2398.538418 91.450 158.2859
2415.919216 91.497 158.5319
2433.425962 91.547 158.7926
2451.059570 91.598 159.0681
2468.820958 91.650 159.3578
2486.711052 91.703 159.6607
2504.730786 91.755 159.9753
2522.881098 91.807 160.2996
2541.162934 91.856 160.6311
2559.577248 91.904 160.9672
2578.125000 91.948 161.3053
2596.807157 91.989 161.6430
2615.624692 92.026 161.9780
2634.578586 92.058 162.3085
2653.669829 92.084 162.6333
2672.899414 92.106 162.9514
2692.268345 92.121 163.2622
2711.777632 92.131 163.5654
2731.428290 92.134 163.8606
2751.221345 92.132 164.1478
2771.157829 92.124 164.4268
2791.238781 92.110 164.6978
2811.465248 92.091 164.9609
2831.838284 92.066 165.2168
2852.358952 92.036 165.4662
2873.028321 92.000 165.7103
2893.847468 91.959 165.9504
2914.817480 91.913 166.1886
2935.939449 91.861 166.4270
2957.214476 91.805 166.6683
2978.643672 91.745 166.9152
3000.228152 91.680 167.1708
3021.969041 91.611 167.4381
3043.867475 91.539 167.7198
3065.924593 91.464 168.0186
3088.141547 91.387 168.3363
3110.519493 91.309 168.6747
3133.059600 91.231 169.0350
3155.763041 91.153 169.4178
3178.631001 91.076 169.8235
3201.664672 91.000 170.2518
3224.865254 90.927 170.7018
3248.233957 90.858 171.1724
3271.771999 90.792 171.6617
3295.480608 90.732 172.1680
3319.361019 90.676 172.6893
3343.414477 90.627 173.2241
3367.642236 90.585 173.7711
3392.045560 90.550 174.3297
3416.625721 90.522 174.8994
3441.383999 90.503 175.4799
3466.321686 90.492 176.0708
3491.440082 90.491 176.6716
3516.740496 90.499 177.2812
3542.224247 90.516 177.8983
3567.892664 90.543 178.5208
3593.747085 90.579 179.1465
3619.788858 90.624 179.7727
3646.019340 90.679 -179.6034
3672.439900 90.743 -178.9843
3699.051913 90.815 -178.3726
3725.856768 90.895 -177.7705
3752.855862 90.983 -177.1799
3780.050603 91.079 -176.6023
3807.442408 91.181 -176.0393
3835.032705 91.290 -175.4925
3862.822933 91.405 -174.9633
3890.814540 91.525 -174.4534
3919.008986 91.651 -173.9645
3947.407741 91.782 -173.4980
3976.012284 91.917 -173.0551
4004.824108 92.056 -172.6367
4033.844715 92.197 -172.2435
4063.075616 92.340 -171.8756
4092.518337 92.485 -171.5327
4122.174412 92.632 -171.2142
4152.045387 92.779 -170.9192
4182.132820 92.927 -170.6465
4212.438278 93.076 -170.3946
4242.963342 93.225 -170.1621
4273.709604 93.377 -169.9479
4304.678665 93.530 -169.7512
4335.872141 93.685 -169.5720
4367.291658 93.844 -169.4111
4398.938854 94.007 -169.2703
4430.815378 94.175 -169.1525
4462.922893 94.348 -169.0619
4495.263072 94.526 -169.0035
4527.837601 94.711 -168.9835
4560.648179 94.902 -169.0088
4593.696515 95.098 -169.0867
4626.984334 95.298 -169.2248
4660.513370 95.503 -169.4304
4694.285371 95.710 -169.7104
4728.302098 95.918 -170.0705
4762.565324 96.125 -170.5155
4797.076835 96.329 -171.0485
4831.838432 96.529 -171.6711
4866.851925 96.723 -172.3830
4902.119140 96.908 -173.1822
4937.641916 97.083 -174.0647
4973.422105 97.246 -175.0248
5009.461572 97.396 -176.0553
5045.762195 97.531 -177.1473
5082.325868 97.650 -178.2906
5119.154496 97.751 -179.4737
5156.250000 97.835 179.3155
5193.614313 97.901 178.0900
5231.249383 97.948 176.8625
5269.157173 97.976 175.6459
5307.339658 97.986 174.4517
5345.798829 97.979 173.2906
5384.536691 97.955 172.1716
5423.555263 97.915 171.1021
5462.856580 97.861 170.0874
5502.442691 97.795 169.1312
5542.315659 97.718 168.2349
5582.477563 97.632 167.3979
5622.930497 97.540 166.6173
5663.676569 97.445 165.8878
5704.717904 97.349 165.2014
5746.056642 97.255 164.5477
5787.694937 97.165 163.9140
5829.634960 97.080 163.2861
5871.878898 97.002 162.6489
5914.428953 96.931 161.9873
5957.287343 96.867 161.2870
6000.456303 96.809 160.5355
6043.938083 96.755 159.7229
6087.734950 96.703 158.8422
6131.849187 96.650 157.8899
6176.283094 96.592 156.8661
6221.038987 96.526 155.7743
6266.119200 96.450 154.6210
6311.526083 96.361 153.4155
6357.262002 96.257 152.1688
6403.329344 96.136 150.8933
6449.730508 95.997 149.6021
6496.467914 95.840 148.3078
6543.543998 95.666 147.0226
6590.961215 95.475 145.7571
6638.722037 95.270 144.5206
6686.828954 95.050 143.3197
6735.284473 94.820 142.1591
6784.091120 94.582 141.0406
6833.251441 94.338 139.9636
6882.767998 94.091 138.9248
6932.643372 93.843 137.9188
6982.880164 93.596 136.9381
7033.480992 93.352 135.9734
7084.448495 93.111 135.0144
7135.785329 92.875 134.0494
7187.494171 92.642 133.0659
7239.577717 92.413 132.0508
7292.038681 92.186 130.9897
7344.879799 91.960 129.8673
7398.103826 91.734 128.6661
7451.713536 91.505 127.3668
7505.711724 91.273 125.9476
7560.101205 91.036 124.3835
7614.884815 90.795 122.6461
7670.065409 90.549 120.7028
7725.645865 90.299 118.5160
7781.629080 90.048 116.0410
7838.017972 89.798 113.2237
7894.815481 89.556 109.9968
7952.024569 89.326 106.2732
8009.648217 89.118 101.9356
8067.689429 88.939 96.8199
8126.151233 88.797 90.6846
8185.036674 88.701 83.1588
8244.348824 88.656 73.6541
8304.090774 88.664 61.2425
8364.265639 88.722 44.6461
8424.876556 88.825 22.9857
8485.926684 88.962 -1.9640
8547.419207 89.122 -25.4066
8609.357330 89.292 -44.2375
8671.744282 89.461 -58.6886
8734.583316 89.619 -70.0242
8797.877707 89.760 -79.2693
8861.630756 89.882 -87.0753
8925.845785 89.984 -93.8380
8990.526143 90.066 -99.8032
9055.675202 90.132 -105.1312
9121.296357 90.185 -109.9348
9187.393031 90.228 -114.2987
9253.968668 90.262 -118.2914
9321.026740 90.289 -121.9708
9388.570742 90.310 -125.3875
9456.604196 90.323 -128.5848
9525.130648 90.327 -131.6000
9594.153671 90.319 -134.4625
9663.676863 90.295 -137.1941
9733.703850 90.253 -139.8088
9804.238280 90.189 -142.3133
9875.283832 90.103 -144.7078
9946.844210 89.992 -146.9883
10018.923143 89.858 -149.1484
10091.524390 89.701 -151.1823
10164.651736 89.525 -153.0860
10238.308993 89.332 -154.8605
10312.500000 89.126 -156.5121
10387.228626 88.913 -158.0539
10462.498767 88.695 -159.5051
10538.314345 88.477 -160.8903
10614.679315 88.261 -162.2382
10691.597657 88.048 -163.5793
10769.073381 87.839 -164.9438
10847.110526 87.630 -166.3593
10925.713161 87.420 -167.8477
11004.885382 87.203 -169.4241
11084.631318 86.974 -171.0945
11164.955126 86.726 -172.8549
11245.860993 86.454 -174.6892
11327.353138 86.149 -176.5701
11409.435808 85.807 -178.4576
11492.113283 85.422 179.6997
11575.389873 84.990 177.9633
11659.269920 84.509 176.4016
11743.757796 83.978 175.0864
11828.857906 83.400 174.0868
11914.574686 82.779 173.4615
12000.912606 82.121 173.2513
12087.876166 81.435 173.4696
12175.469900 80.732 174.0961
12263.698373 80.024 175.0746
12352.566187 79.321 176.3187
12442.077974 78.634 177.7274
12532.238400 77.973 179.2080
12623.052165 77.342 -179.2977
12714.524005 76.745 -177.7906
12806.658687 76.183 -176.1934
12899.461015 75.658 -174.3305
12992.935827 75.175 -171.9038
13087.087996 74.745 -168.4600
13181.922430 74.385 -163.3758
13277.444074 74.118 -155.9575
13373.657907 73.971 -145.8824
13470.568945 73.960 -134.0352
13568.182241 74.087 -122.6725
13666.502883 74.338 -113.8815
13765.535996 74.682 -108.2827
13865.286744 75.083 -105.4415
13965.760328 75.508 -104.6667
14066.961984 75.931 -105.3693
14168.896989 76.330 -107.1233
14271.570658 76.696 -109.6375
14374.988342 77.020 -112.7159
14479.155433 77.298 -116.2277
14584.077362 77.527 -120.0847
14689.759598 77.705 -124.2263
14796.207652 77.830 -128.6088
14903.427072 77.898 -133.1962
15011.423448 77.907 -137.9554
15120.202410 77.854 -142.8516
15229.769630 77.735 -147.8464
15340.130819 77.547 -152.8979
15451.291730 77.291 -157.9614
15563.258160 76.965 -162.9932
15676.035944 76.573 -167.9537
15789.630962 76.119 -172.8112
15904.049137 75.607 -177.5431
16019.296433 75.044 177.8652
16135.378859 74.436 173.4246
16252.302465 73.787 169.1499
16370.073348 73.102 165.0668
16488.697648 72.385 161.2169
16608.181548 71.637 157.6572
16728.531278 70.865 154.4491
16849.753112 70.076 151.6365
16971.853368 69.284 149.2136
17094.838414 68.504 147.0921
17218.714660 67.759 145.0865
17343.488565 67.069 142.9340
17469.166632 66.449 140.3514
17595.755415 65.906 137.1024
17723.261512 65.434 133.0409
17851.691571 65.013 128.1173
17981.052287 64.622 122.3561
18111.350404 64.235 115.8239
18242.592715 63.829 108.5998
18374.786062 63.389 100.7529
18507.937336 62.903 92.3248
18642.053479 62.365 83.3171
18777.141484 61.775 73.6819
18913.208391 61.138 63.3221
19050.261296 60.461 52.1128
19188.307342 59.758 39.9747
19327.353727 59.048 27.0317
19467.407699 58.357 13.8235
19608.476560 57.719 1.3799
19750.567664 57.177 -9.0499
19893.688419 56.779 -16.4513
20037.846286 56.567 -20.2582
