* Measurement data measured by REW V5.31.3
* Source: EXCL: Headset (USB-C to 3.5mm Headphone Jack Adapter), MICROPHONE (Master Volume), 0, volume: 0.260
* Format: 256k Log Swept Sine, 1 sweep at -12.0 dBFS with no timing reference
* Dated: Mar 5, 2025 10:53:56 AM
* REW Settings:
*  C-weighting compensation: Off
*  Target level: 75.0 dB
* Note: ; 
* Measurement: Ouroboros Reprint L6
* Smoothing: 1/6 octave
* Frequency Step: 96 ppo
* Start Frequency: 20.0 Hz
*
* Freq(Hz) SPL(dB) Phase(degrees)
20.141602 98.358 -100.1263
20.287556 98.339 -100.4104
20.434568 98.313 -100.7899
20.582645 98.281 -101.2518
20.731796 98.243 -101.7813
20.882027 98.202 -102.3637
21.033346 98.158 -102.9848
21.185763 98.112 -103.6319
21.339284 98.067 -104.2946
21.493917 98.025 -104.9643
21.649671 97.985 -105.6351
21.806553 97.949 -106.3026
21.964572 97.918 -106.9643
22.123737 97.892 -107.6186
22.284054 97.870 -108.2641
22.445534 97.851 -108.8998
22.608183 97.835 -109.5244
22.772012 97.820 -110.1363
22.937027 97.806 -110.7338
23.103238 97.792 -111.3158
23.270654 97.778 -111.8817
23.439282 97.763 -112.4324
23.609133 97.748 -112.9705
23.780215 97.734 -113.5004
23.952536 97.720 -114.0281
24.126106 97.709 -114.5610
24.300934 97.699 -115.1066
24.477028 97.690 -115.6717
24.654399 97.683 -116.2617
24.833055 97.678 -116.8790
25.013005 97.672 -117.5234
25.194260 97.667 -118.1913
25.376828 97.661 -118.8767
25.560719 97.653 -119.5717
25.745942 97.645 -120.2680
25.932508 97.637 -120.9581
26.120426 97.630 -121.6364
26.309705 97.624 -122.3002
26.500356 97.620 -122.9501
26.692388 97.620 -123.5897
26.885812 97.622 -124.2248
27.080638 97.627 -124.8621
27.276876 97.635 -125.5078
27.474535 97.643 -126.1661
27.673627 97.650 -126.8382
27.874161 97.655 -127.5217
28.076149 97.657 -128.2110
28.279600 97.655 -128.8976
28.484526 97.649 -129.5721
28.690937 97.639 -130.2249
28.898843 97.627 -130.8483
29.108256 97.612 -131.4374
29.319186 97.596 -131.9908
29.531645 97.581 -132.5104
29.745644 97.565 -133.0012
29.961193 97.550 -133.4696
30.178304 97.535 -133.9222
30.396989 97.518 -134.3648
30.617258 97.499 -134.8013
30.839123 97.477 -135.2333
31.062596 97.451 -135.6603
31.287688 97.421 -136.0804
31.514412 97.388 -136.4911
31.742778 97.353 -136.8899
31.972800 97.318 -137.2756
32.204488 97.285 -137.6480
32.437855 97.256 -138.0087
32.672913 97.232 -138.3607
32.909674 97.215 -138.7078
33.148151 97.206 -139.0543
33.388356 97.205 -139.4043
33.630302 97.211 -139.7614
33.874001 97.222 -140.1279
34.119466 97.238 -140.5048
34.366710 97.255 -140.8919
34.615745 97.271 -141.2875
34.866585 97.283 -141.6888
35.119243 97.290 -142.0923
35.373731 97.289 -142.4937
35.630064 97.279 -142.8887
35.888254 97.259 -143.2728
36.148315 97.230 -143.6420
36.410261 97.192 -143.9923
36.674104 97.145 -144.3208
36.939860 97.092 -144.6245
37.207542 97.034 -144.9016
37.477163 96.973 -145.1508
37.748738 96.911 -145.3714
38.022281 96.848 -145.5640
38.297806 96.788 -145.7301
38.575327 96.729 -145.8727
38.854860 96.673 -145.9957
39.136419 96.620 -146.1045
39.420017 96.569 -146.2049
39.705671 96.520 -146.3031
39.993395 96.472 -146.4049
40.283203 96.425 -146.5153
40.575112 96.378 -146.6375
40.869136 96.332 -146.7731
41.165290 96.286 -146.9218
41.463591 96.241 -147.0815
41.764053 96.197 -147.2482
42.066693 96.156 -147.4171
42.371525 96.117 -147.5827
42.678567 96.081 -147.7393
42.987834 96.048 -147.8819
43.299341 96.017 -148.0066
43.613106 95.989 -148.1108
43.929145 95.964 -148.1937
44.247473 95.941 -148.2563
44.568109 95.920 -148.3008
44.891068 95.901 -148.3311
45.216367 95.886 -148.3516
45.544023 95.874 -148.3668
45.874054 95.866 -148.3810
46.206476 95.863 -148.3970
46.541307 95.866 -148.4167
46.878565 95.874 -148.4404
47.218266 95.888 -148.4672
47.560429 95.908 -148.4958
47.905072 95.933 -148.5249
48.252212 95.963 -148.5540
48.601867 95.999 -148.5833
48.954056 96.038 -148.6141
49.308798 96.081 -148.6479
49.666109 96.127 -148.6867
50.026010 96.176 -148.7323
50.388520 96.226 -148.7864
50.753656 96.278 -148.8508
51.121437 96.331 -148.9269
51.491884 96.384 -149.0165
51.865016 96.437 -149.1215
52.240851 96.490 -149.2431
52.619410 96.543 -149.3824
53.000712 96.594 -149.5390
53.384777 96.644 -149.7113
53.771625 96.692 -149.8969
54.161276 96.738 -150.0922
54.553751 96.782 -150.2936
54.949070 96.824 -150.4978
55.347254 96.864 -150.7024
55.748323 96.903 -150.9058
56.152298 96.939 -151.1077
56.559201 96.975 -151.3082
56.969052 97.010 -151.5079
57.381873 97.044 -151.7075
57.797686 97.079 -151.9081
58.216512 97.115 -152.1114
58.638373 97.152 -152.3202
59.063291 97.189 -152.5380
59.491288 97.226 -152.7682
59.922386 97.262 -153.0131
60.356608 97.297 -153.2732
60.793977 97.330 -153.5476
61.234515 97.362 -153.8343
61.678246 97.392 -154.1314
62.125192 97.421 -154.4371
62.575377 97.451 -154.7503
63.028824 97.480 -155.0696
63.485557 97.509 -155.3938
63.945599 97.538 -155.7218
64.408975 97.567 -156.0533
64.875709 97.596 -156.3881
65.345825 97.624 -156.7262
65.819348 97.650 -157.0678
66.296302 97.677 -157.4129
66.776713 97.702 -157.7617
67.260604 97.727 -158.1143
67.748002 97.751 -158.4710
68.238932 97.774 -158.8319
68.733420 97.798 -159.1972
69.231490 97.821 -159.5670
69.733170 97.843 -159.9415
70.238485 97.866 -160.3204
70.747463 97.888 -160.7038
71.260128 97.909 -161.0916
71.776508 97.931 -161.4838
72.296630 97.951 -161.8802
72.820521 97.972 -162.2810
73.348209 97.992 -162.6859
73.879720 98.011 -163.0946
74.415083 98.030 -163.5071
74.954326 98.048 -163.9230
75.497475 98.065 -164.3421
76.044561 98.082 -164.7644
76.595612 98.097 -165.1899
77.150655 98.112 -165.6186
77.709720 98.125 -166.0506
78.272837 98.138 -166.4858
78.840034 98.148 -166.9240
79.411342 98.158 -167.3647
79.986789 98.166 -167.8070
80.566406 98.173 -168.2504
81.150224 98.179 -168.6940
81.738272 98.184 -169.1371
82.330581 98.187 -169.5794
82.927182 98.190 -170.0206
83.528107 98.191 -170.4606
84.133386 98.192 -170.8993
84.743051 98.192 -171.3365
85.357134 98.191 -171.7719
85.975667 98.189 -172.2052
86.598682 98.188 -172.6358
87.226212 98.187 -173.0635
87.858289 98.186 -173.4881
88.494946 98.185 -173.9095
89.136217 98.185 -174.3275
89.782135 98.186 -174.7421
90.432733 98.187 -175.1533
91.088046 98.189 -175.5611
91.748108 98.191 -175.9658
92.412952 98.194 -176.3679
93.082615 98.197 -176.7679
93.757130 98.200 -177.1664
94.436533 98.202 -177.5640
95.120859 98.204 -177.9614
95.810144 98.204 -178.3590
96.504423 98.202 -178.7570
97.203734 98.197 -179.1556
97.908112 98.190 -179.5546
98.617595 98.180 -179.9538
99.332219 98.167 179.6467
100.052021 98.152 179.2467
100.777039 98.135 178.8461
101.507311 98.115 178.4446
102.242875 98.094 178.0420
102.983769 98.072 177.6381
103.730032 98.048 177.2328
104.481702 98.024 176.8260
105.238820 98.000 176.4180
106.001424 97.976 176.0086
106.769554 97.953 175.5980
107.543250 97.930 175.1862
108.322553 97.909 174.7732
109.107503 97.888 174.3591
109.898141 97.868 173.9447
110.694508 97.849 173.5307
111.496646 97.829 173.1182
112.304596 97.810 172.7081
113.118402 97.790 172.3014
113.938104 97.770 171.8990
114.763747 97.748 171.5015
115.595372 97.725 171.1091
116.433024 97.700 170.7217
117.276746 97.673 170.3389
118.126581 97.645 169.9598
118.982575 97.615 169.5836
119.844772 97.583 169.2093
120.713217 97.550 168.8362
121.587954 97.515 168.4636
122.469031 97.480 168.0912
123.356492 97.445 167.7189
124.250384 97.409 167.3473
125.150753 97.373 166.9770
126.057647 97.337 166.6091
126.971113 97.302 166.2447
127.891198 97.268 165.8844
128.817950 97.234 165.5289
129.751418 97.201 165.1785
130.691651 97.169 164.8333
131.638696 97.137 164.4936
132.592604 97.105 164.1594
133.553425 97.074 163.8308
134.521208 97.042 163.5075
135.496004 97.010 163.1888
136.477864 96.976 162.8741
137.466839 96.941 162.5626
138.462981 96.903 162.2536
139.466340 96.863 161.9468
140.476971 96.821 161.6421
141.494925 96.775 161.3395
142.520256 96.726 161.0394
143.553016 96.674 160.7421
144.593260 96.620 160.4482
145.641043 96.563 160.1584
146.696418 96.504 159.8733
147.759441 96.443 159.5936
148.830166 96.381 159.3196
149.908651 96.319 159.0519
150.994951 96.256 158.7909
152.089123 96.194 158.5370
153.191223 96.132 158.2910
154.301310 96.071 158.0537
155.419441 96.011 157.8257
156.545674 95.952 157.6076
157.680069 95.893 157.3996
158.822683 95.836 157.2015
159.973578 95.778 157.0131
161.132813 95.720 156.8339
162.300447 95.663 156.6633
163.476543 95.605 156.5012
164.661162 95.546 156.3471
165.854364 95.488 156.2011
167.056213 95.429 156.0629
168.266772 95.370 155.9324
169.486102 95.311 155.8092
170.714268 95.252 155.6931
171.951334 95.193 155.5840
173.197364 95.134 155.4819
174.452424 95.074 155.3868
175.716578 95.013 155.2987
176.989893 94.952 155.2177
178.272434 94.890 155.1436
179.564270 94.827 155.0763
180.865467 94.763 155.0155
182.176092 94.698 154.9610
183.496216 94.631 154.9127
184.825905 94.563 154.8706
186.165229 94.494 154.8348
187.514259 94.423 154.8055
188.873065 94.351 154.7834
190.241717 94.277 154.7687
191.620287 94.201 154.7623
193.008847 94.123 154.7644
194.407468 94.043 154.7756
195.816225 93.961 154.7959
197.235190 93.877 154.8255
198.664438 93.792 154.8643
200.104042 93.706 154.9120
201.554078 93.619 154.9681
203.014622 93.531 155.0324
204.485750 93.445 155.1044
205.967538 93.359 155.1841
207.460064 93.275 155.2714
208.963405 93.193 155.3660
210.477640 93.114 155.4677
212.002848 93.039 155.5759
213.539108 92.969 155.6901
215.086500 92.903 155.8101
216.645105 92.843 155.9357
218.215005 92.789 156.0671
219.796281 92.741 156.2048
221.389015 92.699 156.3492
222.993292 92.662 156.5008
224.609193 92.630 156.6600
226.236804 92.603 156.8271
227.876209 92.581 157.0022
229.527494 92.562 157.1852
231.190745 92.546 157.3755
232.866048 92.534 157.5726
234.553491 92.525 157.7755
236.253163 92.518 157.9838
237.965150 92.513 158.1967
239.689544 92.510 158.4138
241.426433 92.509 158.6343
243.175909 92.509 158.8577
244.938062 92.510 159.0830
246.712984 92.511 159.3095
248.500768 92.512 159.5363
250.301507 92.514 159.7629
252.115295 92.516 159.9888
253.942226 92.517 160.2140
255.782396 92.519 160.4383
257.635901 92.521 160.6614
259.502837 92.523 160.8832
261.383301 92.525 161.1031
263.277392 92.528 161.3202
265.185209 92.531 161.5338
267.106850 92.534 161.7430
269.042417 92.538 161.9473
270.992009 92.541 162.1462
272.955729 92.543 162.3398
274.933678 92.544 162.5279
276.925961 92.542 162.7106
278.932681 92.537 162.8879
280.953942 92.529 163.0601
282.989850 92.517 163.2273
285.040511 92.501 163.3900
287.106032 92.481 163.5487
289.186521 92.456 163.7039
291.282086 92.427 163.8560
293.392836 92.394 164.0052
295.518881 92.358 164.1519
297.660333 92.319 164.2958
299.817302 92.277 164.4372
301.989902 92.234 164.5761
304.178245 92.189 164.7128
306.382446 92.143 164.8476
308.602620 92.097 164.9807
310.838882 92.052 165.1124
313.091348 92.009 165.2429
315.360137 91.967 165.3722
317.645367 91.929 165.5004
319.947156 91.894 165.6275
322.265625 91.862 165.7536
324.600895 91.836 165.8787
326.953086 91.814 166.0030
329.322323 91.797 166.1265
331.708729 91.786 166.2494
334.112427 91.780 166.3718
336.533543 91.780 166.4938
338.972204 91.786 166.6155
341.428536 91.797 166.7373
343.902668 91.814 166.8592
346.394729 91.835 166.9813
348.904848 91.861 167.1036
351.433156 91.891 167.2263
353.979786 91.923 167.3491
356.544869 91.957 167.4719
359.128540 91.992 167.5945
361.730934 92.026 167.7166
364.352185 92.060 167.8380
366.992431 92.092 167.9584
369.651810 92.121 168.0776
372.330459 92.147 168.1950
375.028519 92.168 168.3105
377.746130 92.186 168.4238
380.483434 92.199 168.5345
383.240574 92.207 168.6423
386.017693 92.212 168.7472
388.814937 92.212 168.8487
391.632450 92.210 168.9466
394.470380 92.206 169.0404
397.328875 92.200 169.1296
400.208084 92.194 169.2137
403.108157 92.190 169.2917
406.029245 92.187 169.3630
408.971500 92.188 169.4266
411.935076 92.192 169.4820
414.920127 92.201 169.5282
417.926810 92.215 169.5649
420.955280 92.234 169.5914
424.005695 92.257 169.6072
427.078215 92.285 169.6123
430.173000 92.316 169.6064
433.290211 92.349 169.5900
436.430010 92.383 169.5634
439.592562 92.417 169.5275
442.778031 92.450 169.4829
445.986583 92.481 169.4304
449.218386 92.509 169.3706
452.473607 92.534 169.3042
455.752418 92.554 169.2318
459.054987 92.571 169.1540
462.381489 92.583 169.0717
465.732096 92.592 168.9858
469.106983 92.597 168.8972
472.506325 92.598 168.8071
475.930301 92.597 168.7164
479.379088 92.593 168.6262
482.852867 92.587 168.5373
486.351817 92.580 168.4502
489.876123 92.571 168.3654
493.425968 92.562 168.2831
497.001536 92.553 168.2036
500.603014 92.545 168.1270
504.230589 92.538 168.0536
507.884452 92.534 167.9837
511.564792 92.533 167.9179
515.271802 92.537 167.8569
519.005673 92.545 167.8016
522.766602 92.559 167.7529
526.554785 92.578 167.7115
530.370418 92.603 167.6783
534.213700 92.633 167.6536
538.084833 92.668 167.6375
541.984018 92.707 167.6302
545.911457 92.748 167.6313
549.867357 92.791 167.6404
553.851922 92.833 167.6567
557.865362 92.875 167.6795
561.907884 92.913 167.7076
565.979700 92.948 167.7397
570.081022 92.978 167.7747
574.212064 93.002 167.8111
578.373042 93.019 167.8475
582.564171 93.028 167.8823
586.785671 93.030 167.9142
591.037762 93.022 167.9415
595.320665 93.006 167.9631
599.634604 92.980 167.9779
603.979804 92.945 167.9849
608.356491 92.902 167.9836
612.764893 92.851 167.9739
617.205240 92.794 167.9559
621.677763 92.731 167.9299
626.182696 92.664 167.8968
630.720274 92.595 167.8571
635.290733 92.526 167.8119
639.894312 92.458 167.7620
644.531250 92.394 167.7082
649.201789 92.334 167.6512
653.906173 92.279 167.5919
658.644647 92.231 167.5305
663.417457 92.191 167.4677
668.224854 92.158 167.4037
673.067086 92.133 167.3387
677.944408 92.117 167.2729
682.857073 92.109 167.2065
687.805336 92.109 167.1396
692.789457 92.117 167.0723
697.809695 92.131 167.0049
702.866312 92.152 166.9379
707.959571 92.178 166.8718
713.089738 92.207 166.8071
718.257080 92.239 166.7449
723.461867 92.271 166.6859
728.704370 92.303 166.6307
733.984862 92.333 166.5800
739.303619 92.360 166.5340
744.660918 92.383 166.4928
750.057038 92.403 166.4563
755.492260 92.418 166.4242
760.966869 92.430 166.3961
766.481148 92.438 166.3719
772.035387 92.443 166.3512
777.629873 92.446 166.3339
783.264900 92.446 166.3196
788.940760 92.444 166.3084
794.657750 92.438 166.3003
800.416168 92.428 166.2953
806.216313 92.413 166.2935
812.058489 92.394 166.2952
817.943000 92.367 166.3003
823.870152 92.335 166.3089
829.840255 92.296 166.3206
835.853619 92.252 166.3345
841.910559 92.203 166.3493
848.011390 92.151 166.3623
854.156430 92.100 166.3699
860.346000 92.051 166.3671
866.580422 92.007 166.3479
872.860020 91.970 166.3055
879.185124 91.942 166.2326
885.556062 91.925 166.1226
891.973166 91.918 165.9703
898.436771 91.920 165.7732
904.947215 91.931 165.5319
911.504835 91.948 165.2507
918.109975 91.969 164.9373
924.762978 91.991 164.6021
931.464192 92.012 164.2562
938.213966 92.031 163.9109
945.012651 92.047 163.5760
951.860602 92.058 163.2595
958.758176 92.065 162.9670
965.705733 92.067 162.7020
972.703635 92.063 162.4665
979.752246 92.055 162.2608
986.851935 92.041 162.0845
994.003071 92.024 161.9366
1001.206027 92.003 161.8160
1008.461179 91.979 161.7218
1015.768904 91.954 161.6533
1023.129584 91.928 161.6104
1030.543603 91.902 161.5935
1038.011347 91.878 161.6040
1045.533205 91.857 161.6437
1053.109569 91.840 161.7156
1060.740836 91.828 161.8230
1068.427401 91.821 161.9703
1076.169666 91.820 162.1621
1083.968035 91.825 162.4037
1091.822915 91.837 162.6998
1099.734713 91.855 163.0545
1107.703844 91.880 163.4701
1115.730723 91.913 163.9459
1123.815768 91.956 164.4766
1131.959400 92.009 165.0513
1140.162045 92.074 165.6517
1148.424129 92.153 166.2523
1156.746083 92.246 166.8212
1165.128342 92.352 167.3227
1173.571343 92.471 167.7213
1182.075524 92.599 167.9869
1190.641331 92.731 168.0995
1199.269209 92.864 168.0521
1207.959608 92.993 167.8514
1216.712981 93.113 167.5160
1225.529785 93.223 167.0720
1234.410479 93.322 166.5493
1243.355526 93.408 165.9771
1252.365393 93.483 165.3820
1261.440549 93.547 164.7859
1270.581467 93.604 164.2060
1279.788624 93.653 163.6544
1289.062500 93.697 163.1390
1298.403578 93.736 162.6646
1307.812346 93.772 162.2326
1317.289293 93.805 161.8430
1326.834914 93.835 161.4940
1336.449707 93.863 161.1829
1346.134173 93.888 160.9068
1355.888816 93.910 160.6624
1365.714145 93.929 160.4465
1375.610673 93.946 160.2560
1385.578915 93.959 160.0881
1395.619391 93.970 159.9402
1405.732624 93.977 159.8098
1415.919142 93.982 159.6947
1426.179476 93.985 159.5928
1436.514160 93.985 159.5023
1446.923734 93.983 159.4213
1457.408740 93.979 159.3484
1467.969724 93.974 159.2821
1478.607238 93.968 159.2212
1489.321836 93.960 159.1646
1500.114076 93.950 159.1115
1510.984521 93.938 159.0611
1521.933737 93.925 159.0126
1532.962297 93.909 158.9653
1544.070773 93.890 158.9186
1555.259747 93.868 158.8717
1566.529800 93.844 158.8241
1577.881521 93.818 158.7751
1589.315501 93.789 158.7242
1600.832336 93.759 158.6709
1612.432627 93.727 158.6149
1624.116978 93.695 158.5560
1635.886000 93.662 158.4940
1647.740304 93.629 158.4289
1659.680509 93.596 158.3608
1671.707238 93.563 158.2898
1683.821118 93.529 158.2162
1696.022780 93.495 158.1403
1708.312860 93.460 158.0623
1720.692000 93.425 157.9827
1733.160843 93.389 157.9019
1745.720041 93.353 157.8203
1758.370248 93.317 157.7383
1771.112124 93.282 157.6564
1783.946332 93.248 157.5750
1796.873543 93.215 157.4942
1809.894429 93.183 157.4145
1823.009670 93.153 157.3362
1836.219950 93.124 157.2599
1849.525956 93.095 157.1859
1862.928384 93.066 157.1149
1876.427931 93.036 157.0475
1890.025301 93.005 156.9842
1903.721204 92.971 156.9257
1917.516352 92.934 156.8727
1931.411466 92.894 156.8256
1945.407270 92.850 156.7850
1959.504493 92.803 156.7513
1973.703870 92.752 156.7245
1988.006142 92.698 156.7045
2002.412054 92.642 156.6909
2016.922357 92.585 156.6828
2031.537808 92.527 156.6789
2046.259169 92.470 156.6777
2061.087206 92.414 156.6774
2076.022694 92.360 156.6766
2091.066410 92.308 156.6742
2106.219139 92.259 156.6697
2121.481671 92.212 156.6637
2136.854802 92.169 156.6573
2152.339333 92.130 156.6525
2167.936071 92.094 156.6517
2183.645829 92.062 156.6570
2199.469427 92.035 156.6705
2215.407689 92.013 156.6934
2231.461446 91.996 156.7263
2247.631536 91.986 156.7694
2263.918800 91.981 156.8223
2280.324089 91.983 156.8847
2296.848258 91.991 156.9562
2313.492167 92.004 157.0369
2330.256685 92.023 157.1273
2347.142685 92.047 157.2283
2364.151049 92.074 157.3410
2381.282662 92.106 157.4667
2398.538418 92.140 157.6068
2415.919216 92.176 157.7627
2433.425962 92.213 157.9358
2451.059570 92.250 158.1274
2468.820958 92.287 158.3384
2486.711052 92.324 158.5695
2504.730786 92.359 158.8206
2522.881098 92.392 159.0916
2541.162934 92.422 159.3813
2559.577248 92.450 159.6882
2578.125000 92.474 160.0106
2596.807157 92.494 160.3464
2615.624692 92.510 160.6938
2634.578586 92.522 161.0510
2653.669829 92.529 161.4163
2672.899414 92.531 161.7885
2692.268345 92.529 162.1667
2711.777632 92.521 162.5497
2731.428290 92.509 162.9366
2751.221345 92.493 163.3262
2771.157829 92.472 163.7173
2791.238781 92.447 164.1088
2811.465248 92.418 164.4994
2831.838284 92.385 164.8879
2852.358952 92.349 165.2733
2873.028321 92.309 165.6551
2893.847468 92.265 166.0330
2914.817480 92.219 166.4072
2935.939449 92.169 166.7786
2957.214476 92.116 167.1486
2978.643672 92.060 167.5191
3000.228152 92.002 167.8923
3021.969041 91.942 168.2704
3043.867475 91.879 168.6559
3065.924593 91.816 169.0504
3088.141547 91.752 169.4556
3110.519493 91.689 169.8724
3133.059600 91.626 170.3016
3155.763041 91.564 170.7434
3178.631001 91.504 171.1977
3201.664672 91.447 171.6641
3224.865254 91.393 172.1418
3248.233957 91.343 172.6295
3271.771999 91.297 173.1256
3295.480608 91.256 173.6282
3319.361019 91.222 174.1353
3343.414477 91.194 174.6449
3367.642236 91.172 175.1552
3392.045560 91.158 175.6649
3416.625721 91.152 176.1725
3441.383999 91.154 176.6771
3466.321686 91.164 177.1777
3491.440082 91.183 177.6730
3516.740496 91.210 178.1618
3542.224247 91.245 178.6423
3567.892664 91.288 179.1127
3593.747085 91.339 179.5709
3619.788858 91.398 -179.9852
3646.019340 91.463 -179.5575
3672.439900 91.534 -179.1473
3699.051913 91.611 -178.7554
3725.856768 91.693 -178.3819
3752.855862 91.779 -178.0263
3780.050603 91.869 -177.6877
3807.442408 91.963 -177.3651
3835.032705 92.060 -177.0578
3862.822933 92.160 -176.7652
3890.814540 92.262 -176.4872
3919.008986 92.368 -176.2237
3947.407741 92.474 -175.9749
3976.012284 92.583 -175.7403
4004.824108 92.692 -175.5195
4033.844715 92.801 -175.3112
4063.075616 92.910 -175.1139
4092.518337 93.018 -174.9257
4122.174412 93.126 -174.7441
4152.045387 93.232 -174.5665
4182.132820 93.338 -174.3902
4212.438278 93.443 -174.2125
4242.963342 93.547 -174.0312
4273.709604 93.653 -173.8447
4304.678665 93.760 -173.6526
4335.872141 93.870 -173.4555
4367.291658 93.984 -173.2555
4398.938854 94.102 -173.0560
4430.815378 94.226 -172.8621
4462.922893 94.357 -172.6796
4495.263072 94.494 -172.5155
4527.837601 94.638 -172.3774
4560.648179 94.789 -172.2732
4593.696515 94.946 -172.2105
4626.984334 95.109 -172.1968
4660.513370 95.276 -172.2387
4694.285371 95.446 -172.3421
4728.302098 95.617 -172.5114
4762.565324 95.788 -172.7498
4797.076835 95.958 -173.0588
4831.838432 96.124 -173.4382
4866.851925 96.285 -173.8860
4902.119140 96.439 -174.3991
4937.641916 96.586 -174.9726
4973.422105 96.723 -175.6006
5009.461572 96.850 -176.2761
5045.762195 96.967 -176.9912
5082.325868 97.072 -177.7372
5119.154496 97.166 -178.5053
5156.250000 97.247 -179.2866
5193.614313 97.316 179.9276
5231.249383 97.374 179.1450
5269.157173 97.420 178.3724
5307.339658 97.455 177.6150
5345.798829 97.481 176.8764
5384.536691 97.496 176.1582
5423.555263 97.504 175.4602
5462.856580 97.503 174.7805
5502.442691 97.497 174.1156
5542.315659 97.485 173.4606
5582.477563 97.468 172.8093
5622.930497 97.449 172.1542
5663.676569 97.429 171.4868
5704.717904 97.408 170.7977
5746.056642 97.387 170.0770
5787.694937 97.366 169.3150
5829.634960 97.346 168.5025
5871.878898 97.326 167.6323
5914.428953 97.305 166.6993
5957.287343 97.281 165.7012
6000.456303 97.252 164.6389
6043.938083 97.216 163.5164
6087.734950 97.170 162.3408
6131.849187 97.113 161.1216
6176.283094 97.042 159.8701
6221.038987 96.957 158.5986
6266.119200 96.856 157.3197
6311.526083 96.738 156.0456
6357.262002 96.604 154.7872
6403.329344 96.454 153.5539
6449.730508 96.289 152.3531
6496.467914 96.111 151.1902
6543.543998 95.920 150.0687
6590.961215 95.718 148.9899
6638.722037 95.509 147.9537
6686.828954 95.293 146.9585
6735.284473 95.073 146.0015
6784.091120 94.851 145.0786
6833.251441 94.630 144.1848
6882.767998 94.411 143.3135
6932.643372 94.197 142.4572
6982.880164 93.990 141.6072
7033.480992 93.789 140.7532
7084.448495 93.597 139.8835
7135.785329 93.413 138.9852
7187.494171 93.237 138.0438
7239.577717 93.069 137.0431
7292.038681 92.907 135.9656
7344.879799 92.750 134.7920
7398.103826 92.596 133.5010
7451.713536 92.443 132.0699
7505.711724 92.290 130.4739
7560.101205 92.133 128.6870
7614.884815 91.970 126.6816
7670.065409 91.800 124.4290
7725.645865 91.621 121.8989
7781.629080 91.432 119.0585
7838.017972 91.231 115.8712
7894.815481 91.018 112.2938
7952.024569 90.794 108.2720
8009.648217 90.560 103.7333
8067.689429 90.319 98.5751
8126.151233 90.074 92.6431
8185.036674 89.829 85.6931
8244.348824 89.591 77.3188
8304.090774 89.366 66.8159
8364.265639 89.161 52.9667
8424.876556 88.982 33.9422
8485.926684 88.834 8.6117
8547.419207 88.720 -19.4598
8609.357330 88.641 -43.3963
8671.744282 88.593 -61.0221
8734.583316 88.574 -73.9136
8797.877707 88.576 -83.7885
8861.630756 88.597 -91.7285
8925.845785 88.629 -98.3574
8990.526143 88.670 -104.0413
9055.675202 88.717 -109.0070
9121.296357 88.769 -113.4049
9187.393031 88.824 -117.3428
9253.968668 88.882 -120.9045
9321.026740 88.943 -124.1593
9388.570742 89.005 -127.1683
9456.604196 89.067 -129.9861
9525.130648 89.125 -132.6616
9594.153671 89.177 -135.2366
9663.676863 89.216 -137.7449
9733.703850 89.238 -140.2102
9804.238280 89.237 -142.6453
9875.283832 89.208 -145.0515
9946.844210 89.146 -147.4199
10018.923143 89.049 -149.7327
10091.524390 88.914 -151.9667
10164.651736 88.742 -154.0956
10238.308993 88.535 -156.0937
10312.500000 88.295 -157.9385
10387.228626 88.027 -159.6132
10462.498767 87.736 -161.1084
10538.314345 87.428 -162.4237
10614.679315 87.108 -163.5681
10691.597657 86.784 -164.5603
10769.073381 86.460 -165.4276
10847.110526 86.141 -166.2048
10925.713161 85.830 -166.9323
11004.885382 85.529 -167.6522
11084.631318 85.238 -168.4066
11164.955126 84.954 -169.2328
11245.860993 84.674 -170.1609
11327.353138 84.393 -171.2102
11409.435808 84.102 -172.3866
11492.113283 83.795 -173.6816
11575.389873 83.464 -175.0716
11659.269920 83.101 -176.5188
11743.757796 82.700 -177.9747
11828.857906 82.258 -179.3846
11914.574686 81.772 179.3068
12000.912606 81.242 178.1493
12087.876166 80.672 177.1813
12175.469900 80.065 176.4260
12263.698373 79.426 175.8899
12352.566187 78.763 175.5643
12442.077974 78.081 175.4315
12532.238400 77.386 175.4752
12623.052165 76.684 175.6957
12714.524005 75.980 176.1290
12806.658687 75.279 176.8726
12899.461015 74.590 178.1220
12992.935827 73.923 -179.7709
13087.087996 73.297 -176.2025
13181.922430 72.739 -170.1834
13277.444074 72.281 -160.3140
13373.657907 71.958 -145.6016
13470.568945 71.797 -127.9637
13568.182241 71.803 -112.4847
13666.502883 71.963 -102.1484
13765.535996 72.242 -96.4263
13865.286744 72.602 -93.8759
13965.760328 73.005 -93.3821
14066.961984 73.420 -94.2417
14168.896989 73.828 -96.0284
14271.570658 74.214 -98.4835
14374.988342 74.569 -101.4489
14479.155433 74.888 -104.8279
14584.077362 75.164 -108.5609
14689.759598 75.394 -112.6093
14796.207652 75.570 -116.9445
14903.427072 75.689 -121.5400
15011.423448 75.742 -126.3658
15120.202410 75.725 -131.3846
15229.769630 75.631 -136.5516
15340.130819 75.458 -141.8153
15451.291730 75.204 -147.1219
15563.258160 74.869 -152.4191
15676.035944 74.455 -157.6602
15789.630962 73.967 -162.8053
15904.049137 73.407 -167.8210
16019.296433 72.781 -172.6775
16135.378859 72.093 -177.3439
16252.302465 71.346 178.2171
16370.073348 70.544 174.0552
16488.697648 69.690 170.2395
16608.181548 68.787 166.8674
16728.531278 67.841 164.0767
16849.753112 66.857 162.0635
16971.853368 65.845 161.1027
17094.838414 64.817 161.5630
17218.714660 63.792 163.8765
17343.488565 62.800 168.3719
17469.166632 61.875 174.8697
17595.755415 61.060 -177.7495
17723.261512 60.398 -171.2720
17851.691571 59.915 -167.1020
17981.052287 59.615 -165.6786
18111.350404 59.476 -166.7772
18242.592715 59.456 -169.9753
18374.786062 59.509 -174.8920
18507.937336 59.595 178.7455
18642.053479 59.686 171.1027
18777.141484 59.761 162.2576
18913.208391 59.810 152.2335
19050.261296 59.830 141.0591
19188.307342 59.823 128.8744
19327.353727 59.792 116.0753
19467.407699 59.745 103.4113
19608.476560 59.690 91.8900
19750.567664 59.638 82.4938
19893.688419 59.597 75.9272
20037.846286 59.575 72.5704
