* Measurement data measured by REW V5.31.3
* Source: EXCL: Headset (USB-C to 3.5mm Headphone Jack Adapter), MICROPHONE (Master Volume), 0, volume: 0.260
* Format: 256k Log Swept Sine, 1 sweep at -12.0 dBFS with no timing reference
* Dated: Mar 5, 2025 10:53:30 AM
* REW Settings:
*  C-weighting compensation: Off
*  Target level: 75.0 dB
* Note: ; 
* Measurement: Ouroboros Reprint L4
* Smoothing: 1/6 octave
* Frequency Step: 96 ppo
* Start Frequency: 20.0 Hz
*
* Freq(Hz) SPL(dB) Phase(degrees)
20.141602 98.221 -100.1013
20.287556 98.191 -100.3652
20.434568 98.151 -100.7257
20.582645 98.102 -101.1791
20.731796 98.048 -101.7194
20.882027 97.989 -102.3384
21.033346 97.929 -103.0247
21.185763 97.869 -103.7646
21.339284 97.812 -104.5427
21.493917 97.761 -105.3424
21.649671 97.715 -106.1472
21.806553 97.678 -106.9421
21.964572 97.648 -107.7141
22.123737 97.628 -108.4538
22.284054 97.615 -109.1550
22.445534 97.610 -109.8155
22.608183 97.610 -110.4364
22.772012 97.615 -111.0218
22.937027 97.623 -111.5779
23.103238 97.631 -112.1121
23.270654 97.638 -112.6323
23.439282 97.643 -113.1461
23.609133 97.644 -113.6601
23.780215 97.640 -114.1796
23.952536 97.631 -114.7082
24.126106 97.618 -115.2481
24.300934 97.599 -115.7999
24.477028 97.576 -116.3625
24.654399 97.550 -116.9340
24.833055 97.521 -117.5112
25.013005 97.490 -118.0904
25.194260 97.459 -118.6675
25.376828 97.428 -119.2382
25.560719 97.398 -119.7984
25.745942 97.369 -120.3446
25.932508 97.344 -120.8742
26.120426 97.321 -121.3859
26.309705 97.302 -121.8800
26.500356 97.288 -122.3586
26.692388 97.278 -122.8256
26.885812 97.274 -123.2867
27.080638 97.275 -123.7487
27.276876 97.282 -124.2188
27.474535 97.294 -124.7038
27.673627 97.309 -125.2094
27.874161 97.326 -125.7387
28.076149 97.344 -126.2924
28.279600 97.360 -126.8684
28.484526 97.374 -127.4616
28.690937 97.384 -128.0655
28.898843 97.388 -128.6723
29.108256 97.386 -129.2746
29.319186 97.379 -129.8661
29.531645 97.367 -130.4426
29.745644 97.349 -131.0022
29.961193 97.328 -131.5452
30.178304 97.303 -132.0735
30.396989 97.275 -132.5898
30.617258 97.245 -133.0966
30.839123 97.214 -133.5958
31.062596 97.180 -134.0876
31.287688 97.146 -134.5714
31.514412 97.112 -135.0457
31.742778 97.078 -135.5090
31.972800 97.047 -135.9603
32.204488 97.018 -136.3999
32.437855 96.993 -136.8291
32.672913 96.973 -137.2502
32.909674 96.959 -137.6657
33.148151 96.949 -138.0778
33.388356 96.944 -138.4875
33.630302 96.944 -138.8945
33.874001 96.946 -139.2971
34.119466 96.952 -139.6926
34.366710 96.959 -140.0781
34.615745 96.966 -140.4508
34.866585 96.972 -140.8083
35.119243 96.976 -141.1492
35.373731 96.976 -141.4726
35.630064 96.972 -141.7783
35.888254 96.962 -142.0666
36.148315 96.945 -142.3381
36.410261 96.922 -142.5939
36.674104 96.892 -142.8354
36.939860 96.856 -143.0642
37.207542 96.815 -143.2817
37.477163 96.770 -143.4888
37.748738 96.722 -143.6856
38.022281 96.671 -143.8712
38.297806 96.619 -144.0442
38.575327 96.566 -144.2031
38.854860 96.514 -144.3472
39.136419 96.463 -144.4769
39.420017 96.413 -144.5942
39.705671 96.364 -144.7018
39.993395 96.316 -144.8026
40.283203 96.269 -144.8989
40.575112 96.222 -144.9918
40.869136 96.176 -145.0814
41.165290 96.130 -145.1669
41.463591 96.086 -145.2478
41.764053 96.043 -145.3236
42.066693 96.004 -145.3946
42.371525 95.968 -145.4608
42.678567 95.937 -145.5218
42.987834 95.910 -145.5764
43.299341 95.888 -145.6230
43.613106 95.871 -145.6600
43.929145 95.860 -145.6871
44.247473 95.856 -145.7061
44.568109 95.858 -145.7203
44.891068 95.866 -145.7342
45.216367 95.880 -145.7519
45.544023 95.899 -145.7759
45.874054 95.922 -145.8067
46.206476 95.949 -145.8436
46.541307 95.979 -145.8850
46.878565 96.013 -145.9304
47.218266 96.049 -145.9806
47.560429 96.088 -146.0378
47.905072 96.130 -146.1048
48.252212 96.173 -146.1840
48.601867 96.218 -146.2766
48.954056 96.263 -146.3825
49.308798 96.307 -146.5003
49.666109 96.352 -146.6283
50.026010 96.397 -146.7652
50.388520 96.441 -146.9100
50.753656 96.486 -147.0627
51.121437 96.531 -147.2237
51.491884 96.576 -147.3937
51.865016 96.620 -147.5731
52.240851 96.663 -147.7623
52.619410 96.706 -147.9611
53.000712 96.747 -148.1691
53.384777 96.786 -148.3857
53.771625 96.824 -148.6099
54.161276 96.861 -148.8410
54.553751 96.896 -149.0782
54.949070 96.930 -149.3211
55.347254 96.962 -149.5699
55.748323 96.994 -149.8254
56.152298 97.024 -150.0890
56.559201 97.054 -150.3618
56.969052 97.082 -150.6444
57.381873 97.110 -150.9365
57.797686 97.138 -151.2364
58.216512 97.165 -151.5415
58.638373 97.193 -151.8479
59.063291 97.222 -152.1520
59.491288 97.252 -152.4504
59.922386 97.285 -152.7413
60.356608 97.319 -153.0250
60.793977 97.355 -153.3040
61.234515 97.393 -153.5823
61.678246 97.431 -153.8641
62.125192 97.470 -154.1527
62.575377 97.507 -154.4500
63.028824 97.543 -154.7566
63.485557 97.577 -155.0717
63.945599 97.608 -155.3940
64.408975 97.638 -155.7218
64.875709 97.665 -156.0538
65.345825 97.690 -156.3891
65.819348 97.714 -156.7273
66.296302 97.738 -157.0686
66.776713 97.760 -157.4138
67.260604 97.783 -157.7635
67.748002 97.806 -158.1186
68.238932 97.830 -158.4797
68.733420 97.854 -158.8478
69.231490 97.878 -159.2237
69.733170 97.901 -159.6080
70.238485 97.925 -160.0014
70.747463 97.947 -160.4043
71.260128 97.969 -160.8162
71.776508 97.990 -161.2361
72.296630 98.010 -161.6623
72.820521 98.029 -162.0927
73.348209 98.047 -162.5257
73.879720 98.064 -162.9596
74.415083 98.080 -163.3937
74.954326 98.096 -163.8275
75.497475 98.110 -164.2609
76.044561 98.123 -164.6936
76.595612 98.135 -165.1255
77.150655 98.145 -165.5564
77.709720 98.155 -165.9863
78.272837 98.163 -166.4154
78.840034 98.170 -166.8440
79.411342 98.177 -167.2725
79.986789 98.182 -167.7012
80.566406 98.187 -168.1298
81.150224 98.191 -168.5579
81.738272 98.193 -168.9850
82.330581 98.194 -169.4104
82.927182 98.195 -169.8332
83.528107 98.194 -170.2532
84.133386 98.192 -170.6702
84.743051 98.190 -171.0842
85.357134 98.187 -171.4955
85.975667 98.184 -171.9044
86.598682 98.181 -172.3110
87.226212 98.178 -172.7158
87.858289 98.176 -173.1188
88.494946 98.175 -173.5203
89.136217 98.176 -173.9206
89.782135 98.177 -174.3199
90.432733 98.181 -174.7183
91.088046 98.186 -175.1160
91.748108 98.192 -175.5133
92.412952 98.199 -175.9107
93.082615 98.206 -176.3087
93.757130 98.212 -176.7078
94.436533 98.217 -177.1086
95.120859 98.221 -177.5114
95.810144 98.222 -177.9162
96.504423 98.221 -178.3230
97.203734 98.216 -178.7318
97.908112 98.209 -179.1423
98.617595 98.199 -179.5545
99.332219 98.186 -179.9680
100.052021 98.170 179.6179
100.777039 98.152 179.2036
101.507311 98.133 178.7897
102.242875 98.111 178.3771
102.983769 98.089 177.9662
103.730032 98.066 177.5573
104.481702 98.043 177.1505
105.238820 98.020 176.7458
106.001424 97.998 176.3429
106.769554 97.976 175.9413
107.543250 97.955 175.5408
108.322553 97.935 175.1409
109.107503 97.916 174.7411
109.898141 97.898 174.3417
110.694508 97.880 173.9426
111.496646 97.863 173.5444
112.304596 97.846 173.1475
113.118402 97.829 172.7521
113.938104 97.810 172.3586
114.763747 97.791 171.9673
115.595372 97.770 171.5785
116.433024 97.748 171.1922
117.276746 97.723 170.8083
118.126581 97.696 170.4266
118.982575 97.667 170.0465
119.844772 97.635 169.6674
120.713217 97.601 169.2888
121.587954 97.564 168.9103
122.469031 97.527 168.5319
123.356492 97.489 168.1536
124.250384 97.450 167.7765
125.150753 97.413 167.4014
126.057647 97.376 167.0295
126.971113 97.340 166.6617
127.891198 97.307 166.2983
128.817950 97.274 165.9393
129.751418 97.243 165.5843
130.691651 97.213 165.2327
131.638696 97.184 164.8836
132.592604 97.155 164.5367
133.553425 97.126 164.1913
134.521208 97.097 163.8476
135.496004 97.067 163.5056
136.477864 97.036 163.1660
137.466839 97.002 162.8291
138.462981 96.967 162.4957
139.466340 96.928 162.1664
140.476971 96.887 161.8419
141.494925 96.842 161.5230
142.520256 96.794 161.2103
143.553016 96.743 160.9041
144.593260 96.689 160.6046
145.641043 96.633 160.3117
146.696418 96.574 160.0253
147.759441 96.514 159.7452
148.830166 96.452 159.4714
149.908651 96.390 159.2038
150.994951 96.328 158.9426
152.089123 96.266 158.6877
153.191223 96.204 158.4393
154.301310 96.143 158.1974
155.419441 96.082 157.9625
156.545674 96.021 157.7351
157.680069 95.962 157.5161
158.822683 95.902 157.3062
159.973578 95.843 157.1061
161.132813 95.784 156.9160
162.300447 95.725 156.7360
163.476543 95.666 156.5658
164.661162 95.608 156.4052
165.854364 95.549 156.2539
167.056213 95.489 156.1115
168.266772 95.430 155.9777
169.486102 95.371 155.8522
170.714268 95.311 155.7349
171.951334 95.252 155.6254
173.197364 95.192 155.5237
174.452424 95.132 155.4291
175.716578 95.071 155.3412
176.989893 95.010 155.2598
178.272434 94.948 155.1843
179.564270 94.885 155.1145
180.865467 94.822 155.0504
182.176092 94.758 154.9920
183.496216 94.692 154.9395
184.825905 94.626 154.8931
186.165229 94.558 154.8533
187.514259 94.488 154.8208
188.873065 94.417 154.7959
190.241717 94.344 154.7793
191.620287 94.269 154.7713
193.008847 94.192 154.7721
194.407468 94.113 154.7815
195.816225 94.032 154.7992
197.235190 93.950 154.8246
198.664438 93.866 154.8574
200.104042 93.780 154.8973
201.554078 93.694 154.9444
203.014622 93.608 154.9989
204.485750 93.521 155.0612
205.967538 93.435 155.1315
207.460064 93.350 155.2101
208.963405 93.268 155.2971
210.477640 93.188 155.3925
212.002848 93.112 155.4961
213.539108 93.040 155.6079
215.086500 92.974 155.7280
216.645105 92.912 155.8562
218.215005 92.857 155.9925
219.796281 92.807 156.1367
221.389015 92.763 156.2885
222.993292 92.724 156.4477
224.609193 92.692 156.6136
226.236804 92.664 156.7858
227.876209 92.641 156.9639
229.527494 92.622 157.1477
231.190745 92.606 157.3370
232.866048 92.595 157.5319
234.553491 92.586 157.7325
236.253163 92.580 157.9388
237.965150 92.576 158.1507
239.689544 92.574 158.3679
241.426433 92.574 158.5900
243.175909 92.575 158.8163
244.938062 92.576 159.0460
246.712984 92.579 159.2780
248.500768 92.582 159.5118
250.301507 92.586 159.7468
252.115295 92.590 159.9823
253.942226 92.594 160.2177
255.782396 92.598 160.4523
257.635901 92.603 160.6854
259.502837 92.608 160.9163
261.383301 92.613 161.1440
263.277392 92.619 161.3676
265.185209 92.624 161.5858
267.106850 92.629 161.7974
269.042417 92.633 162.0012
270.992009 92.636 162.1966
272.955729 92.638 162.3836
274.933678 92.637 162.5627
276.925961 92.633 162.7348
278.932681 92.626 162.9012
280.953942 92.615 163.0634
282.989850 92.600 163.2225
285.040511 92.581 163.3795
287.106032 92.558 163.5348
289.186521 92.530 163.6884
291.282086 92.498 163.8401
293.392836 92.463 163.9894
295.518881 92.424 164.1360
297.660333 92.383 164.2798
299.817302 92.340 164.4209
301.989902 92.295 164.5592
304.178245 92.249 164.6949
306.382446 92.202 164.8280
308.602620 92.156 164.9587
310.838882 92.111 165.0871
313.091348 92.068 165.2136
315.360137 92.027 165.3386
317.645367 91.988 165.4627
319.947156 91.953 165.5865
322.265625 91.922 165.7105
324.600895 91.895 165.8352
326.953086 91.874 165.9611
329.322323 91.857 166.0882
331.708729 91.847 166.2165
334.112427 91.842 166.3458
336.533543 91.842 166.4756
338.972204 91.849 166.6056
341.428536 91.861 166.7355
343.902668 91.879 166.8650
346.394729 91.901 166.9939
348.904848 91.928 167.1220
351.433156 91.958 167.2488
353.979786 91.991 167.3739
356.544869 92.026 167.4966
359.128540 92.062 167.6166
361.730934 92.097 167.7334
364.352185 92.132 167.8471
366.992431 92.165 167.9579
369.651810 92.195 168.0660
372.330459 92.221 168.1719
375.028519 92.244 168.2756
377.746130 92.263 168.3773
380.483434 92.277 168.4771
383.240574 92.287 168.5747
386.017693 92.293 168.6701
388.814937 92.295 168.7629
391.632450 92.295 168.8526
394.470380 92.292 168.9388
397.328875 92.288 169.0208
400.208084 92.284 169.0981
403.108157 92.282 169.1699
406.029245 92.281 169.2354
408.971500 92.284 169.2940
411.935076 92.290 169.3449
414.920127 92.301 169.3873
417.926810 92.317 169.4206
420.955280 92.337 169.4443
424.005695 92.361 169.4581
427.078215 92.390 169.4615
430.173000 92.421 169.4548
433.290211 92.455 169.4377
436.430010 92.489 169.4107
439.592562 92.524 169.3741
442.778031 92.557 169.3284
445.986583 92.588 169.2743
449.218386 92.615 169.2126
452.473607 92.639 169.1444
455.752418 92.659 169.0706
459.054987 92.675 168.9922
462.381489 92.687 168.9102
465.732096 92.694 168.8255
469.106983 92.699 168.7391
472.506325 92.700 168.6519
475.930301 92.699 168.5646
479.379088 92.695 168.4781
482.852867 92.690 168.3931
486.351817 92.683 168.3104
489.876123 92.675 168.2305
493.425968 92.667 168.1540
497.001536 92.659 168.0811
500.603014 92.652 168.0118
504.230589 92.647 167.9464
507.884452 92.645 167.8848
511.564792 92.647 167.8273
515.271802 92.652 167.7740
519.005673 92.664 167.7255
522.766602 92.680 167.6822
526.554785 92.703 167.6447
530.370418 92.731 167.6135
534.213700 92.765 167.5889
538.084833 92.804 167.5710
541.984018 92.847 167.5597
545.911457 92.893 167.5544
549.867357 92.940 167.5547
553.851922 92.988 167.5596
557.865362 93.034 167.5681
561.907884 93.078 167.5789
565.979700 93.117 167.5906
570.081022 93.152 167.6018
574.212064 93.180 167.6111
578.373042 93.201 167.6172
582.564171 93.214 167.6191
586.785671 93.219 167.6155
591.037762 93.214 167.6057
595.320665 93.199 167.5891
599.634604 93.175 167.5651
603.979804 93.141 167.5338
608.356491 93.098 167.4951
612.764893 93.047 167.4495
617.205240 92.989 167.3976
621.677763 92.924 167.3400
626.182696 92.856 167.2776
630.720274 92.785 167.2115
635.290733 92.714 167.1425
639.894312 92.644 167.0715
644.531250 92.577 166.9993
649.201789 92.514 166.9265
653.906173 92.456 166.8539
658.644647 92.405 166.7820
663.417457 92.362 166.7114
668.224854 92.327 166.6422
673.067086 92.300 166.5746
677.944408 92.281 166.5087
682.857073 92.271 166.4443
687.805336 92.270 166.3812
692.789457 92.277 166.3192
697.809695 92.291 166.2578
702.866312 92.311 166.1971
707.959571 92.337 166.1368
713.089738 92.366 166.0771
718.257080 92.399 166.0183
723.461867 92.432 165.9607
728.704370 92.465 165.9045
733.984862 92.496 165.8502
739.303619 92.525 165.7979
744.660918 92.550 165.7478
750.057038 92.571 165.7000
755.492260 92.587 165.6545
760.966869 92.600 165.6113
766.481148 92.609 165.5703
772.035387 92.615 165.5315
777.629873 92.618 165.4949
783.264900 92.618 165.4609
788.940760 92.614 165.4298
794.657750 92.607 165.4020
800.416168 92.596 165.3782
806.216313 92.580 165.3592
812.058489 92.558 165.3453
817.943000 92.530 165.3374
823.870152 92.496 165.3354
829.840255 92.455 165.3393
835.853619 92.409 165.3480
841.910559 92.358 165.3598
848.011390 92.306 165.3716
854.156430 92.254 165.3790
860.346000 92.204 165.3764
866.580422 92.160 165.3571
872.860020 92.124 165.3136
879.185124 92.097 165.2385
885.556062 92.080 165.1248
891.973166 92.075 164.9677
898.436771 92.078 164.7645
904.947215 92.090 164.5165
911.504835 92.108 164.2281
918.109975 92.129 163.9074
924.762978 92.151 163.5649
931.464192 92.173 163.2119
938.213966 92.192 162.8597
945.012651 92.207 162.5183
951.860602 92.218 162.1958
958.758176 92.224 161.8978
965.705733 92.226 161.6279
972.703635 92.222 161.3880
979.752246 92.213 161.1782
986.851935 92.199 160.9980
994.003071 92.181 160.8462
1001.206027 92.160 160.7217
1008.461179 92.135 160.6234
1015.768904 92.110 160.5505
1023.129584 92.083 160.5030
1030.543603 92.057 160.4813
1038.011347 92.034 160.4867
1045.533205 92.013 160.5212
1053.109569 91.996 160.5876
1060.740836 91.984 160.6895
1068.427401 91.978 160.8312
1076.169666 91.977 161.0176
1083.968035 91.983 161.2537
1091.822915 91.995 161.5440
1099.734713 92.015 161.8925
1107.703844 92.041 162.3010
1115.730723 92.076 162.7681
1123.815768 92.120 163.2883
1131.959400 92.174 163.8499
1140.162045 92.240 164.4344
1148.424129 92.320 165.0162
1156.746083 92.413 165.5634
1165.128342 92.520 166.0409
1173.571343 92.638 166.4141
1182.075524 92.764 166.6542
1190.641331 92.895 166.7424
1199.269209 93.026 166.6733
1207.959608 93.151 166.4546
1216.712981 93.269 166.1052
1225.529785 93.376 165.6517
1234.410479 93.471 165.1233
1243.355526 93.555 164.5490
1252.365393 93.627 163.9547
1261.440549 93.689 163.3619
1270.581467 93.743 162.7870
1279.788624 93.790 162.2418
1289.062500 93.832 161.7339
1298.403578 93.870 161.2673
1307.812346 93.904 160.8438
1317.289293 93.936 160.4626
1326.834914 93.965 160.1219
1336.449707 93.992 159.8192
1346.134173 94.017 159.5511
1355.888816 94.039 159.3144
1365.714145 94.059 159.1056
1375.610673 94.076 158.9217
1385.578915 94.090 158.7597
1395.619391 94.101 158.6168
1405.732624 94.110 158.4907
1415.919142 94.116 158.3791
1426.179476 94.119 158.2801
1436.514160 94.121 158.1920
1446.923734 94.120 158.1131
1457.408740 94.118 158.0419
1467.969724 94.114 157.9770
1478.607238 94.109 157.9172
1489.321836 94.103 157.8612
1500.114076 94.095 157.8080
1510.984521 94.085 157.7568
1521.933737 94.073 157.7066
1532.962297 94.058 157.6567
1544.070773 94.040 157.6063
1555.259747 94.020 157.5547
1566.529800 93.997 157.5014
1577.881521 93.972 157.4457
1589.315501 93.944 157.3874
1600.832336 93.915 157.3259
1612.432627 93.885 157.2610
1624.116978 93.854 157.1927
1635.886000 93.822 157.1210
1647.740304 93.790 157.0460
1659.680509 93.758 156.9679
1671.707238 93.726 156.8871
1683.821118 93.694 156.8039
1696.022780 93.661 156.7186
1708.312860 93.627 156.6315
1720.692000 93.593 156.5430
1733.160843 93.558 156.4534
1745.720041 93.523 156.3631
1758.370248 93.489 156.2725
1771.112124 93.454 156.1819
1783.946332 93.421 156.0917
1796.873543 93.389 156.0023
1809.894429 93.358 155.9139
1823.009670 93.329 155.8269
1836.219950 93.301 155.7416
1849.525956 93.273 155.6584
1862.928384 93.245 155.5776
1876.427931 93.217 155.4997
1890.025301 93.186 155.4252
1903.721204 93.153 155.3546
1917.516352 93.118 155.2883
1931.411466 93.078 155.2271
1945.407270 93.035 155.1713
1959.504493 92.988 155.1213
1973.703870 92.937 155.0773
1988.006142 92.884 155.0392
2002.412054 92.828 155.0068
2016.922357 92.771 154.9793
2031.537808 92.712 154.9557
2046.259169 92.655 154.9349
2061.087206 92.598 154.9155
2076.022694 92.543 154.8961
2091.066410 92.490 154.8759
2106.219139 92.439 154.8545
2121.481671 92.392 154.8325
2136.854802 92.348 154.8112
2152.339333 92.307 154.7924
2167.936071 92.269 154.7784
2183.645829 92.236 154.7714
2199.469427 92.207 154.7733
2215.407689 92.183 154.7851
2231.461446 92.164 154.8076
2247.631536 92.151 154.8405
2263.918800 92.145 154.8835
2280.324089 92.145 154.9362
2296.848258 92.150 154.9986
2313.492167 92.162 155.0710
2330.256685 92.179 155.1542
2347.142685 92.201 155.2491
2364.151049 92.227 155.3573
2381.282662 92.256 155.4801
2398.538418 92.289 155.6189
2415.919216 92.323 155.7750
2433.425962 92.359 155.9499
2451.059570 92.395 156.1446
2468.820958 92.431 156.3599
2486.711052 92.466 156.5964
2504.730786 92.500 156.8539
2522.881098 92.532 157.1319
2541.162934 92.562 157.4292
2559.577248 92.589 157.7442
2578.125000 92.613 158.0750
2596.807157 92.633 158.4194
2615.624692 92.649 158.7757
2634.578586 92.661 159.1418
2653.669829 92.669 159.5164
2672.899414 92.672 159.8979
2692.268345 92.670 160.2855
2711.777632 92.663 160.6778
2731.428290 92.652 161.0737
2751.221345 92.637 161.4721
2771.157829 92.617 161.8713
2791.238781 92.594 162.2701
2811.465248 92.566 162.6670
2831.838284 92.536 163.0606
2852.358952 92.502 163.4499
2873.028321 92.464 163.8341
2893.847468 92.423 164.2129
2914.817480 92.380 164.5863
2935.939449 92.332 164.9551
2957.214476 92.282 165.3206
2978.643672 92.229 165.6849
3000.228152 92.172 166.0500
3021.969041 92.114 166.4188
3043.867475 92.053 166.7935
3065.924593 91.991 167.1765
3088.141547 91.928 167.5696
3110.519493 91.865 167.9742
3133.059600 91.803 168.3912
3155.763041 91.742 168.8210
3178.631001 91.682 169.2639
3201.664672 91.625 169.7195
3224.865254 91.571 170.1872
3248.233957 91.521 170.6657
3271.771999 91.475 171.1536
3295.480608 91.434 171.6490
3319.361019 91.399 172.1499
3343.414477 91.370 172.6543
3367.642236 91.348 173.1606
3392.045560 91.334 173.6671
3416.625721 91.327 174.1726
3441.383999 91.328 174.6763
3466.321686 91.338 175.1769
3491.440082 91.356 175.6735
3516.740496 91.383 176.1647
3542.224247 91.418 176.6489
3567.892664 91.461 177.1241
3593.747085 91.512 177.5883
3619.788858 91.570 178.0392
3646.019340 91.636 178.4752
3672.439900 91.707 178.8948
3699.051913 91.784 179.2971
3725.856768 91.867 179.6822
3752.855862 91.953 -179.9496
3780.050603 92.044 -179.5976
3807.442408 92.139 -179.2611
3835.032705 92.238 -178.9397
3862.822933 92.339 -178.6332
3890.814540 92.444 -178.3421
3919.008986 92.552 -178.0668
3947.407741 92.661 -177.8077
3976.012284 92.773 -177.5649
4004.824108 92.885 -177.3382
4033.844715 92.997 -177.1268
4063.075616 93.109 -176.9295
4092.518337 93.221 -176.7444
4122.174412 93.332 -176.5694
4152.045387 93.441 -176.4016
4182.132820 93.549 -176.2384
4212.438278 93.657 -176.0768
4242.963342 93.764 -175.9143
4273.709604 93.872 -175.7488
4304.678665 93.981 -175.5792
4335.872141 94.092 -175.4057
4367.291658 94.206 -175.2295
4398.938854 94.325 -175.0535
4430.815378 94.449 -174.8819
4462.922893 94.579 -174.7203
4495.263072 94.715 -174.5751
4527.837601 94.858 -174.4536
4560.648179 95.007 -174.3637
4593.696515 95.162 -174.3129
4626.984334 95.323 -174.3088
4660.513370 95.488 -174.3583
4694.285371 95.655 -174.4675
4728.302098 95.824 -174.6409
4762.565324 95.993 -174.8820
4797.076835 96.160 -175.1925
4831.838432 96.324 -175.5722
4866.851925 96.483 -176.0195
4902.119140 96.635 -176.5310
4937.641916 96.779 -177.1022
4973.422105 96.915 -177.7268
5009.461572 97.040 -178.3980
5045.762195 97.154 -179.1077
5082.325868 97.257 -179.8473
5119.154496 97.348 179.3920
5156.250000 97.427 178.6193
5193.614313 97.494 177.8431
5231.249383 97.549 177.0712
5269.157173 97.593 176.3105
5307.339658 97.625 175.5662
5345.798829 97.647 174.8419
5384.536691 97.660 174.1396
5423.555263 97.665 173.4590
5462.856580 97.662 172.7982
5502.442691 97.652 172.1539
5542.315659 97.638 171.5211
5582.477563 97.619 170.8934
5622.930497 97.598 170.2633
5663.676569 97.575 169.6219
5704.717904 97.552 168.9597
5746.056642 97.530 168.2663
5787.694937 97.509 167.5319
5829.634960 97.488 166.7472
5871.878898 97.468 165.9046
5914.428953 97.446 164.9990
5957.287343 97.421 164.0280
6000.456303 97.392 162.9925
6043.938083 97.355 161.8964
6087.734950 97.309 160.7467
6131.849187 97.252 159.5530
6176.283094 97.181 158.3264
6221.038987 97.094 157.0795
6266.119200 96.992 155.8249
6311.526083 96.874 154.5750
6357.262002 96.739 153.3408
6403.329344 96.588 152.1320
6449.730508 96.421 150.9564
6496.467914 96.241 149.8196
6543.543998 96.049 148.7250
6590.961215 95.847 147.6743
6638.722037 95.637 146.6676
6686.828954 95.420 145.7032
6735.284473 95.200 144.7783
6784.091120 94.978 143.8887
6833.251441 94.757 143.0291
6882.767998 94.539 142.1929
6932.643372 94.325 141.3725
6982.880164 94.118 140.5588
7033.480992 93.918 139.7414
7084.448495 93.727 138.9083
7135.785329 93.544 138.0464
7187.494171 93.369 137.1406
7239.577717 93.202 136.1746
7292.038681 93.041 135.1304
7344.879799 92.885 133.9886
7398.103826 92.732 132.7278
7451.713536 92.580 131.3252
7505.711724 92.427 129.7563
7560.101205 92.270 127.9952
7614.884815 92.107 126.0149
7670.065409 91.937 123.7867
7725.645865 91.757 121.2810
7781.629080 91.566 118.4653
7838.017972 91.363 115.3035
7894.815481 91.148 111.7527
7952.024569 90.921 107.7592
8009.648217 90.685 103.2505
8067.689429 90.440 98.1240
8126.151233 90.192 92.2250
8185.036674 89.944 85.3072
8244.348824 89.703 76.9572
8304.090774 89.474 66.4534
8364.265639 89.266 52.5317
8424.876556 89.084 33.2663
8485.926684 88.934 7.4642
8547.419207 88.818 -21.0104
8609.357330 88.737 -44.9710
8671.744282 88.688 -62.4220
8734.583316 88.667 -75.1191
8797.877707 88.669 -84.8257
8861.630756 88.688 -92.6235
8925.845785 88.719 -99.1289
8990.526143 88.759 -104.7020
9055.675202 88.806 -109.5649
9121.296357 88.857 -113.8655
9187.393031 88.912 -117.7098
9253.968668 88.970 -121.1806
9321.026740 89.031 -124.3469
9388.570742 89.094 -127.2696
9456.604196 89.156 -130.0035
9525.130648 89.216 -132.5976
9594.153671 89.268 -135.0942
9663.676863 89.309 -137.5271
9733.703850 89.333 -139.9200
9804.238280 89.334 -142.2856
9875.283832 89.307 -144.6246
9946.844210 89.248 -146.9275
10018.923143 89.152 -149.1762
10091.524390 89.020 -151.3467
10164.651736 88.851 -153.4127
10238.308993 88.646 -155.3483
10312.500000 88.409 -157.1309
10387.228626 88.144 -158.7438
10462.498767 87.856 -160.1781
10538.314345 87.551 -161.4335
10614.679315 87.235 -162.5192
10691.597657 86.915 -163.4543
10769.073381 86.595 -164.2665
10847.110526 86.280 -164.9911
10925.713161 85.973 -165.6685
11004.885382 85.676 -166.3414
11084.631318 85.389 -167.0516
11164.955126 85.110 -167.8367
11245.860993 84.834 -168.7266
11327.353138 84.556 -169.7401
11409.435808 84.269 -170.8830
11492.113283 83.965 -172.1462
11575.389873 83.636 -173.5056
11659.269920 83.275 -174.9229
11743.757796 82.875 -176.3489
11828.857906 82.433 -177.7278
11914.574686 81.947 -179.0034
12000.912606 81.416 179.8759
12087.876166 80.843 178.9503
12175.469900 80.232 178.2454
12263.698373 79.589 177.7697
12352.566187 78.920 177.5165
12442.077974 78.231 177.4694
12532.238400 77.528 177.6116
12623.052165 76.818 177.9419
12714.524005 76.106 178.4937
12806.658687 75.398 179.3618
12899.461015 74.703 -179.2598
12992.935827 74.033 -177.0171
13087.087996 73.407 -173.2958
13181.922430 72.852 -167.0765
13277.444074 72.402 -156.8979
13373.657907 72.091 -141.7155
13470.568945 71.945 -123.5886
13568.182241 71.969 -107.8602
13666.502883 72.146 -97.4873
13765.535996 72.442 -91.7958
13865.286744 72.816 -89.2762
13965.760328 73.231 -88.7984
14066.961984 73.657 -89.6594
14168.896989 74.074 -91.4362
14271.570658 74.468 -93.8729
14374.988342 74.831 -96.8142
14479.155433 75.157 -100.1650
14584.077362 75.440 -103.8669
14689.759598 75.676 -107.8825
14796.207652 75.860 -112.1840
14903.427072 75.986 -116.7459
15011.423448 76.046 -121.5394
15120.202410 76.036 -126.5286
15229.769630 75.951 -131.6702
15340.130819 75.786 -136.9146
15451.291730 75.541 -142.2096
15563.258160 75.215 -147.5045
15676.035944 74.811 -152.7540
15789.630962 74.333 -157.9193
15904.049137 73.784 -162.9679
16019.296433 73.169 -167.8710
16135.378859 72.492 -172.5988
16252.302465 71.756 -177.1153
16370.073348 70.965 178.6273
16488.697648 70.121 174.6947
16608.181548 69.228 171.1798
16728.531278 68.290 168.2135
16849.753112 67.311 165.9824
16971.853368 66.301 164.7513
17094.838414 65.270 164.8831
17218.714660 64.235 166.8256
17343.488565 63.220 170.9789
17469.166632 62.257 177.3192
17595.755415 61.387 -175.1121
17723.261512 60.651 -168.1224
17851.691571 60.081 -163.3199
17981.052287 59.689 -161.3162
18111.350404 59.465 -161.9408
18242.592715 59.372 -164.7584
18374.786062 59.369 -169.3588
18507.937336 59.414 -175.4412
18642.053479 59.475 177.1821
18777.141484 59.529 168.6076
18913.208391 59.564 158.8741
19050.261296 59.573 148.0211
19188.307342 59.557 136.1883
19327.353727 59.519 123.7520
19467.407699 59.466 111.4218
19608.476560 59.407 100.1634
19750.567664 59.350 90.9417
19893.688419 59.306 84.4720
20037.846286 59.282 81.1560
