* Measurement data measured by REW V5.31.3
* Source: EXCL: Headset (USB-C to 3.5mm Headphone Jack Adapter), MICROPHONE (Master Volume), 0, volume: 0.260
* Format: 256k Log Swept Sine, 1 sweep at -12.0 dBFS with no timing reference
* Dated: Feb 21, 2025 5:25:44 PM
* REW Settings:
*  C-weighting compensation: Off
*  Target level: 75.0 dB
* Note: ; 
* Measurement: Ouroboros (Golem Mod) R3
* Smoothing: 1/6 octave
* Frequency Step: 96 ppo
* Start Frequency: 20.0 Hz
*
* Freq(Hz) SPL(dB) Phase(degrees)
20.141602 105.239 -114.1173
20.287556 105.219 -114.3349
20.434568 105.194 -114.6272
20.582645 105.162 -114.9862
20.731796 105.125 -115.4032
20.882027 105.084 -115.8698
21.033346 105.039 -116.3782
21.185763 104.993 -116.9215
21.339284 104.945 -117.4939
21.493917 104.898 -118.0902
21.649671 104.850 -118.7065
21.806553 104.805 -119.3391
21.964572 104.761 -119.9850
22.123737 104.720 -120.6416
22.284054 104.682 -121.3064
22.445534 104.647 -121.9771
22.608183 104.616 -122.6512
22.772012 104.586 -123.3264
22.937027 104.559 -124.0002
23.103238 104.534 -124.6702
23.270654 104.509 -125.3339
23.439282 104.485 -125.9890
23.609133 104.461 -126.6333
23.780215 104.436 -127.2650
23.952536 104.409 -127.8830
24.126106 104.381 -128.4863
24.300934 104.351 -129.0749
24.477028 104.319 -129.6492
24.654399 104.286 -130.2103
24.833055 104.252 -130.7598
25.013005 104.216 -131.2997
25.194260 104.181 -131.8323
25.376828 104.145 -132.3597
25.560719 104.111 -132.8841
25.745942 104.078 -133.4074
25.932508 104.047 -133.9310
26.120426 104.019 -134.4558
26.309705 103.994 -134.9825
26.500356 103.972 -135.5110
26.692388 103.953 -136.0410
26.885812 103.939 -136.5718
27.080638 103.928 -137.1025
27.276876 103.920 -137.6322
27.474535 103.915 -138.1595
27.673627 103.912 -138.6835
27.874161 103.910 -139.2028
28.076149 103.910 -139.7163
28.279600 103.908 -140.2230
28.484526 103.906 -140.7218
28.690937 103.901 -141.2119
28.898843 103.893 -141.6927
29.108256 103.881 -142.1638
29.319186 103.864 -142.6254
29.531645 103.843 -143.0778
29.745644 103.817 -143.5217
29.961193 103.787 -143.9581
30.178304 103.752 -144.3881
30.396989 103.714 -144.8129
30.617258 103.673 -145.2334
30.839123 103.629 -145.6503
31.062596 103.584 -146.0638
31.287688 103.539 -146.4737
31.514412 103.494 -146.8795
31.742778 103.451 -147.2801
31.972800 103.410 -147.6745
32.204488 103.373 -148.0616
32.437855 103.339 -148.4406
32.672913 103.310 -148.8106
32.909674 103.287 -149.1714
33.148151 103.268 -149.5229
33.388356 103.254 -149.8652
33.630302 103.245 -150.1988
33.874001 103.239 -150.5239
34.119466 103.235 -150.8409
34.366710 103.233 -151.1496
34.615745 103.230 -151.4497
34.866585 103.226 -151.7404
35.119243 103.220 -152.0204
35.373731 103.211 -152.2882
35.630064 103.196 -152.5424
35.888254 103.177 -152.7814
36.148315 103.153 -153.0043
36.410261 103.124 -153.2109
36.674104 103.089 -153.4016
36.939860 103.049 -153.5775
37.207542 103.005 -153.7401
37.477163 102.957 -153.8912
37.748738 102.906 -154.0324
38.022281 102.853 -154.1651
38.297806 102.797 -154.2905
38.575327 102.741 -154.4095
38.854860 102.684 -154.5233
39.136419 102.627 -154.6331
39.420017 102.572 -154.7401
39.705671 102.517 -154.8456
39.993395 102.464 -154.9504
40.283203 102.413 -155.0549
40.575112 102.363 -155.1587
40.869136 102.315 -155.2607
41.165290 102.268 -155.3596
41.463591 102.224 -155.4540
41.764053 102.181 -155.5429
42.066693 102.142 -155.6254
42.371525 102.105 -155.7010
42.678567 102.071 -155.7694
42.987834 102.040 -155.8300
43.299341 102.012 -155.8822
43.613106 101.987 -155.9254
43.929145 101.965 -155.9597
44.247473 101.946 -155.9859
44.568109 101.930 -156.0057
44.891068 101.918 -156.0220
45.216367 101.908 -156.0378
45.544023 101.901 -156.0559
45.874054 101.896 -156.0782
46.206476 101.895 -156.1052
46.541307 101.896 -156.1362
46.878565 101.900 -156.1694
47.218266 101.908 -156.2029
47.560429 101.918 -156.2350
47.905072 101.931 -156.2645
48.252212 101.948 -156.2915
48.601867 101.967 -156.3166
48.954056 101.990 -156.3408
49.308798 102.015 -156.3656
49.666109 102.043 -156.3917
50.026010 102.073 -156.4196
50.388520 102.105 -156.4490
50.753656 102.139 -156.4790
51.121437 102.174 -156.5086
51.491884 102.210 -156.5366
51.865016 102.246 -156.5627
52.240851 102.283 -156.5872
52.619410 102.320 -156.6116
53.000712 102.358 -156.6379
53.384777 102.395 -156.6684
53.771625 102.432 -156.7049
54.161276 102.468 -156.7485
54.553751 102.503 -156.7992
54.949070 102.537 -156.8564
55.347254 102.570 -156.9186
55.748323 102.602 -156.9846
56.152298 102.633 -157.0536
56.559201 102.665 -157.1256
56.969052 102.696 -157.2010
57.381873 102.729 -157.2813
57.797686 102.763 -157.3683
58.216512 102.800 -157.4644
58.638373 102.839 -157.5726
59.063291 102.882 -157.6957
59.491288 102.928 -157.8363
59.922386 102.977 -157.9964
60.356608 103.029 -158.1765
60.793977 103.083 -158.3766
61.234515 103.139 -158.5961
61.678246 103.197 -158.8337
62.125192 103.255 -159.0887
62.575377 103.312 -159.3599
63.028824 103.369 -159.6470
63.485557 103.424 -159.9494
63.945599 103.478 -160.2673
64.408975 103.530 -160.6009
64.875709 103.580 -160.9504
65.345825 103.628 -161.3158
65.819348 103.675 -161.6967
66.296302 103.720 -162.0925
66.776713 103.764 -162.5026
67.260604 103.808 -162.9265
67.748002 103.851 -163.3639
68.238932 103.893 -163.8150
68.733420 103.934 -164.2800
69.231490 103.974 -164.7589
69.733170 104.012 -165.2518
70.238485 104.050 -165.7583
70.747463 104.086 -166.2778
71.260128 104.121 -166.8095
71.776508 104.155 -167.3526
72.296630 104.186 -167.9063
72.820521 104.217 -168.4698
73.348209 104.245 -169.0422
73.879720 104.272 -169.6225
74.415083 104.297 -170.2099
74.954326 104.321 -170.8035
75.497475 104.343 -171.4024
76.044561 104.362 -172.0061
76.595612 104.380 -172.6141
77.150655 104.396 -173.2262
77.709720 104.409 -173.8420
78.272837 104.420 -174.4615
78.840034 104.428 -175.0844
79.411342 104.434 -175.7104
79.986789 104.437 -176.3392
80.566406 104.437 -176.9703
81.150224 104.436 -177.6030
81.738272 104.431 -178.2367
82.330581 104.424 -178.8705
82.927182 104.415 -179.5037
83.528107 104.403 179.8643
84.133386 104.389 179.2341
84.743051 104.372 178.6058
85.357134 104.354 177.9798
85.975667 104.333 177.3560
86.598682 104.311 176.7348
87.226212 104.287 176.1162
87.858289 104.262 175.5006
88.494946 104.236 174.8882
89.136217 104.209 174.2791
89.782135 104.180 173.6734
90.432733 104.151 173.0714
91.088046 104.122 172.4734
91.748108 104.091 171.8797
92.412952 104.059 171.2908
93.082615 104.026 170.7073
93.757130 103.991 170.1301
94.436533 103.955 169.5599
95.120859 103.916 168.9979
95.810144 103.874 168.4448
96.504423 103.829 167.9014
97.203734 103.780 167.3683
97.908112 103.727 166.8456
98.617595 103.671 166.3336
99.332219 103.611 165.8318
100.052021 103.547 165.3401
100.777039 103.480 164.8580
101.507311 103.410 164.3853
102.242875 103.338 163.9215
102.983769 103.264 163.4668
103.730032 103.189 163.0210
104.481702 103.113 162.5844
105.238820 103.036 162.1573
106.001424 102.960 161.7398
106.769554 102.884 161.3323
107.543250 102.808 160.9347
108.322553 102.732 160.5471
109.107503 102.657 160.1694
109.898141 102.582 159.8015
110.694508 102.507 159.4433
111.496646 102.432 159.0949
112.304596 102.356 158.7565
113.118402 102.280 158.4283
113.938104 102.201 158.1105
114.763747 102.122 157.8034
115.595372 102.040 157.5070
116.433024 101.956 157.2217
117.276746 101.870 156.9479
118.126581 101.782 156.6862
118.982575 101.692 156.4378
119.844772 101.599 156.2039
120.713217 101.506 155.9855
121.587954 101.410 155.7839
122.469031 101.314 155.5998
123.356492 101.217 155.4338
124.250384 101.120 155.2863
125.150753 101.022 155.1573
126.057647 100.924 155.0471
126.971113 100.827 154.9556
127.891198 100.731 154.8831
128.817950 100.636 154.8297
129.751418 100.542 154.7960
130.691651 100.449 154.7823
131.638696 100.356 154.7894
132.592604 100.265 154.8178
133.553425 100.174 154.8681
134.521208 100.083 154.9410
135.496004 99.993 155.0371
136.477864 99.902 155.1571
137.466839 99.810 155.3015
138.462981 99.718 155.4709
139.466340 99.624 155.6656
140.476971 99.529 155.8862
141.494925 99.433 156.1328
142.520256 99.335 156.4054
143.553016 99.237 156.7040
144.593260 99.139 157.0285
145.641043 99.041 157.3788
146.696418 98.944 157.7548
147.759441 98.848 158.1564
148.830166 98.755 158.5833
149.908651 98.665 159.0350
150.994951 98.579 159.5107
152.089123 98.497 160.0091
153.191223 98.420 160.5286
154.301310 98.349 161.0676
155.419441 98.284 161.6241
156.545674 98.225 162.1961
157.680069 98.171 162.7817
158.822683 98.123 163.3791
159.973578 98.081 163.9860
161.132813 98.045 164.6002
162.300447 98.014 165.2194
163.476543 97.989 165.8410
164.661162 97.968 166.4628
165.854364 97.953 167.0826
167.056213 97.942 167.6985
168.266772 97.936 168.3090
169.486102 97.935 168.9126
170.714268 97.938 169.5080
171.951334 97.945 170.0939
173.197364 97.957 170.6689
174.452424 97.972 171.2312
175.716578 97.991 171.7791
176.989893 98.013 172.3107
178.272434 98.038 172.8243
179.564270 98.065 173.3183
180.865467 98.095 173.7913
182.176092 98.126 174.2420
183.496216 98.159 174.6694
184.825905 98.193 175.0727
186.165229 98.228 175.4513
187.514259 98.262 175.8050
188.873065 98.297 176.1336
190.241717 98.331 176.4371
191.620287 98.364 176.7159
193.008847 98.396 176.9703
194.407468 98.426 177.2007
195.816225 98.455 177.4078
197.235190 98.482 177.5925
198.664438 98.508 177.7555
200.104042 98.532 177.8978
201.554078 98.555 178.0204
203.014622 98.577 178.1239
204.485750 98.599 178.2092
205.967538 98.621 178.2766
207.460064 98.644 178.3267
208.963405 98.669 178.3600
210.477640 98.695 178.3771
212.002848 98.724 178.3785
213.539108 98.756 178.3647
215.086500 98.791 178.3366
216.645105 98.830 178.2947
218.215005 98.872 178.2399
219.796281 98.918 178.1727
221.389015 98.968 178.0938
222.993292 99.020 178.0039
224.609193 99.075 177.9036
226.236804 99.132 177.7934
227.876209 99.191 177.6740
229.527494 99.251 177.5460
231.190745 99.311 177.4101
232.866048 99.372 177.2670
234.553491 99.432 177.1175
236.253163 99.492 176.9622
237.965150 99.551 176.8018
239.689544 99.609 176.6368
241.426433 99.666 176.4677
243.175909 99.720 176.2947
244.938062 99.772 176.1182
246.712984 99.822 175.9384
248.500768 99.869 175.7558
250.301507 99.913 175.5709
252.115295 99.955 175.3842
253.942226 99.993 175.1963
255.782396 100.029 175.0078
257.635901 100.063 174.8192
259.502837 100.094 174.6310
261.383301 100.123 174.4433
263.277392 100.150 174.2566
265.185209 100.175 174.0709
267.106850 100.196 173.8863
269.042417 100.216 173.7031
270.992009 100.232 173.5214
272.955729 100.244 173.3418
274.933678 100.253 173.1647
276.925961 100.257 172.9907
278.932681 100.257 172.8201
280.953942 100.252 172.6535
282.989850 100.242 172.4912
285.040511 100.227 172.3334
287.106032 100.208 172.1803
289.186521 100.183 172.0318
291.282086 100.154 171.8876
293.392836 100.122 171.7476
295.518881 100.085 171.6113
297.660333 100.046 171.4785
299.817302 100.004 171.3484
301.989902 99.960 171.2208
304.178245 99.915 171.0948
306.382446 99.869 170.9700
308.602620 99.824 170.8456
310.838882 99.780 170.7213
313.091348 99.736 170.5964
315.360137 99.695 170.4707
317.645367 99.657 170.3438
319.947156 99.621 170.2155
322.265625 99.589 170.0856
324.600895 99.561 169.9541
326.953086 99.536 169.8210
329.322323 99.516 169.6865
331.708729 99.500 169.5506
334.112427 99.489 169.4138
336.533543 99.483 169.2764
338.972204 99.481 169.1388
341.428536 99.484 169.0015
343.902668 99.490 168.8648
346.394729 99.501 168.7292
348.904848 99.514 168.5950
351.433156 99.530 168.4625
353.979786 99.548 168.3322
356.544869 99.567 168.2044
359.128540 99.585 168.0793
361.730934 99.603 167.9574
364.352185 99.619 167.8387
366.992431 99.632 167.7235
369.651810 99.641 167.6119
372.330459 99.647 167.5040
375.028519 99.647 167.3997
377.746130 99.643 167.2990
380.483434 99.634 167.2018
383.240574 99.619 167.1082
386.017693 99.600 167.0179
388.814937 99.576 166.9310
391.632450 99.548 166.8472
394.470380 99.518 166.7664
397.328875 99.485 166.6882
400.208084 99.451 166.6122
403.108157 99.417 166.5381
406.029245 99.385 166.4653
408.971500 99.355 166.3934
411.935076 99.327 166.3220
414.920127 99.304 166.2507
417.926810 99.284 166.1793
420.955280 99.269 166.1074
424.005695 99.259 166.0349
427.078215 99.252 165.9616
430.173000 99.249 165.8874
433.290211 99.248 165.8121
436.430010 99.249 165.7355
439.592562 99.251 165.6575
442.778031 99.253 165.5779
445.986583 99.254 165.4967
449.218386 99.252 165.4136
452.473607 99.248 165.3287
455.752418 99.242 165.2419
459.054987 99.232 165.1533
462.381489 99.219 165.0626
465.732096 99.203 164.9699
469.106983 99.184 164.8754
472.506325 99.163 164.7790
475.930301 99.139 164.6808
479.379088 99.113 164.5808
482.852867 99.085 164.4793
486.351817 99.056 164.3765
489.876123 99.025 164.2729
493.425968 98.993 164.1691
497.001536 98.961 164.0658
500.603014 98.929 163.9638
504.230589 98.897 163.8642
507.884452 98.867 163.7682
511.564792 98.839 163.6772
515.271802 98.814 163.5926
519.005673 98.792 163.5162
522.766602 98.774 163.4500
526.554785 98.761 163.3964
530.370418 98.752 163.3576
534.213700 98.747 163.3364
538.084833 98.747 163.3352
541.984018 98.749 163.3565
545.911457 98.754 163.4017
549.867357 98.760 163.4718
553.851922 98.768 163.5665
557.865362 98.775 163.6844
561.907884 98.780 163.8229
565.979700 98.784 163.9790
570.081022 98.784 164.1490
574.212064 98.780 164.3297
578.373042 98.770 164.5179
582.564171 98.754 164.7113
586.785671 98.731 164.9083
591.037762 98.699 165.1077
595.320665 98.660 165.3092
599.634604 98.612 165.5125
603.979804 98.557 165.7175
608.356491 98.494 165.9243
612.764893 98.424 166.1325
617.205240 98.350 166.3419
621.677763 98.272 166.5516
626.182696 98.194 166.7606
630.720274 98.116 166.9673
635.290733 98.040 167.1701
639.894312 97.969 167.3669
644.531250 97.905 167.5556
649.201789 97.848 167.7340
653.906173 97.799 167.9001
658.644647 97.760 168.0519
663.417457 97.731 168.1878
668.224854 97.712 168.3062
673.067086 97.703 168.4062
677.944408 97.703 168.4869
682.857073 97.713 168.5480
687.805336 97.731 168.5893
692.789457 97.758 168.6111
697.809695 97.791 168.6140
702.866312 97.829 168.5989
707.959571 97.871 168.5670
713.089738 97.916 168.5197
718.257080 97.962 168.4590
723.461867 98.007 168.3866
728.704370 98.049 168.3047
733.984862 98.087 168.2157
739.303619 98.120 168.1218
744.660918 98.146 168.0252
750.057038 98.167 167.9283
755.492260 98.181 167.8331
760.966869 98.188 167.7416
766.481148 98.190 167.6554
772.035387 98.187 167.5761
777.629873 98.179 167.5049
783.264900 98.166 167.4430
788.940760 98.149 167.3911
794.657750 98.127 167.3500
800.416168 98.100 167.3203
806.216313 98.067 167.3022
812.058489 98.027 167.2960
817.943000 97.981 167.3018
823.870152 97.927 167.3195
829.840255 97.865 167.3488
835.853619 97.797 167.3893
841.910559 97.723 167.4406
848.011390 97.644 167.5017
854.156430 97.563 167.5718
860.346000 97.482 167.6495
866.580422 97.404 167.7332
872.860020 97.331 167.8212
879.185124 97.267 167.9113
885.556062 97.212 168.0009
891.973166 97.169 168.0873
898.436771 97.139 168.1677
904.947215 97.121 168.2387
911.504835 97.116 168.2972
918.109975 97.122 168.3401
924.762978 97.136 168.3650
931.464192 97.157 168.3703
938.213966 97.182 168.3560
945.012651 97.208 168.3240
951.860602 97.232 168.2787
958.758176 97.252 168.2263
965.705733 97.266 168.1754
972.703635 97.273 168.1353
979.752246 97.272 168.1159
986.851935 97.265 168.1263
994.003071 97.251 168.1743
1001.206027 97.232 168.2664
1008.461179 97.210 168.4077
1015.768904 97.188 168.6023
1023.129584 97.167 168.8533
1030.543603 97.150 169.1633
1038.011347 97.141 169.5341
1045.533205 97.142 169.9665
1053.109569 97.156 170.4592
1060.740836 97.187 171.0083
1068.427401 97.236 171.6054
1076.169666 97.306 172.2366
1083.968035 97.397 172.8814
1091.822915 97.509 173.5128
1099.734713 97.640 174.0981
1107.703844 97.785 174.6022
1115.730723 97.941 174.9919
1123.815768 98.099 175.2413
1131.959400 98.254 175.3363
1140.162045 98.398 175.2773
1148.424129 98.526 175.0790
1156.746083 98.634 174.7672
1165.128342 98.720 174.3743
1173.571343 98.785 173.9337
1182.075524 98.830 173.4766
1190.641331 98.858 173.0289
1199.269209 98.872 172.6104
1207.959608 98.878 172.2348
1216.712981 98.878 171.9100
1225.529785 98.875 171.6397
1234.410479 98.874 171.4238
1243.355526 98.876 171.2598
1252.365393 98.884 171.1436
1261.440549 98.897 171.0700
1270.581467 98.917 171.0335
1279.788624 98.943 171.0285
1289.062500 98.976 171.0498
1298.403578 99.013 171.0924
1307.812346 99.056 171.1522
1317.289293 99.101 171.2255
1326.834914 99.148 171.3095
1336.449707 99.197 171.4022
1346.134173 99.245 171.5020
1355.888816 99.292 171.6078
1365.714145 99.338 171.7191
1375.610673 99.382 171.8352
1385.578915 99.423 171.9559
1395.619391 99.461 172.0806
1405.732624 99.497 172.2087
1415.919142 99.530 172.3396
1426.179476 99.561 172.4722
1436.514160 99.590 172.6057
1446.923734 99.617 172.7390
1457.408740 99.642 172.8710
1467.969724 99.666 173.0008
1478.607238 99.688 173.1272
1489.321836 99.709 173.2495
1500.114076 99.728 173.3671
1510.984521 99.745 173.4793
1521.933737 99.759 173.5861
1532.962297 99.771 173.6875
1544.070773 99.779 173.7838
1555.259747 99.784 173.8757
1566.529800 99.785 173.9638
1577.881521 99.784 174.0491
1589.315501 99.780 174.1326
1600.832336 99.773 174.2151
1612.432627 99.765 174.2976
1624.116978 99.756 174.3810
1635.886000 99.747 174.4656
1647.740304 99.738 174.5521
1659.680509 99.728 174.6406
1671.707238 99.719 174.7311
1683.821118 99.711 174.8238
1696.022780 99.702 174.9183
1708.312860 99.694 175.0146
1720.692000 99.687 175.1123
1733.160843 99.680 175.2112
1745.720041 99.674 175.3109
1758.370248 99.670 175.4112
1771.112124 99.667 175.5117
1783.946332 99.667 175.6123
1796.873543 99.670 175.7126
1809.894429 99.675 175.8124
1823.009670 99.683 175.9115
1836.219950 99.693 176.0095
1849.525956 99.705 176.1063
1862.928384 99.718 176.2014
1876.427931 99.731 176.2946
1890.025301 99.744 176.3856
1903.721204 99.756 176.4739
1917.516352 99.765 176.5591
1931.411466 99.772 176.6409
1945.407270 99.777 176.7188
1959.504493 99.778 176.7922
1973.703870 99.777 176.8610
1988.006142 99.774 176.9249
2002.412054 99.768 176.9839
2016.922357 99.762 177.0381
2031.537808 99.755 177.0878
2046.259169 99.748 177.1335
2061.087206 99.743 177.1757
2076.022694 99.739 177.2151
2091.066410 99.737 177.2523
2106.219139 99.739 177.2877
2121.481671 99.745 177.3217
2136.854802 99.755 177.3550
2152.339333 99.770 177.3877
2167.936071 99.790 177.4201
2183.645829 99.816 177.4524
2199.469427 99.848 177.4843
2215.407689 99.887 177.5158
2231.461446 99.932 177.5463
2247.631536 99.984 177.5754
2263.918800 100.044 177.6024
2280.324089 100.109 177.6265
2296.848258 100.182 177.6474
2313.492167 100.260 177.6646
2330.256685 100.344 177.6780
2347.142685 100.433 177.6879
2364.151049 100.526 177.6949
2381.282662 100.621 177.7000
2398.538418 100.719 177.7045
2415.919216 100.817 177.7097
2433.425962 100.916 177.7172
2451.059570 101.014 177.7283
2468.820958 101.110 177.7438
2486.711052 101.204 177.7646
2504.730786 101.296 177.7909
2522.881098 101.384 177.8222
2541.162934 101.468 177.8578
2559.577248 101.547 177.8964
2578.125000 101.622 177.9364
2596.807157 101.691 177.9758
2615.624692 101.755 178.0128
2634.578586 101.811 178.0456
2653.669829 101.862 178.0730
2672.899414 101.905 178.0943
2692.268345 101.940 178.1097
2711.777632 101.968 178.1204
2731.428290 101.988 178.1278
2751.221345 102.000 178.1342
2771.157829 102.004 178.1422
2791.238781 102.001 178.1538
2811.465248 101.992 178.1712
2831.838284 101.976 178.1956
2852.358952 101.955 178.2274
2873.028321 101.928 178.2666
2893.847468 101.898 178.3123
2914.817480 101.863 178.3632
2935.939449 101.825 178.4180
2957.214476 101.783 178.4755
2978.643672 101.738 178.5347
3000.228152 101.691 178.5949
3021.969041 101.641 178.6557
3043.867475 101.588 178.7174
3065.924593 101.534 178.7805
3088.141547 101.477 178.8459
3110.519493 101.419 178.9153
3133.059600 101.359 178.9903
3155.763041 101.297 179.0730
3178.631001 101.234 179.1656
3201.664672 101.171 179.2702
3224.865254 101.107 179.3890
3248.233957 101.043 179.5240
3271.771999 100.979 179.6770
3295.480608 100.917 179.8497
3319.361019 100.856 -179.9562
3343.414477 100.798 -179.7390
3367.642236 100.744 -179.4970
3392.045560 100.693 -179.2287
3416.625721 100.648 -178.9323
3441.383999 100.608 -178.6065
3466.321686 100.575 -178.2501
3491.440082 100.549 -177.8623
3516.740496 100.530 -177.4427
3542.224247 100.520 -176.9912
3567.892664 100.519 -176.5083
3593.747085 100.527 -175.9948
3619.788858 100.545 -175.4520
3646.019340 100.573 -174.8814
3672.439900 100.612 -174.2848
3699.051913 100.661 -173.6645
3725.856768 100.721 -173.0226
3752.855862 100.794 -172.3618
3780.050603 100.878 -171.6850
3807.442408 100.974 -170.9957
3835.032705 101.084 -170.2981
3862.822933 101.207 -169.5978
3890.814540 101.344 -168.9012
3919.008986 101.495 -168.2169
3947.407741 101.660 -167.5544
3976.012284 101.838 -166.9247
4004.824108 102.030 -166.3398
4033.844715 102.234 -165.8113
4063.075616 102.449 -165.3507
4092.518337 102.673 -164.9680
4122.174412 102.904 -164.6723
4152.045387 103.142 -164.4705
4182.132820 103.385 -164.3683
4212.438278 103.631 -164.3698
4242.963342 103.879 -164.4780
4273.709604 104.128 -164.6949
4304.678665 104.377 -165.0218
4335.872141 104.625 -165.4601
4367.291658 104.870 -166.0109
4398.938854 105.112 -166.6753
4430.815378 105.349 -167.4541
4462.922893 105.580 -168.3477
4495.263072 105.803 -169.3554
4527.837601 106.017 -170.4750
4560.648179 106.218 -171.7026
4593.696515 106.407 -173.0323
4626.984334 106.579 -174.4563
4660.513370 106.734 -175.9649
4694.285371 106.870 -177.5466
4728.302098 106.986 -179.1888
4762.565324 107.080 179.1227
4797.076835 107.151 177.4028
4831.838432 107.199 175.6670
4866.851925 107.223 173.9313
4902.119140 107.224 172.2115
4937.641916 107.202 170.5233
4973.422105 107.158 168.8817
5009.461572 107.092 167.3007
5045.762195 107.006 165.7931
5082.325868 106.902 164.3704
5119.154496 106.780 163.0428
5156.250000 106.642 161.8187
5193.614313 106.490 160.7054
5231.249383 106.325 159.7084
5269.157173 106.149 158.8320
5307.339658 105.963 158.0792
5345.798829 105.768 157.4518
5384.536691 105.567 156.9503
5423.555263 105.360 156.5741
5462.856580 105.148 156.3215
5502.442691 104.935 156.1894
5542.315659 104.721 156.1730
5582.477563 104.508 156.2658
5622.930497 104.300 156.4591
5663.676569 104.098 156.7420
5704.717904 103.906 157.1010
5746.056642 103.725 157.5203
5787.694937 103.560 157.9816
5829.634960 103.411 158.4648
5871.878898 103.281 158.9481
5914.428953 103.170 159.4094
5957.287343 103.080 159.8264
6000.456303 103.008 160.1779
6043.938083 102.955 160.4448
6087.734950 102.916 160.6105
6131.849187 102.888 160.6617
6176.283094 102.869 160.5892
6221.038987 102.854 160.3875
6266.119200 102.838 160.0553
6311.526083 102.818 159.5952
6357.262002 102.790 159.0135
6403.329344 102.751 158.3198
6449.730508 102.697 157.5262
6496.467914 102.626 156.6475
6543.543998 102.537 155.6998
6590.961215 102.429 154.7005
6638.722037 102.301 153.6673
6686.828954 102.154 152.6180
6735.284473 101.989 151.5700
6784.091120 101.805 150.5396
6833.251441 101.606 149.5424
6882.767998 101.392 148.5926
6932.643372 101.166 147.7035
6982.880164 100.929 146.8867
7033.480992 100.684 146.1529
7084.448495 100.433 145.5108
7135.785329 100.177 144.9677
7187.494171 99.919 144.5282
7239.577717 99.660 144.1946
7292.038681 99.404 143.9656
7344.879799 99.152 143.8359
7398.103826 98.906 143.7951
7451.713536 98.669 143.8265
7505.711724 98.444 143.9066
7560.101205 98.235 144.0038
7614.884815 98.044 144.0786
7670.065409 97.876 144.0829
7725.645865 97.732 143.9620
7781.629080 97.614 143.6562
7838.017972 97.524 143.1037
7894.815481 97.458 142.2447
7952.024569 97.413 141.0247
8009.648217 97.382 139.3980
8067.689429 97.357 137.3301
8126.151233 97.326 134.7989
8185.036674 97.278 131.7948
8244.348824 97.200 128.3205
8304.090774 97.082 124.3888
8364.265639 96.913 120.0185
8424.876556 96.688 115.2251
8485.926684 96.404 110.0021
8547.419207 96.065 104.2788
8609.357330 95.680 97.8181
8671.744282 95.265 89.8968
8734.583316 94.841 77.8764
8797.877707 94.434 45.9718
8861.630756 94.071 -44.9659
8925.845785 93.776 -75.9135
8990.526143 93.568 -87.2562
9055.675202 93.455 -94.3397
9121.296357 93.433 -99.8061
9187.393031 93.492 -104.4432
9253.968668 93.615 -108.5735
9321.026740 93.784 -112.3611
9388.570742 93.982 -115.9053
9456.604196 94.194 -119.2749
9525.130648 94.408 -122.5232
9594.153671 94.616 -125.6935
9663.676863 94.808 -128.8225
9733.703850 94.980 -131.9404
9804.238280 95.125 -135.0718
9875.283832 95.238 -138.2341
9946.844210 95.314 -141.4380
10018.923143 95.348 -144.6858
10091.524390 95.337 -147.9719
10164.651736 95.275 -151.2821
10238.308993 95.161 -154.5946
10312.500000 94.990 -157.8808
10387.228626 94.763 -161.1075
10462.498767 94.479 -164.2390
10538.314345 94.138 -167.2391
10614.679315 93.742 -170.0739
10691.597657 93.295 -172.7126
10769.073381 92.800 -175.1288
10847.110526 92.259 -177.3000
10925.713161 91.678 -179.2063
11004.885382 91.058 179.1705
11084.631318 90.404 177.8494
11164.955126 89.719 176.8511
11245.860993 89.006 176.1986
11327.353138 88.269 175.9156
11409.435808 87.513 176.0217
11492.113283 86.743 176.5248
11575.389873 85.968 177.4099
11659.269920 85.198 178.6271
11743.757796 84.446 -179.9174
11828.857906 83.726 -178.3629
11914.574686 83.055 -176.8848
12000.912606 82.448 -175.6763
12087.876166 81.917 -174.9261
12175.469900 81.471 -174.8026
12263.698373 81.112 -175.4476
12352.566187 80.838 -176.9831
12442.077974 80.638 -179.5274
12532.238400 80.500 176.7790
12623.052165 80.410 171.7365
12714.524005 80.354 165.0300
12806.658687 80.318 156.1428
12899.461015 80.292 144.2495
12992.935827 80.269 128.2350
13087.087996 80.245 107.4231
13181.922430 80.217 83.5747
13277.444074 80.189 61.1231
13373.657907 80.163 43.0319
13470.568945 80.145 29.2172
13568.182241 80.139 18.5294
13666.502883 80.149 9.9698
13765.535996 80.177 2.8693
13865.286744 80.224 -3.2000
13965.760328 80.287 -8.5164
14066.961984 80.366 -13.2685
14168.896989 80.459 -17.5894
14271.570658 80.563 -21.5783
14374.988342 80.679 -25.3133
14479.155433 80.809 -28.8606
14584.077362 80.954 -32.2811
14689.759598 81.117 -35.6351
14796.207652 81.299 -38.9851
14903.427072 81.500 -42.3970
15011.423448 81.717 -45.9384
15120.202410 81.944 -49.6742
15229.769630 82.171 -53.6627
15340.130819 82.386 -57.9496
15451.291730 82.576 -62.5651
15563.258160 82.728 -67.5208
15676.035944 82.828 -72.8101
15789.630962 82.866 -78.4094
15904.049137 82.831 -84.2795
16019.296433 82.715 -90.3699
16135.378859 82.514 -96.6206
16252.302465 82.225 -102.9676
16370.073348 81.846 -109.3458
16488.697648 81.380 -115.6927
16608.181548 80.828 -121.9502
16728.531278 80.194 -128.0642
16849.753112 79.483 -133.9836
16971.853368 78.699 -139.6565
17094.838414 77.848 -145.0243
17218.714660 76.933 -150.0133
17343.488565 75.962 -154.5234
17469.166632 74.937 -158.4089
17595.755415 73.865 -161.4469
17723.261512 72.752 -163.2799
17851.691571 71.607 -163.3020
17981.052287 70.441 -160.4414
18111.350404 69.271 -152.8477
18242.592715 68.120 -138.2025
18374.786062 67.023 -117.4746
18507.937336 66.028 -98.5284
18642.053479 65.193 -86.6668
18777.141484 64.571 -80.7320
18913.208391 64.196 -78.4880
19050.261296 64.059 -78.4823
19188.307342 64.115 -79.8613
19327.353727 64.296 -82.0649
19467.407699 64.534 -84.6609
19608.476560 64.775 -87.2751
19750.567664 64.981 -89.5757
19893.688419 65.128 -91.2834
20037.846286 65.205 -92.1924
