* Measurement data measured by REW V5.31.3
* Source: EXCL: Headset (USB-C to 3.5mm Headphone Jack Adapter), MICROPHONE (Master Volume), 0, volume: 0.260
* Format: 256k Log Swept Sine, 1 sweep at -12.0 dBFS with no timing reference
* Dated: Feb 21, 2025 5:25:14 PM
* REW Settings:
*  C-weighting compensation: Off
*  Target level: 75.0 dB
* Note: ; 
* Measurement: Ouroboros (Golem Mod) R2
* Smoothing: 1/6 octave
* Frequency Step: 96 ppo
* Start Frequency: 20.0 Hz
*
* Freq(Hz) SPL(dB) Phase(degrees)
20.141602 105.118 -117.5298
20.287556 105.097 -117.7355
20.434568 105.068 -118.0113
20.582645 105.034 -118.3487
20.731796 104.995 -118.7391
20.882027 104.953 -119.1739
21.033346 104.910 -119.6454
21.185763 104.865 -120.1470
21.339284 104.822 -120.6732
21.493917 104.780 -121.2195
21.649671 104.740 -121.7822
21.806553 104.702 -122.3585
21.964572 104.667 -122.9457
22.123737 104.634 -123.5418
22.284054 104.603 -124.1449
22.445534 104.573 -124.7532
22.608183 104.545 -125.3650
22.772012 104.516 -125.9787
22.937027 104.487 -126.5927
23.103238 104.457 -127.2053
23.270654 104.425 -127.8151
23.439282 104.390 -128.4204
23.609133 104.353 -129.0199
23.780215 104.313 -129.6122
23.952536 104.269 -130.1962
24.126106 104.223 -130.7710
24.300934 104.174 -131.3360
24.477028 104.123 -131.8909
24.654399 104.071 -132.4359
24.833055 104.018 -132.9713
25.013005 103.966 -133.4978
25.194260 103.914 -134.0165
25.376828 103.864 -134.5283
25.560719 103.817 -135.0343
25.745942 103.772 -135.5356
25.932508 103.731 -136.0330
26.120426 103.694 -136.5273
26.309705 103.660 -137.0190
26.500356 103.630 -137.5086
26.692388 103.603 -137.9963
26.885812 103.579 -138.4823
27.080638 103.559 -138.9664
27.276876 103.540 -139.4487
27.474535 103.523 -139.9286
27.673627 103.508 -140.4056
27.874161 103.492 -140.8789
28.076149 103.476 -141.3476
28.279600 103.459 -141.8105
28.484526 103.441 -142.2665
28.690937 103.420 -142.7144
28.898843 103.396 -143.1531
29.108256 103.370 -143.5819
29.319186 103.339 -144.0001
29.531645 103.306 -144.4073
29.745644 103.269 -144.8030
29.961193 103.229 -145.1871
30.178304 103.186 -145.5591
30.396989 103.141 -145.9186
30.617258 103.094 -146.2652
30.839123 103.046 -146.5984
31.062596 102.997 -146.9181
31.287688 102.949 -147.2242
31.514412 102.902 -147.5172
31.742778 102.858 -147.7979
31.972800 102.818 -148.0673
32.204488 102.782 -148.3265
32.437855 102.751 -148.5766
32.672913 102.725 -148.8183
32.909674 102.705 -149.0520
33.148151 102.692 -149.2776
33.388356 102.683 -149.4947
33.630302 102.680 -149.7028
33.874001 102.681 -149.9012
34.119466 102.685 -150.0893
34.366710 102.691 -150.2665
34.615745 102.698 -150.4323
34.866585 102.704 -150.5861
35.119243 102.708 -150.7274
35.373731 102.708 -150.8555
35.630064 102.704 -150.9698
35.888254 102.695 -151.0703
36.148315 102.680 -151.1569
36.410261 102.661 -151.2307
36.674104 102.636 -151.2929
36.939860 102.608 -151.3454
37.207542 102.575 -151.3904
37.477163 102.540 -151.4296
37.748738 102.503 -151.4647
38.022281 102.465 -151.4966
38.297806 102.426 -151.5259
38.575327 102.386 -151.5526
38.854860 102.347 -151.5766
39.136419 102.308 -151.5978
39.420017 102.269 -151.6165
39.705671 102.232 -151.6333
39.993395 102.195 -151.6491
40.283203 102.160 -151.6653
40.575112 102.126 -151.6834
40.869136 102.093 -151.7049
41.165290 102.062 -151.7308
41.463591 102.032 -151.7616
41.764053 102.004 -151.7970
42.066693 101.978 -151.8356
42.371525 101.954 -151.8750
42.678567 101.931 -151.9124
42.987834 101.910 -151.9445
43.299341 101.891 -151.9682
43.613106 101.874 -151.9812
43.929145 101.860 -151.9816
44.247473 101.850 -151.9686
44.568109 101.842 -151.9421
44.891068 101.839 -151.9027
45.216367 101.840 -151.8515
45.544023 101.846 -151.7901
45.874054 101.857 -151.7208
46.206476 101.873 -151.6464
46.541307 101.894 -151.5699
46.878565 101.921 -151.4947
47.218266 101.953 -151.4243
47.560429 101.989 -151.3620
47.905072 102.030 -151.3109
48.252212 102.075 -151.2737
48.601867 102.124 -151.2523
48.954056 102.176 -151.2484
49.308798 102.231 -151.2626
49.666109 102.289 -151.2943
50.026010 102.348 -151.3426
50.388520 102.409 -151.4055
50.753656 102.470 -151.4813
51.121437 102.532 -151.5683
51.491884 102.594 -151.6653
51.865016 102.656 -151.7719
52.240851 102.717 -151.8876
52.619410 102.777 -152.0124
53.000712 102.837 -152.1460
53.384777 102.895 -152.2878
53.771625 102.952 -152.4373
54.161276 103.007 -152.5942
54.553751 103.060 -152.7582
54.949070 103.113 -152.9294
55.347254 103.163 -153.1083
55.748323 103.213 -153.2957
56.152298 103.261 -153.4927
56.559201 103.309 -153.7005
56.969052 103.358 -153.9201
57.381873 103.407 -154.1526
57.797686 103.457 -154.3989
58.216512 103.508 -154.6596
58.638373 103.561 -154.9351
59.063291 103.616 -155.2259
59.491288 103.673 -155.5320
59.922386 103.732 -155.8532
60.356608 103.792 -156.1895
60.793977 103.853 -156.5404
61.234515 103.915 -156.9061
61.678246 103.977 -157.2867
62.125192 104.039 -157.6826
62.575377 104.100 -158.0941
63.028824 104.160 -158.5214
63.485557 104.218 -158.9644
63.945599 104.273 -159.4230
64.408975 104.326 -159.8971
64.875709 104.375 -160.3864
65.345825 104.422 -160.8910
65.819348 104.465 -161.4106
66.296302 104.506 -161.9450
66.776713 104.545 -162.4934
67.260604 104.581 -163.0553
67.748002 104.615 -163.6294
68.238932 104.648 -164.2145
68.733420 104.678 -164.8094
69.231490 104.707 -165.4130
69.733170 104.734 -166.0243
70.238485 104.760 -166.6429
70.747463 104.783 -167.2680
71.260128 104.805 -167.8992
71.776508 104.825 -168.5358
72.296630 104.843 -169.1767
72.820521 104.860 -169.8208
73.348209 104.875 -170.4670
73.879720 104.887 -171.1143
74.415083 104.898 -171.7618
74.954326 104.907 -172.4089
75.497475 104.913 -173.0550
76.044561 104.917 -173.7000
76.595612 104.919 -174.3435
77.150655 104.918 -174.9854
77.709720 104.914 -175.6253
78.272837 104.908 -176.2631
78.840034 104.900 -176.8983
79.411342 104.889 -177.5308
79.986789 104.876 -178.1600
80.566406 104.860 -178.7856
81.150224 104.843 -179.4070
81.738272 104.823 179.9762
82.330581 104.801 179.3643
82.927182 104.778 178.7575
83.528107 104.752 178.1558
84.133386 104.725 177.5591
84.743051 104.697 176.9674
85.357134 104.667 176.3810
85.975667 104.636 175.8002
86.598682 104.605 175.2253
87.226212 104.573 174.6567
87.858289 104.541 174.0945
88.494946 104.508 173.5384
89.136217 104.476 172.9881
89.782135 104.444 172.4431
90.432733 104.411 171.9029
91.088046 104.380 171.3668
91.748108 104.348 170.8346
92.412952 104.316 170.3060
93.082615 104.284 169.7813
93.757130 104.250 169.2608
94.436533 104.216 168.7448
95.120859 104.180 168.2336
95.810144 104.142 167.7273
96.504423 104.101 167.2257
97.203734 104.056 166.7289
97.908112 104.008 166.2367
98.617595 103.957 165.7489
99.332219 103.902 165.2655
100.052021 103.844 164.7863
100.777039 103.782 164.3114
101.507311 103.718 163.8409
102.242875 103.652 163.3749
102.983769 103.584 162.9138
103.730032 103.515 162.4578
104.481702 103.444 162.0075
105.238820 103.373 161.5633
106.001424 103.302 161.1258
106.769554 103.230 160.6954
107.543250 103.158 160.2727
108.322553 103.086 159.8580
109.107503 103.014 159.4515
109.898141 102.942 159.0535
110.694508 102.869 158.6641
111.496646 102.795 158.2834
112.304596 102.721 157.9120
113.118402 102.646 157.5502
113.938104 102.569 157.1989
114.763747 102.490 156.8583
115.595372 102.409 156.5291
116.433024 102.326 156.2116
117.276746 102.240 155.9061
118.126581 102.153 155.6128
118.982575 102.062 155.3319
119.844772 101.970 155.0637
120.713217 101.876 154.8087
121.587954 101.780 154.5676
122.469031 101.683 154.3416
123.356492 101.585 154.1317
124.250384 101.486 153.9391
125.150753 101.387 153.7648
126.057647 101.287 153.6097
126.971113 101.187 153.4747
127.891198 101.088 153.3603
128.817950 100.989 153.2668
129.751418 100.891 153.1948
130.691651 100.794 153.1443
131.638696 100.697 153.1157
132.592604 100.602 153.1094
133.553425 100.506 153.1258
134.521208 100.411 153.1655
135.496004 100.316 153.2294
136.477864 100.221 153.3180
137.466839 100.125 153.4324
138.462981 100.028 153.5732
139.466340 99.930 153.7412
140.476971 99.830 153.9364
141.494925 99.729 154.1589
142.520256 99.627 154.4086
143.553016 99.524 154.6851
144.593260 99.420 154.9884
145.641043 99.317 155.3183
146.696418 99.215 155.6748
147.759441 99.114 156.0577
148.830166 99.015 156.4669
149.908651 98.919 156.9017
150.994951 98.828 157.3613
152.089123 98.741 157.8446
153.191223 98.659 158.3500
154.301310 98.583 158.8758
155.419441 98.513 159.4203
156.545674 98.449 159.9815
157.680069 98.391 160.5576
158.822683 98.339 161.1468
159.973578 98.292 161.7474
161.132813 98.251 162.3578
162.300447 98.215 162.9762
163.476543 98.184 163.6005
164.661162 98.158 164.2288
165.854364 98.137 164.8586
167.056213 98.122 165.4879
168.266772 98.111 166.1143
169.486102 98.104 166.7354
170.714268 98.103 167.3488
171.951334 98.105 167.9525
173.197364 98.112 168.5442
174.452424 98.123 169.1216
175.716578 98.138 169.6830
176.989893 98.155 170.2267
178.272434 98.176 170.7511
179.564270 98.199 171.2551
180.865467 98.225 171.7381
182.176092 98.252 172.1992
183.496216 98.282 172.6381
184.825905 98.312 173.0540
186.165229 98.343 173.4466
187.514259 98.375 173.8154
188.873065 98.407 174.1603
190.241717 98.439 174.4810
191.620287 98.470 174.7775
193.008847 98.500 175.0498
194.407468 98.530 175.2981
195.816225 98.558 175.5227
197.235190 98.584 175.7240
198.664438 98.610 175.9025
200.104042 98.634 176.0588
201.554078 98.657 176.1938
203.014622 98.680 176.3080
204.485750 98.702 176.4022
205.967538 98.724 176.4770
207.460064 98.747 176.5331
208.963405 98.771 176.5713
210.477640 98.798 176.5921
212.002848 98.827 176.5964
213.539108 98.858 176.5848
215.086500 98.894 176.5580
216.645105 98.932 176.5168
218.215005 98.975 176.4620
219.796281 99.020 176.3947
221.389015 99.069 176.3154
222.993292 99.121 176.2252
224.609193 99.175 176.1248
226.236804 99.231 176.0146
227.876209 99.289 175.8955
229.527494 99.348 175.7678
231.190745 99.407 175.6322
232.866048 99.466 175.4892
234.553491 99.525 175.3392
236.253163 99.584 175.1828
237.965150 99.642 175.0204
239.689544 99.699 174.8524
241.426433 99.754 174.6792
243.175909 99.808 174.5014
244.938062 99.859 174.3194
246.712984 99.908 174.1338
248.500768 99.955 173.9449
250.301507 99.998 173.7532
252.115295 100.039 173.5592
253.942226 100.077 173.3633
255.782396 100.113 173.1662
257.635901 100.146 172.9682
259.502837 100.176 172.7701
261.383301 100.204 172.5724
263.277392 100.229 172.3758
265.185209 100.252 172.1808
267.106850 100.272 171.9880
269.042417 100.290 171.7979
270.992009 100.304 171.6111
272.955729 100.315 171.4279
274.933678 100.322 171.2489
276.925961 100.325 171.0743
278.932681 100.324 170.9044
280.953942 100.318 170.7394
282.989850 100.308 170.5794
285.040511 100.293 170.4246
287.106032 100.273 170.2751
289.186521 100.248 170.1309
291.282086 100.219 169.9917
293.392836 100.186 169.8571
295.518881 100.150 169.7267
297.660333 100.110 169.5998
299.817302 100.069 169.4755
301.989902 100.025 169.3530
304.178245 99.981 169.2315
306.382446 99.937 169.1099
308.602620 99.893 168.9873
310.838882 99.850 168.8627
313.091348 99.808 168.7352
315.360137 99.769 168.6039
317.645367 99.733 168.4680
319.947156 99.700 168.3272
322.265625 99.670 168.1812
324.600895 99.644 168.0301
326.953086 99.623 167.8739
329.322323 99.605 167.7130
331.708729 99.592 167.5477
334.112427 99.583 167.3784
336.533543 99.579 167.2056
338.972204 99.579 167.0296
341.428536 99.583 166.8509
343.902668 99.591 166.6698
346.394729 99.603 166.4867
348.904848 99.616 166.3020
351.433156 99.632 166.1162
353.979786 99.649 165.9299
356.544869 99.665 165.7437
359.128540 99.681 165.5583
361.730934 99.695 165.3745
364.352185 99.706 165.1931
366.992431 99.713 165.0146
369.651810 99.717 164.8397
372.330459 99.715 164.6688
375.028519 99.708 164.5024
377.746130 99.695 164.3406
380.483434 99.676 164.1838
383.240574 99.652 164.0323
386.017693 99.621 163.8865
388.814937 99.585 163.7465
391.632450 99.544 163.6128
394.470380 99.499 163.4860
397.328875 99.451 163.3663
400.208084 99.401 163.2544
403.108157 99.350 163.1504
406.029245 99.299 163.0547
408.971500 99.250 162.9674
411.935076 99.203 162.8884
414.920127 99.160 162.8179
417.926810 99.120 162.7559
420.955280 99.085 162.7025
424.005695 99.053 162.6580
427.078215 99.025 162.6225
430.173000 99.001 162.5965
433.290211 98.980 162.5804
436.430010 98.960 162.5747
439.592562 98.942 162.5797
442.778031 98.924 162.5954
445.986583 98.905 162.6219
449.218386 98.886 162.6592
452.473607 98.864 162.7070
455.752418 98.842 162.7648
459.054987 98.817 162.8322
462.381489 98.791 162.9086
465.732096 98.763 162.9931
469.106983 98.734 163.0850
472.506325 98.705 163.1833
475.930301 98.676 163.2870
479.379088 98.647 163.3953
482.852867 98.619 163.5068
486.351817 98.591 163.6207
489.876123 98.566 163.7359
493.425968 98.542 163.8514
497.001536 98.520 163.9661
500.603014 98.502 164.0789
504.230589 98.487 164.1888
507.884452 98.477 164.2948
511.564792 98.472 164.3960
515.271802 98.472 164.4916
519.005673 98.479 164.5813
522.766602 98.493 164.6650
526.554785 98.513 164.7433
530.370418 98.539 164.8170
534.213700 98.572 164.8875
538.084833 98.608 164.9563
541.984018 98.649 165.0251
545.911457 98.692 165.0950
549.867357 98.737 165.1669
553.851922 98.782 165.2405
557.865362 98.825 165.3147
561.907884 98.866 165.3878
565.979700 98.903 165.4572
570.081022 98.935 165.5203
574.212064 98.961 165.5748
578.373042 98.979 165.6192
582.564171 98.989 165.6524
586.785671 98.990 165.6744
591.037762 98.980 165.6859
595.320665 98.959 165.6881
599.634604 98.928 165.6827
603.979804 98.886 165.6715
608.356491 98.834 165.6566
612.764893 98.772 165.6400
617.205240 98.703 165.6234
621.677763 98.628 165.6083
626.182696 98.548 165.5961
630.720274 98.466 165.5874
635.290733 98.383 165.5829
639.894312 98.302 165.5825
644.531250 98.224 165.5859
649.201789 98.151 165.5925
653.906173 98.084 165.6015
658.644647 98.025 165.6117
663.417457 97.973 165.6220
668.224854 97.931 165.6314
673.067086 97.898 165.6389
677.944408 97.874 165.6436
682.857073 97.859 165.6449
687.805336 97.852 165.6421
692.789457 97.854 165.6350
697.809695 97.863 165.6234
702.866312 97.879 165.6074
707.959571 97.900 165.5872
713.089738 97.925 165.5632
718.257080 97.951 165.5361
723.461867 97.978 165.5066
728.704370 98.004 165.4756
733.984862 98.028 165.4440
739.303619 98.047 165.4130
744.660918 98.062 165.3839
750.057038 98.072 165.3577
755.492260 98.077 165.3359
760.966869 98.076 165.3198
766.481148 98.071 165.3105
772.035387 98.061 165.3090
777.629873 98.048 165.3163
783.264900 98.031 165.3332
788.940760 98.011 165.3603
794.657750 97.986 165.3981
800.416168 97.957 165.4471
806.216313 97.923 165.5075
812.058489 97.884 165.5795
817.943000 97.838 165.6632
823.870152 97.785 165.7583
829.840255 97.725 165.8644
835.853619 97.659 165.9810
841.910559 97.588 166.1073
848.011390 97.514 166.2423
854.156430 97.438 166.3846
860.346000 97.363 166.5327
866.580422 97.291 166.6846
872.860020 97.226 166.8380
879.185124 97.170 166.9903
885.556062 97.125 167.1387
891.973166 97.093 167.2799
898.436771 97.074 167.4106
904.947215 97.068 167.5269
911.504835 97.076 167.6251
918.109975 97.094 167.7016
924.762978 97.122 167.7534
931.464192 97.157 167.7786
938.213966 97.196 167.7769
945.012651 97.236 167.7500
951.860602 97.274 167.7023
958.758176 97.308 167.6404
965.705733 97.335 167.5733
972.703635 97.356 167.5110
979.752246 97.368 167.4637
986.851935 97.374 167.4413
994.003071 97.372 167.4520
1001.206027 97.365 167.5026
1008.461179 97.355 167.5983
1015.768904 97.344 167.7432
1023.129584 97.334 167.9403
1030.543603 97.328 168.1920
1038.011347 97.329 168.5001
1045.533205 97.340 168.8652
1053.109569 97.363 169.2866
1060.740836 97.402 169.7610
1068.427401 97.458 170.2812
1076.169666 97.534 170.8347
1083.968035 97.630 171.4030
1091.822915 97.747 171.9608
1099.734713 97.882 172.4767
1107.703844 98.032 172.9167
1115.730723 98.191 173.2473
1123.815768 98.354 173.4415
1131.959400 98.514 173.4830
1140.162045 98.664 173.3699
1148.424129 98.798 173.1147
1156.746083 98.912 172.7413
1165.128342 99.004 172.2811
1173.571343 99.075 171.7675
1182.075524 99.125 171.2321
1190.641331 99.158 170.7015
1199.269209 99.176 170.1968
1207.959608 99.185 169.7324
1216.712981 99.187 169.3176
1225.529785 99.186 168.9568
1234.410479 99.185 168.6508
1243.355526 99.187 168.3978
1252.365393 99.194 168.1940
1261.440549 99.205 168.0349
1270.581467 99.223 167.9152
1279.788624 99.246 167.8297
1289.062500 99.276 167.7731
1298.403578 99.310 167.7410
1307.812346 99.348 167.7293
1317.289293 99.389 167.7346
1326.834914 99.432 167.7545
1336.449707 99.475 167.7868
1346.134173 99.519 167.8303
1355.888816 99.561 167.8839
1365.714145 99.603 167.9469
1375.610673 99.642 168.0186
1385.578915 99.679 168.0982
1395.619391 99.714 168.1848
1405.732624 99.747 168.2774
1415.919142 99.778 168.3746
1426.179476 99.807 168.4751
1436.514160 99.835 168.5773
1446.923734 99.861 168.6794
1457.408740 99.887 168.7797
1467.969724 99.912 168.8767
1478.607238 99.937 168.9686
1489.321836 99.961 169.0540
1500.114076 99.983 169.1315
1510.984521 100.004 169.2001
1521.933737 100.023 169.2591
1532.962297 100.039 169.3079
1544.070773 100.053 169.3463
1555.259747 100.063 169.3743
1566.529800 100.071 169.3923
1577.881521 100.075 169.4009
1589.315501 100.077 169.4008
1600.832336 100.076 169.3929
1612.432627 100.073 169.3783
1624.116978 100.069 169.3576
1635.886000 100.065 169.3316
1647.740304 100.059 169.3009
1659.680509 100.053 169.2659
1671.707238 100.047 169.2269
1683.821118 100.040 169.1840
1696.022780 100.033 169.1375
1708.312860 100.025 169.0875
1720.692000 100.016 169.0342
1733.160843 100.007 168.9778
1745.720041 99.998 168.9187
1758.370248 99.989 168.8572
1771.112124 99.980 168.7935
1783.946332 99.973 168.7282
1796.873543 99.967 168.6616
1809.894429 99.962 168.5939
1823.009670 99.959 168.5256
1836.219950 99.957 168.4569
1849.525956 99.955 168.3881
1862.928384 99.953 168.3195
1876.427931 99.950 168.2512
1890.025301 99.945 168.1835
1903.721204 99.938 168.1165
1917.516352 99.927 168.0505
1931.411466 99.913 167.9856
1945.407270 99.895 167.9218
1959.504493 99.873 167.8591
1973.703870 99.847 167.7978
1988.006142 99.818 167.7379
2002.412054 99.785 167.6799
2016.922357 99.750 167.6243
2031.537808 99.713 167.5717
2046.259169 99.675 167.5230
2061.087206 99.637 167.4792
2076.022694 99.600 167.4416
2091.066410 99.564 167.4112
2106.219139 99.530 167.3892
2121.481671 99.498 167.3769
2136.854802 99.470 167.3754
2152.339333 99.446 167.3858
2167.936071 99.427 167.4089
2183.645829 99.413 167.4454
2199.469427 99.404 167.4958
2215.407689 99.402 167.5600
2231.461446 99.407 167.6379
2247.631536 99.419 167.7290
2263.918800 99.438 167.8322
2280.324089 99.465 167.9467
2296.848258 99.500 168.0710
2313.492167 99.542 168.2041
2330.256685 99.591 168.3449
2347.142685 99.646 168.4929
2364.151049 99.707 168.6476
2381.282662 99.772 168.8091
2398.538418 99.841 168.9781
2415.919216 99.912 169.1553
2433.425962 99.985 169.3416
2451.059570 100.059 169.5382
2468.820958 100.133 169.7459
2486.711052 100.205 169.9654
2504.730786 100.276 170.1970
2522.881098 100.345 170.4406
2541.162934 100.412 170.6956
2559.577248 100.475 170.9609
2578.125000 100.534 171.2349
2596.807157 100.589 171.5160
2615.624692 100.640 171.8022
2634.578586 100.686 172.0918
2653.669829 100.727 172.3834
2672.899414 100.763 172.6761
2692.268345 100.793 172.9698
2711.777632 100.818 173.2648
2731.428290 100.837 173.5619
2751.221345 100.852 173.8619
2771.157829 100.861 174.1659
2791.238781 100.866 174.4741
2811.465248 100.868 174.7863
2831.838284 100.866 175.1016
2852.358952 100.862 175.4185
2873.028321 100.855 175.7348
2893.847468 100.847 176.0480
2914.817480 100.838 176.3555
2935.939449 100.827 176.6550
2957.214476 100.815 176.9442
2978.643672 100.803 177.2216
3000.228152 100.789 177.4858
3021.969041 100.775 177.7363
3043.867475 100.761 177.9727
3065.924593 100.746 178.1951
3088.141547 100.730 178.4040
3110.519493 100.714 178.6002
3133.059600 100.698 178.7847
3155.763041 100.682 178.9587
3178.631001 100.666 179.1235
3201.664672 100.650 179.2805
3224.865254 100.634 179.4314
3248.233957 100.618 179.5779
3271.771999 100.602 179.7220
3295.480608 100.588 179.8659
3319.361019 100.574 -179.9880
3343.414477 100.563 -179.8370
3367.642236 100.553 -179.6781
3392.045560 100.546 -179.5083
3416.625721 100.543 -179.3245
3441.383999 100.544 -179.1236
3466.321686 100.549 -178.9027
3491.440082 100.559 -178.6591
3516.740496 100.575 -178.3907
3542.224247 100.598 -178.0958
3567.892664 100.628 -177.7733
3593.747085 100.666 -177.4229
3619.788858 100.713 -177.0452
3646.019340 100.769 -176.6413
3672.439900 100.834 -176.2131
3699.051913 100.909 -175.7631
3725.856768 100.995 -175.2945
3752.855862 101.092 -174.8111
3780.050603 101.201 -174.3170
3807.442408 101.322 -173.8174
3835.032705 101.455 -173.3183
3862.822933 101.601 -172.8267
3890.814540 101.759 -172.3505
3919.008986 101.930 -171.8989
3947.407741 102.113 -171.4816
3976.012284 102.307 -171.1088
4004.824108 102.512 -170.7904
4033.844715 102.726 -170.5359
4063.075616 102.947 -170.3538
4092.518337 103.174 -170.2514
4122.174412 103.407 -170.2350
4152.045387 103.642 -170.3095
4182.132820 103.880 -170.4786
4212.438278 104.118 -170.7449
4242.963342 104.355 -171.1101
4273.709604 104.591 -171.5749
4304.678665 104.823 -172.1393
4335.872141 105.052 -172.8025
4367.291658 105.277 -173.5638
4398.938854 105.495 -174.4215
4430.815378 105.707 -175.3741
4462.922893 105.912 -176.4191
4495.263072 106.108 -177.5538
4527.837601 106.294 -178.7746
4560.648179 106.469 179.9228
4593.696515 106.633 178.5431
4626.984334 106.784 177.0917
4660.513370 106.920 175.5745
4694.285371 107.041 173.9978
4728.302098 107.146 172.3683
4762.565324 107.233 170.6938
4797.076835 107.301 168.9829
4831.838432 107.349 167.2452
4866.851925 107.376 165.4916
4902.119140 107.381 163.7343
4937.641916 107.364 161.9867
4973.422105 107.324 160.2630
5009.461572 107.261 158.5786
5045.762195 107.174 156.9494
5082.325868 107.065 155.3918
5119.154496 106.934 153.9223
5156.250000 106.781 152.5576
5193.614313 106.607 151.3141
5231.249383 106.415 150.2079
5269.157173 106.206 149.2536
5307.339658 105.981 148.4650
5345.798829 105.745 147.8535
5384.536691 105.498 147.4283
5423.555263 105.244 147.1951
5462.856580 104.988 147.1555
5502.442691 104.732 147.3065
5542.315659 104.481 147.6399
5582.477563 104.240 148.1417
5622.930497 104.012 148.7923
5663.676569 103.802 149.5671
5704.717904 103.615 150.4368
5746.056642 103.454 151.3684
5787.694937 103.322 152.3269
5829.634960 103.221 153.2761
5871.878898 103.153 154.1801
5914.428953 103.117 155.0044
5957.287343 103.112 155.7170
6000.456303 103.136 156.2892
6043.938083 103.185 156.6961
6087.734950 103.254 156.9171
6131.849187 103.340 156.9363
6176.283094 103.436 156.7424
6221.038987 103.536 156.3289
6266.119200 103.634 155.6942
6311.526083 103.726 154.8412
6357.262002 103.805 153.7775
6403.329344 103.866 152.5148
6449.730508 103.905 151.0689
6496.467914 103.917 149.4592
6543.543998 103.900 147.7086
6590.961215 103.849 145.8430
6638.722037 103.763 143.8912
6686.828954 103.640 141.8842
6735.284473 103.479 139.8552
6784.091120 103.280 137.8389
6833.251441 103.042 135.8719
6882.767998 102.766 133.9916
6932.643372 102.453 132.2365
6982.880164 102.106 130.6456
7033.480992 101.728 129.2582
7084.448495 101.321 128.1133
7135.785329 100.890 127.2483
7187.494171 100.442 126.6981
7239.577717 99.982 126.4928
7292.038681 99.518 126.6543
7344.879799 99.060 127.1924
7398.103826 98.618 128.0994
7451.713536 98.205 129.3446
7505.711724 97.832 130.8696
7560.101205 97.513 132.5862
7614.884815 97.256 134.3794
7670.065409 97.071 136.1155
7725.645865 96.959 137.6550
7781.629080 96.920 138.8663
7838.017972 96.946 139.6384
7894.815481 97.026 139.8872
7952.024569 97.145 139.5575
8009.648217 97.288 138.6203
8067.689429 97.437 137.0689
8126.151233 97.576 134.9138
8185.036674 97.689 132.1796
8244.348824 97.762 128.9033
8304.090774 97.782 125.1331
8364.265639 97.741 120.9284
8424.876556 97.630 116.3586
8485.926684 97.448 111.5000
8547.419207 97.198 106.4297
8609.357330 96.887 101.2139
8671.744282 96.529 95.8835
8734.583316 96.142 90.3461
8797.877707 95.747 83.5806
8861.630756 95.367 -91.1755
8925.845785 95.023 -101.2192
8990.526143 94.731 -106.3809
9055.675202 94.499 -110.8925
9121.296357 94.327 -115.0409
9187.393031 94.210 -118.8905
9253.968668 94.137 -122.4618
9321.026740 94.095 -125.7632
9388.570742 94.072 -128.7996
9456.604196 94.057 -131.5756
9525.130648 94.043 -134.0967
9594.153671 94.024 -136.3705
9663.676863 93.998 -138.4072
9733.703850 93.964 -140.2201
9804.238280 93.921 -141.8264
9875.283832 93.871 -143.2469
9946.844210 93.814 -144.5061
10018.923143 93.751 -145.6307
10091.524390 93.684 -146.6490
10164.651736 93.612 -147.5883
10238.308993 93.534 -148.4730
10312.500000 93.449 -149.3234
10387.228626 93.355 -150.1532
10462.498767 93.250 -150.9700
10538.314345 93.131 -151.7748
10614.679315 92.997 -152.5628
10691.597657 92.846 -153.3248
10769.073381 92.676 -154.0477
10847.110526 92.487 -154.7162
10925.713161 92.279 -155.3131
11004.885382 92.052 -155.8210
11084.631318 91.808 -156.2241
11164.955126 91.550 -156.5107
11245.860993 91.282 -156.6770
11327.353138 91.008 -156.7303
11409.435808 90.736 -156.6930
11492.113283 90.471 -156.6040
11575.389873 90.219 -156.5175
11659.269920 89.985 -156.4987
11743.757796 89.769 -156.6163
11828.857906 89.571 -156.9343
11914.574686 89.386 -157.5040
12000.912606 89.205 -158.3595
12087.876166 89.021 -159.5156
12175.469900 88.823 -160.9685
12263.698373 88.601 -162.6987
12352.566187 88.345 -164.6737
12442.077974 88.048 -166.8500
12532.238400 87.704 -169.1749
12623.052165 87.306 -171.5853
12714.524005 86.851 -174.0058
12806.658687 86.339 -176.3425
12899.461015 85.772 -178.4712
12992.935827 85.156 179.7864
13087.087996 84.500 178.7153
13181.922430 83.824 178.8311
13277.444074 83.153 -178.7913
13373.657907 82.526 -171.5432
13470.568945 81.988 -152.6646
13568.182241 81.587 -115.3730
13666.502883 81.360 -84.2773
13765.535996 81.325 -70.9022
13865.286744 81.468 -65.9124
13965.760328 81.755 -64.5413
14066.961984 82.140 -64.9835
14168.896989 82.580 -66.4780
14271.570658 83.038 -68.6629
14374.988342 83.489 -71.3485
14479.155433 83.913 -74.4260
14584.077362 84.298 -77.8267
14689.759598 84.637 -81.5019
14796.207652 84.923 -85.4131
14903.427072 85.155 -89.5271
15011.423448 85.333 -93.8148
15120.202410 85.457 -98.2511
15229.769630 85.531 -102.8167
15340.130819 85.557 -107.4996
15451.291730 85.540 -112.2952
15563.258160 85.480 -117.2045
15676.035944 85.378 -122.2308
15789.630962 85.233 -127.3748
15904.049137 85.040 -132.6290
16019.296433 84.794 -137.9739
16135.378859 84.488 -143.3749
16252.302465 84.117 -148.7827
16370.073348 83.677 -154.1346
16488.697648 83.163 -159.3566
16608.181548 82.575 -164.3664
16728.531278 81.912 -169.0754
16849.753112 81.177 -173.3925
16971.853368 80.374 -177.2296
17094.838414 79.505 179.4902
17218.714660 78.578 176.8185
17343.488565 77.599 174.7668
17469.166632 76.575 173.2936
17595.755415 75.514 172.3005
17723.261512 74.425 171.6475
17851.691571 73.314 171.1805
17981.052287 72.189 170.7653
18111.350404 71.056 170.3127
18242.592715 69.919 169.7871
18374.786062 68.785 169.1997
18507.937336 67.658 168.5928
18642.053479 66.546 168.0186
18777.141484 65.461 167.5190
18913.208391 64.417 167.1085
19050.261296 63.435 166.7652
19188.307342 62.540 166.4362
19327.353727 61.758 166.0581
19467.407699 61.109 165.5888
19608.476560 60.605 165.0352
19750.567664 60.243 164.4636
19893.688419 60.014 163.9829
20037.846286 59.904 163.7065
