* Measurement data measured by REW V5.31.3
* Source: EXCL: Headset (USB-C to 3.5mm Headphone Jack Adapter), MICROPHONE (Master Volume), 0, volume: 0.750
* Format: 256k Log Swept Sine, 1 sweep at -12.0 dBFS with no timing reference
* Dated: Apr 1, 2025 11:04:45 PM
* REW Settings:
*  C-weighting compensation: Off
*  Target level: 75.0 dB
* Note: ; 
* Measurement: Satyr 3 (Stock) L20
* Smoothing: 1/6 octave
* Frequency Step: 96 ppo
* Start Frequency: 20.0 Hz
*
* Freq(Hz) SPL(dB) Phase(degrees)
20.187378 81.468 -91.2982
20.333664 81.506 -91.3933
20.481010 81.556 -91.5196
20.629424 81.619 -91.6720
20.778913 81.692 -91.8460
20.929486 81.776 -92.0381
21.081150 81.868 -92.2457
21.233912 81.969 -92.4680
21.387782 82.075 -92.7051
21.542767 82.186 -92.9581
21.698874 82.301 -93.2282
21.856113 82.419 -93.5168
22.014492 82.537 -93.8247
22.174018 82.655 -94.1521
22.334700 82.771 -94.4983
22.496546 82.885 -94.8622
22.659566 82.995 -95.2416
22.823766 83.100 -95.6341
22.989157 83.201 -96.0368
23.155745 83.296 -96.4466
23.323542 83.385 -96.8604
23.492554 83.467 -97.2747
23.662790 83.543 -97.6862
23.834261 83.613 -98.0916
24.006973 83.675 -98.4874
24.180938 83.732 -98.8707
24.356163 83.783 -99.2390
24.532658 83.828 -99.5908
24.710431 83.870 -99.9257
24.889493 83.908 -100.2452
25.069853 83.944 -100.5524
25.251519 83.979 -100.8520
25.434502 84.014 -101.1506
25.618811 84.049 -101.4554
25.804456 84.085 -101.7743
25.991445 84.122 -102.1141
26.179790 84.159 -102.4807
26.369500 84.196 -102.8778
26.560584 84.233 -103.3065
26.753053 84.269 -103.7659
26.946917 84.304 -104.2526
27.142185 84.337 -104.7618
27.338869 84.370 -105.2879
27.536977 84.401 -105.8249
27.736522 84.433 -106.3677
27.937512 84.465 -106.9119
28.139959 84.498 -107.4546
28.343872 84.532 -107.9939
28.549264 84.569 -108.5292
28.756143 84.607 -109.0602
28.964522 84.648 -109.5872
29.174411 84.691 -110.1104
29.385821 84.736 -110.6299
29.598763 84.782 -111.1456
29.813248 84.829 -111.6571
30.029287 84.878 -112.1637
30.246891 84.928 -112.6649
30.466073 84.978 -113.1601
30.686842 85.030 -113.6487
30.909212 85.084 -114.1302
31.133193 85.139 -114.6044
31.358797 85.197 -115.0713
31.586035 85.257 -115.5314
31.814921 85.320 -115.9858
32.045465 85.386 -116.4363
32.277680 85.456 -116.8849
32.511577 85.529 -117.3343
32.747169 85.606 -117.7865
32.984469 85.686 -118.2432
33.223488 85.768 -118.7049
33.464239 85.853 -119.1711
33.706735 85.940 -119.6401
33.950987 86.028 -120.1095
34.197010 86.117 -120.5771
34.444816 86.207 -121.0408
34.694417 86.298 -121.4995
34.945827 86.389 -121.9531
35.199059 86.482 -122.4026
35.454126 86.574 -122.8489
35.711041 86.666 -123.2932
35.969818 86.757 -123.7359
36.230470 86.847 -124.1767
36.493011 86.935 -124.6145
36.757455 87.021 -125.0478
37.023814 87.106 -125.4748
37.292104 87.188 -125.8943
37.562338 87.269 -126.3053
37.834530 87.348 -126.7072
38.108695 87.427 -127.0999
38.384846 87.503 -127.4832
38.662999 87.579 -127.8574
38.943167 87.653 -128.2227
39.225365 87.726 -128.5802
39.509608 87.798 -128.9315
39.795911 87.869 -129.2792
40.084289 87.940 -129.6264
40.374756 88.009 -129.9765
40.667328 88.079 -130.3327
40.962020 88.147 -130.6974
41.258848 88.214 -131.0717
41.557827 88.280 -131.4560
41.858972 88.344 -131.8495
42.162299 88.406 -132.2510
42.467824 88.466 -132.6593
42.775564 88.524 -133.0737
43.085533 88.579 -133.4935
43.397749 88.632 -133.9185
43.712227 88.682 -134.3487
44.028983 88.729 -134.7838
44.348036 88.775 -135.2233
44.669400 88.818 -135.6660
44.993093 88.859 -136.1107
45.319131 88.900 -136.5553
45.647532 88.939 -136.9980
45.978313 88.977 -137.4369
46.311491 89.014 -137.8707
46.647083 89.051 -138.2995
46.985107 89.086 -138.7247
47.325581 89.121 -139.1492
47.668521 89.155 -139.5774
48.013947 89.187 -140.0137
48.361876 89.218 -140.4620
48.712326 89.249 -140.9241
49.065315 89.279 -141.3999
49.420863 89.307 -141.8873
49.778987 89.335 -142.3827
50.139706 89.362 -142.8825
50.503039 89.388 -143.3836
50.869005 89.412 -143.8841
51.237623 89.434 -144.3829
51.608912 89.453 -144.8795
51.982891 89.468 -145.3731
52.359580 89.480 -145.8633
52.739000 89.490 -146.3492
53.121168 89.497 -146.8302
53.506106 89.502 -147.3057
53.893833 89.507 -147.7756
54.284370 89.512 -148.2396
54.677737 89.517 -148.6979
55.073955 89.523 -149.1508
55.473043 89.529 -149.5992
55.875024 89.536 -150.0444
56.279917 89.545 -150.4880
56.687745 89.555 -150.9314
57.098527 89.568 -151.3752
57.512287 89.584 -151.8195
57.929045 89.602 -152.2635
58.348822 89.621 -152.7066
58.771642 89.642 -153.1478
59.197525 89.662 -153.5867
59.626495 89.680 -154.0227
60.058573 89.696 -154.4556
60.493782 89.709 -154.8852
60.932145 89.719 -155.3121
61.373685 89.729 -155.7375
61.818424 89.737 -156.1628
62.266386 89.747 -156.5894
62.717593 89.758 -157.0177
63.172071 89.771 -157.4474
63.629842 89.786 -157.8777
64.090930 89.803 -158.3078
64.555359 89.823 -158.7373
65.023154 89.844 -159.1660
65.494339 89.866 -159.5940
65.968938 89.890 -160.0211
66.446976 89.914 -160.4472
66.928478 89.939 -160.8719
67.413469 89.963 -161.2951
67.901975 89.986 -161.7165
68.394021 90.008 -162.1365
68.889632 90.028 -162.5550
69.388835 90.046 -162.9719
69.891655 90.062 -163.3868
70.398118 90.076 -163.7986
70.908252 90.088 -164.2061
71.422083 90.097 -164.6083
71.939636 90.104 -165.0042
72.460941 90.109 -165.3933
72.986023 90.112 -165.7753
73.514909 90.112 -166.1499
74.047629 90.110 -166.5170
74.584208 90.105 -166.8764
75.124676 90.098 -167.2286
75.669061 90.088 -167.5742
76.217390 90.076 -167.9145
76.769692 90.062 -168.2510
77.325997 90.046 -168.5853
77.886333 90.028 -168.9184
78.450730 90.009 -169.2512
79.019216 89.988 -169.5839
79.591822 89.967 -169.9162
80.168577 89.945 -170.2478
80.749512 89.923 -170.5777
81.334656 89.900 -170.9051
81.924040 89.876 -171.2290
82.517696 89.853 -171.5490
83.115653 89.829 -171.8647
83.717943 89.805 -172.1763
84.324598 89.780 -172.4847
84.935649 89.755 -172.7906
85.551128 89.730 -173.0951
86.171066 89.704 -173.3991
86.795497 89.678 -173.7032
87.424453 89.651 -174.0074
88.057967 89.623 -174.3116
88.696071 89.595 -174.6152
89.338800 89.567 -174.9176
89.986185 89.537 -175.2181
90.638262 89.508 -175.5159
91.295065 89.477 -175.8102
91.956626 89.447 -176.1004
92.622982 89.416 -176.3855
93.294166 89.385 -176.6649
93.970214 89.354 -176.9383
94.651161 89.324 -177.2060
95.337042 89.294 -177.4684
96.027894 89.264 -177.7265
96.723752 89.235 -177.9810
97.424652 89.207 -178.2326
98.130631 89.179 -178.4817
98.841726 89.152 -178.7282
99.557974 89.125 -178.9723
100.279412 89.100 -179.2135
101.006078 89.075 -179.4517
101.738010 89.051 -179.6861
102.475245 89.027 -179.9164
103.217823 89.004 179.8580
103.965782 88.982 179.6374
104.719161 88.961 179.4214
105.477999 88.940 179.2095
106.242336 88.919 179.0004
107.012212 88.899 178.7931
107.787666 88.880 178.5862
108.568740 88.862 178.3788
109.355474 88.844 178.1704
110.147909 88.828 177.9609
110.946086 88.812 177.7510
111.750047 88.797 177.5413
112.559834 88.783 177.3330
113.375489 88.770 177.1269
114.197055 88.757 176.9238
115.024574 88.745 176.7244
115.858089 88.732 176.5289
116.697645 88.720 176.3376
117.543284 88.707 176.1503
118.395051 88.693 175.9665
119.252990 88.679 175.7856
120.117147 88.665 175.6068
120.987565 88.649 175.4295
121.864291 88.632 175.2535
122.747370 88.614 175.0788
123.636848 88.595 174.9057
124.532771 88.574 174.7351
125.435187 88.552 174.5683
126.344142 88.528 174.4070
127.259684 88.503 174.2532
128.181860 88.476 174.1087
129.110718 88.448 173.9750
130.046308 88.419 173.8528
130.988677 88.388 173.7427
131.937875 88.355 173.6445
132.893951 88.322 173.5578
133.856956 88.288 173.4817
134.826938 88.253 173.4156
135.803950 88.219 173.3586
136.788041 88.184 173.3100
137.779264 88.151 173.2689
138.777669 88.118 173.2338
139.783309 88.085 173.2029
140.796237 88.053 173.1742
141.816504 88.021 173.1458
142.844165 87.989 173.1161
143.879273 87.956 173.0840
144.921881 87.923 173.0488
145.972045 87.890 173.0107
147.029819 87.855 172.9706
148.095257 87.820 172.9301
149.168417 87.784 172.8915
150.249353 87.746 172.8573
151.338121 87.708 172.8303
152.434780 87.668 172.8130
153.539385 87.628 172.8081
154.651995 87.587 172.8175
155.772667 87.546 172.8430
156.901460 87.506 172.8857
158.038432 87.466 172.9463
159.183644 87.428 173.0246
160.337154 87.392 173.1196
161.499023 87.358 173.2296
162.669312 87.327 173.3521
163.848081 87.299 173.4838
165.035392 87.275 173.6216
166.231306 87.255 173.7621
167.435887 87.238 173.9020
168.649196 87.225 174.0381
169.871298 87.216 174.1675
171.102255 87.210 174.2874
172.342133 87.207 174.3956
173.590995 87.208 174.4904
174.848907 87.210 174.5709
176.115934 87.214 174.6366
177.392143 87.218 174.6875
178.677599 87.224 174.7237
179.972371 87.229 174.7453
181.276525 87.235 174.7527
182.590129 87.239 174.7462
183.913252 87.243 174.7265
185.245964 87.245 174.6949
186.588332 87.245 174.6526
187.940428 87.244 174.6012
189.302322 87.242 174.5424
190.674085 87.237 174.4777
192.055788 87.232 174.4085
193.447503 87.224 174.3361
194.849303 87.216 174.2613
196.261262 87.206 174.1845
197.683452 87.195 174.1058
199.115948 87.184 174.0250
200.558824 87.172 173.9415
202.012156 87.159 173.8552
203.476019 87.145 173.7661
204.950490 87.130 173.6749
206.435646 87.115 173.5825
207.931564 87.099 173.4901
209.438322 87.082 173.3989
210.955998 87.065 173.3102
212.484672 87.047 173.2250
214.024424 87.030 173.1437
215.575333 87.012 173.0666
217.137481 86.996 172.9938
218.710948 86.981 172.9250
220.295818 86.966 172.8600
221.892172 86.953 172.7985
223.500094 86.940 172.7401
225.119668 86.928 172.6843
226.750978 86.917 172.6312
228.394109 86.907 172.5806
230.049147 86.898 172.5326
231.716178 86.889 172.4877
233.395289 86.882 172.4460
235.086567 86.875 172.4079
236.790102 86.869 172.3733
238.505980 86.865 172.3420
240.234293 86.860 172.3138
241.975130 86.857 172.2885
243.728581 86.854 172.2656
245.494739 86.852 172.2451
247.273695 86.851 172.2266
249.065542 86.850 172.2098
250.870374 86.850 172.1942
252.688284 86.851 172.1794
254.519367 86.852 172.1650
256.363720 86.853 172.1505
258.221437 86.854 172.1358
260.092616 86.855 172.1208
261.977354 86.856 172.1059
263.875750 86.857 172.0914
265.787903 86.858 172.0778
267.713911 86.859 172.0658
269.653877 86.859 172.0558
271.607900 86.860 172.0483
273.576083 86.860 172.0435
275.558528 86.861 172.0413
277.555338 86.861 172.0418
279.566619 86.862 172.0448
281.592474 86.864 172.0500
283.633009 86.866 172.0571
285.688331 86.869 172.0660
287.758546 86.872 172.0767
289.843763 86.877 172.0891
291.944090 86.883 172.1032
294.059638 86.890 172.1191
296.190515 86.897 172.1366
298.336833 86.905 172.1554
300.498705 86.914 172.1751
302.676243 86.922 172.1952
304.869559 86.932 172.2153
307.078770 86.941 172.2353
309.303989 86.951 172.2549
311.545334 86.961 172.2740
313.802919 86.972 172.2924
316.076865 86.982 172.3102
318.367288 86.993 172.3273
320.674309 87.004 172.3440
322.998047 87.014 172.3605
325.338624 87.025 172.3770
327.696162 87.035 172.3940
330.070783 87.044 172.4117
332.462612 87.054 172.4303
334.871773 87.062 172.4498
337.298392 87.070 172.4704
339.742595 87.077 172.4921
342.204510 87.084 172.5150
344.684265 87.090 172.5391
347.181989 87.095 172.5641
349.697813 87.099 172.5902
352.231868 87.102 172.6170
354.784285 87.105 172.6443
357.355198 87.106 172.6716
359.944741 87.106 172.6987
362.553049 87.105 172.7250
365.180258 87.103 172.7502
367.826505 87.101 172.7740
370.491927 87.098 172.7960
373.176665 87.095 172.8160
375.880856 87.092 172.8338
378.604644 87.089 172.8492
381.348169 87.085 172.8622
384.111575 87.082 172.8729
386.895006 87.078 172.8815
389.698607 87.074 172.8882
392.522524 87.070 172.8932
395.366904 87.064 172.8970
398.231895 87.059 172.9003
401.117648 87.052 172.9041
404.024312 87.043 172.9094
406.952038 87.033 172.9176
409.900981 87.022 172.9302
412.871292 87.009 172.9488
415.863128 86.994 172.9746
418.876643 86.978 173.0083
421.911996 86.961 173.0500
424.969344 86.943 173.0989
428.048847 86.925 173.1538
431.150666 86.906 173.2130
434.274961 86.886 173.2747
437.421897 86.866 173.3375
440.591636 86.846 173.4001
443.784345 86.825 173.4618
447.000189 86.804 173.5222
450.239337 86.783 173.5813
453.501956 86.761 173.6390
456.788219 86.739 173.6955
460.098294 86.718 173.7507
463.432356 86.696 173.8044
466.790578 86.675 173.8566
470.173135 86.655 173.9074
473.580203 86.635 173.9567
477.011961 86.616 174.0046
480.468586 86.598 174.0514
483.950259 86.582 174.0970
487.457163 86.566 174.1416
490.989478 86.551 174.1854
494.547390 86.537 174.2288
498.131084 86.525 174.2719
501.740748 86.513 174.3152
505.376568 86.504 174.3589
509.038735 86.495 174.4033
512.727439 86.489 174.4485
516.442874 86.485 174.4946
520.185232 86.482 174.5416
523.954708 86.482 174.5892
527.751500 86.484 174.6375
531.575805 86.488 174.6860
535.427822 86.495 174.7347
539.307753 86.504 174.7834
543.215800 86.516 174.8320
547.152165 86.530 174.8803
551.117055 86.547 174.9279
555.110677 86.566 174.9744
559.133237 86.586 175.0196
563.184947 86.609 175.0630
567.266018 86.634 175.1046
571.376661 86.660 175.1439
575.517092 86.687 175.1811
579.687526 86.715 175.2161
583.888181 86.744 175.2490
588.119275 86.774 175.2800
592.381030 86.803 175.3092
596.673667 86.833 175.3366
600.997410 86.862 175.3627
605.352485 86.891 175.3876
609.739119 86.920 175.4116
614.157540 86.947 175.4349
618.607979 86.974 175.4578
623.090667 87.000 175.4801
627.605839 87.026 175.5017
632.153730 87.051 175.5223
636.734576 87.075 175.5414
641.348617 87.100 175.5579
645.996094 87.124 175.5705
650.677248 87.148 175.5775
655.392323 87.172 175.5772
660.141566 87.195 175.5679
664.925224 87.217 175.5484
669.743546 87.239 175.5180
674.596784 87.259 175.4767
679.485191 87.278 175.4250
684.409020 87.295 175.3641
689.368530 87.310 175.2955
694.363979 87.323 175.2211
699.395626 87.333 175.1429
704.463736 87.342 175.0630
709.568570 87.348 174.9836
714.710396 87.353 174.9066
719.889483 87.356 174.8331
725.106099 87.357 174.7636
730.360516 87.358 174.6975
735.653010 87.358 174.6328
740.983855 87.358 174.5671
746.353329 87.357 174.4977
751.761713 87.356 174.4221
757.209288 87.355 174.3383
762.696339 87.352 174.2449
768.223151 87.349 174.1411
773.790013 87.344 174.0270
779.397214 87.338 173.9032
785.045047 87.330 173.7706
790.733808 87.321 173.6308
796.463791 87.311 173.4850
802.235296 87.299 173.3345
808.048623 87.287 173.1804
813.904077 87.274 173.0234
819.801961 87.261 172.8645
825.742584 87.247 172.7043
831.726255 87.234 172.5432
837.753287 87.221 172.3813
843.823992 87.209 172.2181
849.938689 87.197 172.0524
856.097695 87.186 171.8828
862.301332 87.176 171.7082
868.549922 87.167 171.5274
874.843793 87.158 171.3401
881.183272 87.150 171.1461
887.568689 87.142 170.9455
894.000378 87.134 170.7387
900.478673 87.126 170.5265
907.003913 87.119 170.3097
913.576437 87.111 170.0895
920.196588 87.104 169.8671
926.864712 87.097 169.6436
933.581156 87.091 169.4195
940.346270 87.085 169.1951
947.160407 87.081 168.9703
954.023921 87.077 168.7448
960.937172 87.075 168.5181
967.900519 87.074 168.2899
974.914325 87.075 168.0598
981.978956 87.077 167.8280
989.094780 87.080 167.5947
996.262169 87.085 167.3601
1003.481495 87.092 167.1246
1010.753136 87.100 166.8879
1018.077470 87.109 166.6496
1025.454879 87.121 166.4090
1032.885748 87.133 166.1652
1040.370463 87.146 165.9177
1047.909417 87.161 165.6663
1055.503000 87.175 165.4115
1063.151610 87.189 165.1544
1070.855645 87.203 164.8969
1078.615506 87.216 164.6409
1086.431599 87.229 164.3880
1094.304330 87.241 164.1393
1102.234110 87.253 163.8944
1110.221353 87.264 163.6520
1118.266475 87.275 163.4099
1126.369895 87.285 163.1657
1134.532035 87.295 162.9177
1142.753322 87.302 162.6656
1151.034184 87.307 162.4103
1159.375052 87.309 162.1545
1167.776361 87.308 161.9019
1176.238550 87.303 161.6570
1184.762060 87.296 161.4246
1193.347334 87.285 161.2093
1201.994821 87.273 161.0148
1210.704971 87.259 160.8433
1219.478238 87.244 160.6954
1228.315080 87.230 160.5701
1237.215957 87.216 160.4653
1246.181334 87.203 160.3786
1255.211678 87.192 160.3076
1264.307459 87.183 160.2503
1273.469152 87.176 160.2041
1282.697235 87.171 160.1654
1291.992188 87.168 160.1296
1301.354495 87.168 160.0918
1310.784647 87.170 160.0471
1320.283132 87.172 159.9919
1329.850448 87.175 159.9238
1339.487093 87.178 159.8428
1349.193569 87.178 159.7509
1358.970381 87.177 159.6521
1368.818041 87.173 159.5516
1378.737061 87.167 159.4544
1388.727958 87.160 159.3644
1398.791253 87.151 159.2849
1408.927471 87.140 159.2176
1419.137140 87.130 159.1635
1429.420793 87.119 159.1237
1439.778965 87.108 159.0997
1450.212197 87.096 159.0939
1460.721033 87.086 159.1088
1471.306019 87.076 159.1465
1481.967709 87.067 159.2080
1492.706658 87.059 159.2924
1503.523426 87.053 159.3978
1514.418576 87.048 159.5219
1525.392678 87.044 159.6633
1536.446302 87.041 159.8216
1547.580025 87.037 159.9970
1558.794428 87.033 160.1901
1570.090095 87.028 160.4010
1581.467615 87.023 160.6292
1592.927581 87.016 160.8743
1604.470591 87.008 161.1353
1616.097246 86.998 161.4117
1627.808153 86.987 161.7029
1639.603922 86.974 162.0087
1651.485168 86.960 162.3292
1663.452510 86.944 162.6644
1675.506573 86.928 163.0139
1687.647984 86.910 163.3775
1699.877377 86.892 163.7547
1712.195390 86.873 164.1452
1724.602663 86.854 164.5489
1737.099845 86.836 164.9657
1749.687587 86.819 165.3958
1762.366544 86.803 165.8386
1775.137379 86.789 166.2931
1788.000756 86.777 166.7574
1800.957346 86.768 167.2296
1814.007826 86.761 167.7068
1827.152874 86.757 168.1863
1840.393177 86.756 168.6650
1853.729425 86.758 169.1401
1867.162312 86.762 169.6083
1880.692540 86.770 170.0661
1894.320813 86.779 170.5085
1908.047843 86.791 170.9303
1921.874344 86.805 171.3260
1935.801038 86.819 171.6916
1949.828650 86.834 172.0251
1963.957912 86.847 172.3265
1978.189561 86.859 172.5976
1992.524338 86.869 172.8403
2006.962991 86.878 173.0564
2021.506272 86.884 173.2467
2036.154940 86.888 173.4122
2050.909758 86.890 173.5541
2065.771495 86.890 173.6735
2080.740927 86.888 173.7711
2095.818833 86.885 173.8470
2111.006001 86.880 173.9004
2126.303220 86.874 173.9313
2141.711290 86.866 173.9404
2157.231013 86.857 173.9290
2172.863198 86.846 173.8988
2188.608660 86.834 173.8508
2204.468221 86.821 173.7860
2220.442706 86.806 173.7059
2236.532950 86.789 173.6125
2252.739789 86.772 173.5080
2269.064070 86.753 173.3936
2285.506644 86.732 173.2704
2302.068367 86.711 173.1389
2318.750104 86.689 172.9999
2335.552723 86.666 172.8548
2352.477101 86.643 172.7051
2369.524119 86.619 172.5522
2386.694668 86.595 172.3968
2403.989641 86.571 172.2396
2421.409941 86.548 172.0809
2438.956476 86.526 171.9206
2456.630160 86.505 171.7576
2474.431915 86.487 171.5895
2492.362668 86.471 171.4130
2510.423356 86.457 171.2247
2528.614918 86.445 171.0211
2546.938304 86.435 170.7996
2565.394469 86.425 170.5585
2583.984375 86.414 170.2978
2602.708991 86.403 170.0193
2621.569293 86.388 169.7270
2640.566265 86.370 169.4267
2659.700897 86.348 169.1262
2678.974186 86.320 168.8348
2698.387137 86.287 168.5621
2717.940763 86.250 168.3183
2737.636082 86.207 168.1126
2757.474121 86.161 167.9536
2777.455915 86.112 167.8488
2797.582506 86.061 167.8037
2817.854942 86.009 167.8226
2838.274281 85.958 167.9074
2858.841586 85.908 168.0586
2879.557931 85.861 168.2751
2900.424394 85.817 168.5550
2921.442065 85.778 168.8959
2942.612039 85.743 169.2955
2963.935418 85.713 169.7516
2985.413316 85.688 170.2613
3007.046852 85.670 170.8207
3028.837153 85.658 171.4238
3050.785356 85.654 172.0622
3072.892604 85.657 172.7250
3095.160050 85.668 173.3990
3117.588856 85.686 174.0695
3140.180190 85.709 174.7215
3162.935230 85.738 175.3404
3185.855163 85.769 175.9139
3208.941182 85.800 176.4331
3232.194493 85.830 176.8939
3255.616307 85.854 177.2974
3279.207844 85.872 177.6508
3302.970336 85.880 177.9666
3326.905021 85.879 178.2621
3351.013146 85.866 178.5573
3375.295969 85.844 178.8727
3399.754755 85.815 179.2260
3424.390779 85.780 179.6296
3449.205326 85.745 -179.9111
3474.199690 85.713 -179.4000
3499.375173 85.688 -178.8501
3524.733088 85.674 -178.2823
3550.274757 85.672 -177.7242
3576.001511 85.686 -177.2057
3601.914692 85.713 -176.7571
3628.015651 85.754 -176.4045
3654.305748 85.804 -176.1682
3680.786354 85.862 -176.0602
3707.458849 85.922 -176.0842
3734.324624 85.981 -176.2358
3761.385080 86.036 -176.5037
3788.641627 86.083 -176.8718
3816.095686 86.121 -177.3207
3843.748688 86.148 -177.8295
3871.602076 86.163 -178.3775
3899.657300 86.165 -178.9451
3927.915825 86.157 -179.5144
3956.379122 86.137 179.9302
3985.048676 86.107 179.4022
4013.925981 86.069 178.9127
4043.012544 86.022 178.4712
4072.309879 85.969 178.0852
4101.819515 85.909 177.7611
4131.542990 85.845 177.5041
4161.481854 85.777 177.3179
4191.637667 85.705 177.2056
4222.012001 85.631 177.1688
4252.606441 85.556 177.2085
4283.422580 85.479 177.3249
4314.462026 85.402 177.5172
4345.726396 85.325 177.7839
4377.217321 85.249 178.1224
4408.936442 85.175 178.5291
4440.885413 85.103 178.9990
4473.065899 85.034 179.5262
4505.479579 84.968 -179.8961
4538.128141 84.906 -179.2750
4571.013288 84.848 -178.6174
4604.136735 84.794 -177.9302
4637.500207 84.744 -177.2197
4671.105446 84.699 -176.4914
4704.954201 84.659 -175.7501
4739.048239 84.624 -174.9998
4773.389336 84.594 -174.2437
4807.979283 84.570 -173.4842
4842.819883 84.551 -172.7228
4877.912952 84.538 -171.9602
4913.260320 84.532 -171.1964
4948.863830 84.533 -170.4306
4984.725337 84.541 -169.6616
5020.846712 84.557 -168.8876
5057.229836 84.582 -168.1069
5093.876609 84.617 -167.3176
5130.788938 84.663 -166.5183
5167.968750 84.720 -165.7081
5205.417982 84.791 -164.8868
5243.138586 84.877 -164.0558
5281.132530 84.978 -163.2180
5319.401793 85.096 -162.3782
5357.948371 85.232 -161.5435
5396.774274 85.387 -160.7231
5435.881525 85.562 -159.9284
5475.272163 85.755 -159.1732
5514.948243 85.968 -158.4728
5554.911831 86.199 -157.8443
5595.165012 86.446 -157.3049
5635.709884 86.708 -156.8719
5676.548561 86.982 -156.5605
5717.683172 87.264 -156.3837
5759.115861 87.552 -156.3513
5800.848789 87.842 -156.4698
5842.884130 88.131 -156.7422
5885.224077 88.416 -157.1684
5927.870837 88.693 -157.7455
5970.826633 88.960 -158.4675
6014.093704 89.213 -159.3261
6057.674306 89.451 -160.3102
6101.570711 89.671 -161.4066
6145.785208 89.872 -162.6002
6190.320101 90.053 -163.8745
6235.177712 90.212 -165.2121
6280.360380 90.351 -166.5952
6325.870460 90.469 -168.0060
6371.710325 90.568 -169.4280
6417.882365 90.649 -170.8469
6464.388986 90.717 -172.2515
6511.232613 90.772 -173.6354
6558.415689 90.820 -174.9971
6605.940673 90.864 -176.3416
6653.810042 90.906 -177.6802
6702.026292 90.951 -179.0303
6750.591937 91.000 179.5855
6799.509509 91.054 178.1409
6848.781558 91.113 176.6081
6898.410653 91.176 174.9608
6948.399380 91.238 173.1755
6998.750346 91.297 171.2345
7049.466176 91.347 169.1262
7100.549514 91.384 166.8458
7152.003023 91.402 164.3956
7203.829385 91.397 161.7838
7256.031302 91.365 159.0240
7308.611496 91.300 156.1336
7361.572708 91.202 153.1333
7414.917698 91.065 150.0459
7468.649249 90.890 146.8955
7522.770160 90.673 143.7068
7577.283253 90.415 140.5044
7632.191371 90.116 137.3112
7687.497376 89.776 134.1475
7743.204151 89.397 131.0287
7799.314600 88.982 127.9643
7855.831649 88.534 124.9557
7912.758244 88.056 121.9958
7970.097352 87.553 119.0684
8027.851962 87.027 116.1481
8086.025087 86.484 113.2020
8144.619758 85.925 110.1896
8203.639030 85.354 107.0639
8263.085980 84.774 103.7706
8322.963708 84.186 100.2464
8383.275334 83.592 96.4150
8444.024002 82.995 92.1802
8505.212881 82.400 87.4141
8566.845160 81.809 81.9357
8628.924051 81.231 75.4731
8691.452792 80.676 67.5987
8754.434642 80.157 57.6233
8817.872884 79.692 44.4858
8881.770826 79.300 26.9158
8946.131799 79.002 4.7473
9010.959157 78.815 -18.8600
9076.256282 78.748 -39.2479
9142.026576 78.802 -54.7996
9208.273470 78.967 -66.4360
9275.000415 79.225 -75.4395
9342.210891 79.553 -82.7444
9409.908403 79.929 -88.9530
9478.096478 80.330 -94.4514
9546.778672 80.736 -99.4940
9615.958566 81.130 -104.2531
9685.639765 81.497 -108.8452
9755.825904 81.824 -113.3464
9826.520640 82.101 -117.8004
9897.727659 82.318 -122.2231
9969.450674 82.468 -126.6080
10041.693423 82.547 -130.9293
10114.459673 82.551 -135.1477
10187.753217 82.482 -139.2157
10261.577877 82.342 -143.0829
10335.937500 82.135 -146.6997
10410.835964 81.867 -150.0208
10486.277173 81.546 -153.0081
10562.265060 81.182 -155.6337
10638.803587 80.786 -157.8833
10715.896743 80.370 -159.7614
10793.548548 79.948 -161.2958
10871.763050 79.535 -162.5411
10950.544327 79.141 -163.5770
11029.896485 78.775 -164.4990
11109.823662 78.442 -165.4050
11190.330024 78.138 -166.3771
11271.419768 77.853 -167.4675
11353.097122 77.576 -168.6902
11435.366344 77.292 -170.0205
11518.231722 76.988 -171.4008
11601.697577 76.656 -172.7501
11685.768261 76.290 -173.9755
11770.448155 75.894 -174.9838
11855.741674 75.474 -175.6927
11941.653265 75.043 -176.0435
12028.187408 74.621 -176.0150
12115.348612 74.231 -175.6403
12203.141422 73.900 -175.0192
12291.570415 73.650 -174.3209
12380.640201 73.497 -173.7654
12470.355424 73.446 -173.5880
12560.720760 73.483 -173.9966
12651.740920 73.586 -175.1402
12743.420650 73.728 -177.0977
12835.764729 73.877 -179.8865
12928.777972 74.010 176.5199
13022.465227 74.108 172.1716
13116.831378 74.159 167.1237
13211.881345 74.159 161.4193
13307.620084 74.108 155.0716
13404.052584 74.013 148.0420
13501.183875 73.887 140.1992
13599.019019 73.743 131.2359
13697.563116 73.597 120.4591
13796.821305 73.464 106.1738
13896.798760 73.354 83.6843
13997.500692 73.277 42.1404
14098.932352 73.232 -8.6081
14201.099028 73.219 -38.9204
14304.006046 73.228 -56.7208
14407.658770 73.250 -69.6112
14512.062604 73.271 -80.3071
14617.222992 73.280 -89.8588
14723.145416 73.265 -98.7302
14829.835397 73.216 -107.1451
14937.298497 73.123 -115.2148
15045.540320 72.981 -122.9899
15154.566507 72.782 -130.4844
15264.382743 72.523 -137.6886
15374.994752 72.203 -144.5786
15486.408302 71.823 -151.1292
15598.629201 71.390 -157.3286
15711.663298 70.917 -163.1962
15825.516487 70.417 -168.7916
15940.194703 69.907 -174.2146
16055.703925 69.401 -179.5869
16172.050174 68.906 174.9751
16289.239516 68.421 169.3856
16407.278061 67.939 163.6047
16526.171961 67.449 157.6379
16645.927415 66.937 151.5265
16766.550667 66.390 145.3340
16888.048005 65.798 139.1370
17010.425762 65.155 133.0173
17133.690320 64.455 127.0569
17257.848103 63.697 121.3308
17382.905584 62.882 115.9019
17508.869284 62.016 110.8115
17635.745768 61.104 106.0723
17763.541652 60.158 101.6580
17892.263597 59.194 97.4930
18021.918315 58.230 93.4465
18152.512564 57.293 89.3323
18284.053153 56.415 84.9204
18416.546939 55.630 79.9570
18550.000830 54.971 74.1851
18684.421783 54.459 67.3645
18819.816805 54.103 59.2979
18956.192956 53.892 49.8767
19093.557344 53.800 39.1769
19231.917131 53.796 27.5916
19371.279531 53.844 15.9055
19511.651807 53.916 5.1642
19653.041280 53.987 -3.6385
19795.455318 54.042 -9.8051
19938.901348 54.071 -12.9613
