* Measurement data measured by REW V5.31.3
* Source: EXCL: Headset (USB-C to 3.5mm Headphone Jack Adapter), MICROPHONE (Master Volume), 0, volume: 0.750
* Format: 256k Log Swept Sine, 1 sweep at -12.0 dBFS with no timing reference
* Dated: Apr 1, 2025 10:30:58 PM
* REW Settings:
*  C-weighting compensation: Off
*  Target level: 75.0 dB
* Note: ; 
* Measurement: Satyr 3 (Massive Mod) L6
* Smoothing: 1/6 octave
* Frequency Step: 96 ppo
* Start Frequency: 20.0 Hz
*
* Freq(Hz) SPL(dB) Phase(degrees)
20.187378 87.488 -108.5529
20.333664 87.515 -108.6345
20.481010 87.552 -108.7456
20.629424 87.597 -108.8854
20.778913 87.650 -109.0532
20.929486 87.709 -109.2481
21.081150 87.774 -109.4695
21.233912 87.843 -109.7161
21.387782 87.915 -109.9865
21.542767 87.990 -110.2786
21.698874 88.067 -110.5898
21.856113 88.145 -110.9173
22.014492 88.223 -111.2577
22.174018 88.302 -111.6082
22.334700 88.381 -111.9661
22.496546 88.461 -112.3296
22.659566 88.540 -112.6976
22.823766 88.619 -113.0703
22.989157 88.697 -113.4485
23.155745 88.775 -113.8336
23.323542 88.851 -114.2274
23.492554 88.924 -114.6315
23.662790 88.994 -115.0468
23.834261 89.060 -115.4734
24.006973 89.122 -115.9102
24.180938 89.177 -116.3550
24.356163 89.227 -116.8050
24.532658 89.271 -117.2566
24.710431 89.309 -117.7064
24.889493 89.341 -118.1514
25.069853 89.370 -118.5896
25.251519 89.395 -119.0206
25.434502 89.417 -119.4453
25.618811 89.439 -119.8663
25.804456 89.461 -120.2875
25.991445 89.484 -120.7135
26.179790 89.509 -121.1491
26.369500 89.535 -121.5987
26.560584 89.564 -122.0657
26.753053 89.594 -122.5515
26.946917 89.625 -123.0562
27.142185 89.658 -123.5777
27.338869 89.690 -124.1124
27.536977 89.722 -124.6553
27.736522 89.753 -125.2009
27.937512 89.784 -125.7434
28.139959 89.813 -126.2772
28.343872 89.840 -126.7977
28.549264 89.867 -127.3013
28.756143 89.892 -127.7855
28.964522 89.916 -128.2492
29.174411 89.938 -128.6924
29.385821 89.960 -129.1159
29.598763 89.982 -129.5217
29.813248 90.003 -129.9121
30.029287 90.024 -130.2900
30.246891 90.047 -130.6585
30.466073 90.070 -131.0210
30.686842 90.096 -131.3809
30.909212 90.125 -131.7417
31.133193 90.157 -132.1065
31.358797 90.193 -132.4782
31.586035 90.232 -132.8591
31.814921 90.276 -133.2507
32.045465 90.323 -133.6535
32.277680 90.374 -134.0670
32.511577 90.428 -134.4899
32.747169 90.484 -134.9196
32.984469 90.542 -135.3532
33.223488 90.601 -135.7876
33.464239 90.660 -136.2197
33.706735 90.720 -136.6470
33.950987 90.780 -137.0681
34.197010 90.840 -137.4825
34.444816 90.900 -137.8907
34.694417 90.961 -138.2939
34.945827 91.022 -138.6938
35.199059 91.084 -139.0917
35.454126 91.147 -139.4884
35.711041 91.210 -139.8837
35.969818 91.273 -140.2764
36.230470 91.337 -140.6644
36.493011 91.402 -141.0448
36.757455 91.468 -141.4149
37.023814 91.535 -141.7720
37.292104 91.603 -142.1144
37.562338 91.672 -142.4409
37.834530 91.741 -142.7516
38.108695 91.810 -143.0474
38.384846 91.879 -143.3298
38.662999 91.947 -143.6012
38.943167 92.013 -143.8641
39.225365 92.078 -144.1220
39.509608 92.140 -144.3784
39.795911 92.200 -144.6373
40.084289 92.258 -144.9027
40.374756 92.313 -145.1779
40.667328 92.367 -145.4658
40.962020 92.418 -145.7676
41.258848 92.468 -146.0833
41.557827 92.517 -146.4116
41.858972 92.565 -146.7501
42.162299 92.613 -147.0961
42.467824 92.662 -147.4474
42.775564 92.710 -147.8022
43.085533 92.759 -148.1598
43.397749 92.808 -148.5201
43.712227 92.857 -148.8834
44.028983 92.904 -149.2498
44.348036 92.949 -149.6192
44.669400 92.992 -149.9909
44.993093 93.033 -150.3640
45.319131 93.070 -150.7382
45.647532 93.105 -151.1131
45.978313 93.137 -151.4894
46.311491 93.167 -151.8681
46.647083 93.196 -152.2506
46.985107 93.223 -152.6387
47.325581 93.249 -153.0342
47.668521 93.274 -153.4391
48.013947 93.298 -153.8551
48.361876 93.320 -154.2832
48.712326 93.341 -154.7237
49.065315 93.360 -155.1756
49.420863 93.377 -155.6368
49.778987 93.392 -156.1044
50.139706 93.404 -156.5749
50.503039 93.414 -157.0451
50.869005 93.422 -157.5125
51.237623 93.427 -157.9756
51.608912 93.430 -158.4339
51.982891 93.432 -158.8878
52.359580 93.432 -159.3385
52.739000 93.431 -159.7868
53.121168 93.429 -160.2336
53.506106 93.426 -160.6791
53.893833 93.423 -161.1228
54.284370 93.420 -161.5641
54.677737 93.416 -162.0022
55.073955 93.413 -162.4369
55.473043 93.411 -162.8685
55.875024 93.410 -163.2977
56.279917 93.410 -163.7255
56.687745 93.411 -164.1529
57.098527 93.415 -164.5801
57.512287 93.422 -165.0069
57.929045 93.430 -165.4329
58.348822 93.440 -165.8569
58.771642 93.451 -166.2781
59.197525 93.462 -166.6953
59.626495 93.472 -167.1077
60.058573 93.481 -167.5147
60.493782 93.488 -167.9163
60.932145 93.493 -168.3134
61.373685 93.497 -168.7074
61.818424 93.502 -169.0999
62.266386 93.507 -169.4921
62.717593 93.513 -169.8845
63.172071 93.522 -170.2768
63.629842 93.533 -170.6684
64.090930 93.545 -171.0586
64.555359 93.560 -171.4470
65.023154 93.576 -171.8332
65.494339 93.593 -172.2173
65.968938 93.611 -172.5992
66.446976 93.629 -172.9788
66.928478 93.648 -173.3561
67.413469 93.666 -173.7311
67.901975 93.683 -174.1039
68.394021 93.699 -174.4746
68.889632 93.713 -174.8435
69.388835 93.725 -175.2106
69.891655 93.735 -175.5759
70.398118 93.743 -175.9393
70.908252 93.749 -176.3005
71.422083 93.752 -176.6595
71.939636 93.752 -177.0158
72.460941 93.750 -177.3694
72.986023 93.744 -177.7199
73.514909 93.737 -178.0671
74.047629 93.726 -178.4106
74.584208 93.713 -178.7504
75.124676 93.697 -179.0864
75.669061 93.678 -179.4187
76.217390 93.657 -179.7473
76.769692 93.634 179.9278
77.325997 93.609 179.6066
77.886333 93.583 179.2895
78.450730 93.555 178.9763
79.019216 93.526 178.6672
79.591822 93.496 178.3621
80.168577 93.465 178.0608
80.749512 93.434 177.7632
81.334656 93.402 177.4691
81.924040 93.369 177.1782
82.517696 93.336 176.8902
83.115653 93.302 176.6050
83.717943 93.268 176.3221
84.324598 93.234 176.0416
84.935649 93.199 175.7632
85.551128 93.163 175.4869
86.171066 93.128 175.2126
86.795497 93.092 174.9407
87.424453 93.056 174.6712
88.057967 93.021 174.4045
88.696071 92.985 174.1410
89.338800 92.949 173.8810
89.986185 92.912 173.6246
90.638262 92.876 173.3717
91.295065 92.840 173.1223
91.956626 92.804 172.8760
92.622982 92.768 172.6327
93.294166 92.733 172.3926
93.970214 92.697 172.1560
94.651161 92.661 171.9234
95.337042 92.625 171.6953
96.027894 92.590 171.4720
96.723752 92.554 171.2535
97.424652 92.519 171.0398
98.130631 92.484 170.8307
98.841726 92.449 170.6263
99.557974 92.414 170.4262
100.279412 92.380 170.2304
101.006078 92.347 170.0386
101.738010 92.315 169.8506
102.475245 92.283 169.6663
103.217823 92.253 169.4851
103.965782 92.224 169.3065
104.719161 92.197 169.1296
105.477999 92.171 168.9535
106.242336 92.147 168.7772
107.012212 92.123 168.6001
107.787666 92.101 168.4219
108.568740 92.080 168.2428
109.355474 92.059 168.0635
110.147909 92.039 167.8850
110.946086 92.020 167.7086
111.750047 92.001 167.5355
112.559834 91.983 167.3663
113.375489 91.966 167.2011
114.197055 91.948 167.0395
115.024574 91.931 166.8809
115.858089 91.913 166.7244
116.697645 91.896 166.5696
117.543284 91.879 166.4160
118.395051 91.861 166.2632
119.252990 91.844 166.1107
120.117147 91.826 165.9586
120.987565 91.808 165.8068
121.864291 91.790 165.6557
122.747370 91.771 165.5055
123.636848 91.751 165.3565
124.532771 91.731 165.2090
125.435187 91.710 165.0626
126.344142 91.687 164.9172
127.259684 91.663 164.7722
128.181860 91.638 164.6272
129.110718 91.610 164.4821
130.046308 91.582 164.3371
130.988677 91.551 164.1934
131.937875 91.519 164.0521
132.893951 91.485 163.9150
133.856956 91.449 163.7845
134.826938 91.412 163.6627
135.803950 91.374 163.5519
136.788041 91.334 163.4540
137.779264 91.293 163.3701
138.777669 91.251 163.3005
139.783309 91.209 163.2453
140.796237 91.165 163.2036
141.816504 91.122 163.1741
142.844165 91.079 163.1546
143.879273 91.037 163.1425
144.921881 90.994 163.1352
145.972045 90.953 163.1298
147.029819 90.912 163.1242
148.095257 90.871 163.1166
149.168417 90.831 163.1060
150.249353 90.790 163.0918
151.338121 90.749 163.0742
152.434780 90.708 163.0541
153.539385 90.666 163.0330
154.651995 90.623 163.0125
155.772667 90.580 162.9945
156.901460 90.535 162.9810
158.038432 90.491 162.9738
159.183644 90.446 162.9743
160.337154 90.401 162.9843
161.499023 90.356 163.0052
162.669312 90.312 163.0383
163.848081 90.268 163.0848
165.035392 90.226 163.1457
166.231306 90.185 163.2217
167.435887 90.146 163.3132
168.649196 90.109 163.4199
169.871298 90.074 163.5409
171.102255 90.042 163.6745
172.342133 90.013 163.8186
173.590995 89.987 163.9706
174.848907 89.963 164.1277
176.115934 89.942 164.2866
177.392143 89.924 164.4442
178.677599 89.908 164.5975
179.972371 89.894 164.7436
181.276525 89.882 164.8800
182.590129 89.873 165.0044
183.913252 89.864 165.1146
185.245964 89.858 165.2091
186.588332 89.852 165.2865
187.940428 89.846 165.3461
189.302322 89.841 165.3875
190.674085 89.836 165.4109
192.055788 89.831 165.4171
193.447503 89.825 165.4070
194.849303 89.819 165.3824
196.261262 89.813 165.3451
197.683452 89.806 165.2973
199.115948 89.797 165.2416
200.558824 89.788 165.1802
202.012156 89.776 165.1153
203.476019 89.762 165.0483
204.950490 89.747 164.9804
206.435646 89.730 164.9122
207.931564 89.711 164.8438
209.438322 89.691 164.7756
210.955998 89.670 164.7080
212.484672 89.649 164.6418
214.024424 89.628 164.5780
215.575333 89.606 164.5173
217.137481 89.585 164.4606
218.710948 89.564 164.4083
220.295818 89.544 164.3608
221.892172 89.523 164.3179
223.500094 89.504 164.2795
225.119668 89.485 164.2448
226.750978 89.467 164.2134
228.394109 89.451 164.1846
230.049147 89.435 164.1583
231.716178 89.420 164.1343
233.395289 89.406 164.1129
235.086567 89.394 164.0944
236.790102 89.382 164.0790
238.505980 89.371 164.0669
240.234293 89.362 164.0584
241.975130 89.353 164.0536
243.728581 89.344 164.0526
245.494739 89.337 164.0553
247.273695 89.330 164.0615
249.065542 89.323 164.0707
250.870374 89.317 164.0822
252.688284 89.311 164.0952
254.519367 89.306 164.1089
256.363720 89.300 164.1228
258.221437 89.295 164.1364
260.092616 89.290 164.1494
261.977354 89.284 164.1617
263.875750 89.279 164.1739
265.787903 89.274 164.1865
267.713911 89.268 164.2002
269.653877 89.263 164.2159
271.607900 89.259 164.2339
273.576083 89.255 164.2547
275.558528 89.251 164.2784
277.555338 89.248 164.3055
279.566619 89.245 164.3362
281.592474 89.243 164.3701
283.633009 89.242 164.4071
285.688331 89.240 164.4464
287.758546 89.240 164.4873
289.843763 89.240 164.5293
291.944090 89.241 164.5719
294.059638 89.242 164.6149
296.190515 89.245 164.6585
298.336833 89.248 164.7031
300.498705 89.252 164.7493
302.676243 89.257 164.7975
304.869559 89.263 164.8484
307.078770 89.269 164.9022
309.303989 89.276 164.9589
311.545334 89.283 165.0179
313.802919 89.291 165.0788
316.076865 89.299 165.1404
318.367288 89.308 165.2019
320.674309 89.317 165.2622
322.998047 89.327 165.3203
325.338624 89.336 165.3756
327.696162 89.346 165.4275
330.070783 89.355 165.4758
332.462612 89.364 165.5204
334.871773 89.373 165.5615
337.298392 89.381 165.5996
339.742595 89.388 165.6350
342.204510 89.394 165.6683
344.684265 89.399 165.6999
347.181989 89.403 165.7302
349.697813 89.406 165.7596
352.231868 89.407 165.7885
354.784285 89.407 165.8169
357.355198 89.406 165.8450
359.944741 89.404 165.8728
362.553049 89.401 165.9005
365.180258 89.396 165.9280
367.826505 89.391 165.9553
370.491927 89.386 165.9822
373.176665 89.380 166.0088
375.880856 89.373 166.0350
378.604644 89.367 166.0610
381.348169 89.360 166.0872
384.111575 89.353 166.1137
386.895006 89.346 166.1407
389.698607 89.339 166.1682
392.522524 89.332 166.1962
395.366904 89.324 166.2244
398.231895 89.315 166.2525
401.117648 89.306 166.2802
404.024312 89.296 166.3073
406.952038 89.285 166.3337
409.900981 89.273 166.3594
412.871292 89.259 166.3846
415.863128 89.245 166.4097
418.876643 89.229 166.4348
421.911996 89.211 166.4604
424.969344 89.192 166.4868
428.048847 89.172 166.5143
431.150666 89.150 166.5433
434.274961 89.127 166.5739
437.421897 89.103 166.6063
440.591636 89.079 166.6404
443.784345 89.053 166.6764
447.000189 89.026 166.7140
450.239337 88.999 166.7533
453.501956 88.971 166.7941
456.788219 88.943 166.8365
460.098294 88.915 166.8801
463.432356 88.886 166.9248
466.790578 88.858 166.9701
470.173135 88.830 167.0156
473.580203 88.803 167.0611
477.011961 88.776 167.1063
480.468586 88.750 167.1511
483.950259 88.726 167.1953
487.457163 88.702 167.2392
490.989478 88.680 167.2829
494.547390 88.659 167.3268
498.131084 88.639 167.3716
501.740748 88.621 167.4178
505.376568 88.604 167.4659
509.038735 88.589 167.5161
512.727439 88.576 167.5681
516.442874 88.565 167.6216
520.185232 88.556 167.6755
523.954708 88.549 167.7293
527.751500 88.544 167.7823
531.575805 88.541 167.8344
535.427822 88.541 167.8855
539.307753 88.542 167.9363
543.215800 88.546 167.9874
547.152165 88.553 168.0394
551.117055 88.562 168.0928
555.110677 88.573 168.1477
559.133237 88.587 168.2040
563.184947 88.603 168.2614
567.266018 88.621 168.3195
571.376661 88.641 168.3776
575.517092 88.662 168.4350
579.687526 88.685 168.4909
583.888181 88.708 168.5447
588.119275 88.732 168.5958
592.381030 88.757 168.6441
596.673667 88.782 168.6895
600.997410 88.806 168.7321
605.352485 88.831 168.7719
609.739119 88.855 168.8088
614.157540 88.879 168.8425
618.607979 88.902 168.8730
623.090667 88.924 168.8998
627.605839 88.946 168.9227
632.153730 88.967 168.9410
636.734576 88.987 168.9542
641.348617 89.006 168.9617
645.996094 89.023 168.9630
650.677248 89.040 168.9576
655.392323 89.055 168.9452
660.141566 89.069 168.9259
664.925224 89.081 168.9002
669.743546 89.092 168.8687
674.596784 89.101 168.8324
679.485191 89.109 168.7922
684.409020 89.115 168.7492
689.368530 89.120 168.7041
694.363979 89.124 168.6576
699.395626 89.126 168.6101
704.463736 89.127 168.5620
709.568570 89.126 168.5131
714.710396 89.125 168.4636
719.889483 89.122 168.4132
725.106099 89.118 168.3618
730.360516 89.113 168.3088
735.653010 89.108 168.2536
740.983855 89.101 168.1954
746.353329 89.093 168.1335
751.761713 89.083 168.0676
757.209288 89.073 167.9975
762.696339 89.061 167.9237
768.223151 89.048 167.8464
773.790013 89.034 167.7655
779.397214 89.019 167.6807
785.045047 89.003 167.5914
790.733808 88.987 167.4971
796.463791 88.970 167.3973
802.235296 88.953 167.2919
808.048623 88.935 167.1807
813.904077 88.917 167.0640
819.801961 88.899 166.9420
825.742584 88.882 166.8149
831.726255 88.864 166.6831
837.753287 88.847 166.5464
843.823992 88.830 166.4048
849.938689 88.814 166.2584
856.097695 88.798 166.1074
862.301332 88.782 165.9519
868.549922 88.767 165.7916
874.843793 88.753 165.6261
881.183272 88.740 165.4543
887.568689 88.727 165.2754
894.000378 88.714 165.0884
900.478673 88.702 164.8929
907.003913 88.689 164.6893
913.576437 88.677 164.4787
920.196588 88.664 164.2629
926.864712 88.651 164.0442
933.581156 88.638 163.8248
940.346270 88.625 163.6068
947.160407 88.612 163.3912
954.023921 88.600 163.1786
960.937172 88.590 162.9687
967.900519 88.581 162.7606
974.914325 88.574 162.5531
981.978956 88.569 162.3445
989.094780 88.565 162.1336
996.262169 88.564 161.9190
1003.481495 88.564 161.7003
1010.753136 88.565 161.4777
1018.077470 88.568 161.2519
1025.454879 88.571 161.0243
1032.885748 88.574 160.7963
1040.370463 88.579 160.5687
1047.909417 88.583 160.3422
1055.503000 88.588 160.1164
1063.151610 88.594 159.8907
1070.855645 88.600 159.6646
1078.615506 88.605 159.4377
1086.431599 88.610 159.2101
1094.304330 88.614 158.9826
1102.234110 88.616 158.7563
1110.221353 88.618 158.5330
1118.266475 88.618 158.3143
1126.369895 88.616 158.1016
1134.532035 88.612 157.8956
1142.753322 88.607 157.6963
1151.034184 88.601 157.5033
1159.375052 88.593 157.3162
1167.776361 88.583 157.1351
1176.238550 88.571 156.9609
1184.762060 88.557 156.7956
1193.347334 88.542 156.6417
1201.994821 88.524 156.5018
1210.704971 88.505 156.3780
1219.478238 88.486 156.2711
1228.315080 88.466 156.1805
1237.215957 88.447 156.1044
1246.181334 88.428 156.0402
1255.211678 88.410 155.9852
1264.307459 88.392 155.9375
1273.469152 88.374 155.8967
1282.697235 88.355 155.8632
1291.992188 88.337 155.8384
1301.354495 88.318 155.8237
1310.784647 88.299 155.8199
1320.283132 88.280 155.8271
1329.850448 88.261 155.8452
1339.487093 88.242 155.8734
1349.193569 88.223 155.9119
1358.970381 88.204 155.9609
1368.818041 88.186 156.0208
1378.737061 88.168 156.0916
1388.727958 88.151 156.1729
1398.791253 88.135 156.2641
1408.927471 88.120 156.3651
1419.137140 88.106 156.4765
1429.420793 88.093 156.5998
1439.778965 88.082 156.7368
1450.212197 88.071 156.8898
1460.721033 88.062 157.0606
1471.306019 88.055 157.2508
1481.967709 88.049 157.4605
1492.706658 88.046 157.6889
1503.523426 88.046 157.9337
1514.418576 88.046 158.1929
1525.392678 88.048 158.4652
1536.446302 88.051 158.7513
1547.580025 88.053 159.0539
1558.794428 88.055 159.3766
1570.090095 88.056 159.7226
1581.467615 88.057 160.0936
1592.927581 88.058 160.4888
1604.470591 88.060 160.9053
1616.097246 88.062 161.3389
1627.808153 88.066 161.7844
1639.603922 88.070 162.2369
1651.485168 88.075 162.6921
1663.452510 88.080 163.1472
1675.506573 88.085 163.6008
1687.647984 88.089 164.0535
1699.877377 88.093 164.5071
1712.195390 88.096 164.9639
1724.602663 88.100 165.4252
1737.099845 88.104 165.8913
1749.687587 88.109 166.3610
1762.366544 88.116 166.8320
1775.137379 88.126 167.3018
1788.000756 88.137 167.7668
1800.957346 88.151 168.2234
1814.007826 88.168 168.6674
1827.152874 88.186 169.0957
1840.393177 88.205 169.5057
1853.729425 88.225 169.8963
1867.162312 88.245 170.2679
1880.692540 88.264 170.6222
1894.320813 88.282 170.9611
1908.047843 88.299 171.2870
1921.874344 88.315 171.6016
1935.801038 88.331 171.9058
1949.828650 88.346 172.1981
1963.957912 88.361 172.4751
1978.189561 88.376 172.7308
1992.524338 88.392 172.9584
2006.962991 88.408 173.1519
2021.506272 88.422 173.3075
2036.154940 88.435 173.4240
2050.909758 88.445 173.5024
2065.771495 88.452 173.5457
2080.740927 88.456 173.5573
2095.818833 88.455 173.5417
2111.006001 88.450 173.5037
2126.303220 88.442 173.4480
2141.711290 88.430 173.3788
2157.231013 88.415 173.2992
2172.863198 88.397 173.2110
2188.608660 88.377 173.1152
2204.468221 88.355 173.0128
2220.442706 88.331 172.9045
2236.532950 88.306 172.7914
2252.739789 88.280 172.6743
2269.064070 88.252 172.5535
2285.506644 88.224 172.4290
2302.068367 88.195 172.3010
2318.750104 88.166 172.1692
2335.552723 88.136 172.0334
2352.477101 88.106 171.8936
2369.524119 88.075 171.7505
2386.694668 88.044 171.6062
2403.989641 88.013 171.4634
2421.409941 87.982 171.3248
2438.956476 87.951 171.1924
2456.630160 87.922 171.0670
2474.431915 87.894 170.9484
2492.362668 87.869 170.8350
2510.423356 87.847 170.7239
2528.614918 87.828 170.6106
2546.938304 87.813 170.4904
2565.394469 87.800 170.3588
2583.984375 87.791 170.2122
2602.708991 87.782 170.0486
2621.569293 87.774 169.8679
2640.566265 87.766 169.6719
2659.700897 87.756 169.4647
2678.974186 87.743 169.2517
2698.387137 87.727 169.0402
2717.940763 87.707 168.8382
2737.636082 87.683 168.6544
2757.474121 87.656 168.4973
2777.455915 87.624 168.3745
2797.582506 87.590 168.2926
2817.854942 87.554 168.2568
2838.274281 87.515 168.2714
2858.841586 87.476 168.3396
2879.557931 87.436 168.4643
2900.424394 87.396 168.6480
2921.442065 87.357 168.8934
2942.612039 87.319 169.2033
2963.935418 87.283 169.5800
2985.413316 87.250 170.0253
3007.046852 87.220 170.5391
3028.837153 87.196 171.1194
3050.785356 87.177 171.7614
3072.892604 87.166 172.4572
3095.160050 87.162 173.1964
3117.588856 87.167 173.9657
3140.180190 87.181 174.7497
3162.935230 87.202 175.5313
3185.855163 87.232 176.2929
3208.941182 87.267 177.0178
3232.194493 87.307 177.6921
3255.616307 87.350 178.3055
3279.207844 87.392 178.8535
3302.970336 87.431 179.3366
3326.905021 87.466 179.7617
3351.013146 87.495 -179.8597
3375.295969 87.516 -179.5131
3399.754755 87.532 -179.1825
3424.390779 87.542 -178.8535
3449.205326 87.549 -178.5153
3474.199690 87.556 -178.1631
3499.375173 87.567 -177.7992
3524.733088 87.583 -177.4332
3550.274757 87.608 -177.0819
3576.001511 87.645 -176.7674
3601.914692 87.693 -176.5144
3628.015651 87.753 -176.3478
3654.305748 87.822 -176.2892
3680.786354 87.898 -176.3550
3707.458849 87.978 -176.5547
3734.324624 88.058 -176.8900
3761.385080 88.133 -177.3554
3788.641627 88.201 -177.9391
3816.095686 88.258 -178.6243
3843.748688 88.302 -179.3912
3871.602076 88.332 179.7817
3899.657300 88.347 178.9158
3927.915825 88.347 178.0318
3956.379122 88.332 177.1485
3985.048676 88.303 176.2824
4013.925981 88.261 175.4476
4043.012544 88.207 174.6556
4072.309879 88.142 173.9159
4101.819515 88.068 173.2362
4131.542990 87.984 172.6228
4161.481854 87.892 172.0812
4191.637667 87.793 171.6162
4222.012001 87.687 171.2325
4252.606441 87.575 170.9342
4283.422580 87.458 170.7256
4314.462026 87.336 170.6102
4345.726396 87.209 170.5907
4377.217321 87.081 170.6688
4408.936442 86.950 170.8448
4440.885413 86.820 171.1169
4473.065899 86.690 171.4811
4505.479579 86.562 171.9316
4538.128141 86.438 172.4606
4571.013288 86.318 173.0593
4604.136735 86.203 173.7185
4637.500207 86.094 174.4296
4671.105446 85.991 175.1843
4704.954201 85.895 175.9758
4739.048239 85.806 176.7981
4773.389336 85.724 177.6467
4807.979283 85.650 178.5181
4842.819883 85.584 179.4097
4877.912952 85.528 -179.6805
4913.260320 85.481 -178.7538
4948.863830 85.445 -177.8119
4984.725337 85.421 -176.8561
5020.846712 85.409 -175.8887
5057.229836 85.411 -174.9123
5093.876609 85.429 -173.9307
5130.788938 85.462 -172.9490
5167.968750 85.512 -171.9734
5205.417982 85.580 -171.0114
5243.138586 85.666 -170.0720
5281.132530 85.771 -169.1652
5319.401793 85.894 -168.3021
5357.948371 86.036 -167.4944
5396.774274 86.194 -166.7541
5435.881525 86.368 -166.0929
5475.272163 86.557 -165.5219
5514.948243 86.757 -165.0510
5554.911831 86.968 -164.6885
5595.165012 87.186 -164.4412
5635.709884 87.409 -164.3139
5676.548561 87.634 -164.3089
5717.683172 87.858 -164.4262
5759.115861 88.079 -164.6630
5800.848789 88.294 -165.0139
5842.884130 88.501 -165.4712
5885.224077 88.698 -166.0251
5927.870837 88.883 -166.6645
5970.826633 89.056 -167.3773
6014.093704 89.215 -168.1511
6057.674306 89.361 -168.9734
6101.570711 89.493 -169.8320
6145.785208 89.611 -170.7156
6190.320101 89.717 -171.6138
6235.177712 89.811 -172.5176
6280.360380 89.894 -173.4194
6325.870460 89.969 -174.3138
6371.710325 90.036 -175.1971
6417.882365 90.098 -176.0684
6464.388986 90.157 -176.9293
6511.232613 90.217 -177.7848
6558.415689 90.278 -178.6434
6605.940673 90.345 -179.5178
6653.810042 90.419 179.5747
6702.026292 90.503 178.6125
6750.591937 90.598 177.5693
6799.509509 90.704 176.4158
6848.781558 90.820 175.1207
6898.410653 90.945 173.6526
6948.399380 91.073 171.9830
6998.750346 91.200 170.0883
7049.466176 91.319 167.9525
7100.549514 91.422 165.5689
7152.003023 91.501 162.9410
7203.829385 91.549 160.0829
7256.031302 91.559 157.0185
7308.611496 91.525 153.7799
7361.572708 91.441 150.4060
7414.917698 91.304 146.9399
7468.649249 91.113 143.4268
7522.770160 90.866 139.9119
7577.283253 90.565 136.4377
7632.191371 90.211 133.0415
7687.497376 89.808 129.7532
7743.204151 89.362 126.5919
7799.314600 88.879 123.5634
7855.831649 88.366 120.6573
7912.758244 87.832 117.8466
7970.097352 87.287 115.0868
8027.851962 86.737 112.3188
8086.025087 86.190 109.4728
8144.619758 85.651 106.4742
8203.639030 85.122 103.2481
8263.085980 84.602 99.7231
8322.963708 84.090 95.8324
8383.275334 83.580 91.5102
8444.024002 83.068 86.6860
8505.212881 82.551 81.2738
8566.845160 82.028 75.1585
8628.924051 81.501 68.1799
8691.452792 80.978 60.1192
8754.434642 80.472 50.6985
8817.872884 79.999 39.6246
8881.770826 79.583 26.7255
8946.131799 79.245 12.2000
9010.959157 79.007 -3.1724
9076.256282 78.883 -18.2135
9142.026576 78.876 -31.9209
9208.273470 78.975 -43.8657
9275.000415 79.161 -54.1174
9342.210891 79.409 -62.9714
9409.908403 79.692 -70.7565
9478.096478 79.984 -77.7529
9546.778672 80.264 -84.1730
9615.958566 80.514 -90.1665
9685.639765 80.721 -95.8319
9755.825904 80.874 -101.2277
9826.520640 80.969 -106.3831
9897.727659 81.002 -111.3069
9969.450674 80.974 -115.9963
10041.693423 80.886 -120.4431
10114.459673 80.745 -124.6386
10187.753217 80.553 -128.5770
10261.577877 80.317 -132.2546
10335.937500 80.040 -135.6677
10410.835964 79.726 -138.8092
10486.277173 79.377 -141.6639
10562.265060 78.994 -144.2031
10638.803587 78.577 -146.3818
10715.896743 78.129 -148.1385
10793.548548 77.652 -149.4009
10871.763050 77.153 -150.0983
10950.544327 76.646 -150.1841
11029.896485 76.144 -149.6644
11109.823662 75.668 -148.6228
11190.330024 75.236 -147.2257
11271.419768 74.861 -145.6965
11353.097122 74.550 -144.2629
11435.366344 74.299 -143.1022
11518.231722 74.098 -142.3120
11601.697577 73.934 -141.9122
11685.768261 73.792 -141.8674
11770.448155 73.663 -142.1151
11855.741674 73.540 -142.5883
11941.653265 73.422 -143.2312
12028.187408 73.310 -144.0068
12115.348612 73.210 -144.9018
12203.141422 73.127 -145.9264
12291.570415 73.065 -147.1133
12380.640201 73.028 -148.5132
12470.355424 73.013 -150.1863
12560.720760 73.014 -152.1927
12651.740920 73.022 -154.5814
12743.420650 73.022 -157.3814
12835.764729 73.002 -160.5994
12928.777972 72.948 -164.2208
13022.465227 72.853 -168.2177
13116.831378 72.710 -172.5571
13211.881345 72.520 -177.2114
13307.620084 72.287 177.8336
13404.052584 72.018 172.5730
13501.183875 71.724 166.9788
13599.019019 71.419 160.9964
13697.563116 71.117 154.5403
13796.821305 70.837 147.4887
13896.798760 70.595 139.6703
13997.500692 70.408 130.8463
14098.932352 70.291 120.6788
14201.099028 70.251 108.6927
14304.006046 70.291 94.2537
14407.658770 70.406 76.6765
14512.062604 70.585 55.7109
14617.222992 70.811 32.4300
14723.145416 71.062 9.2991
14829.835397 71.317 -11.5485
14937.298497 71.551 -29.5414
15045.540320 71.744 -45.1115
15154.566507 71.875 -58.8751
15264.382743 71.928 -71.2957
15374.994752 71.890 -82.6364
15486.408302 71.754 -92.9954
15598.629201 71.517 -102.3497
15711.663298 71.182 -110.5969
15825.516487 70.755 -117.5988
15940.194703 70.247 -123.2408
16055.703925 69.669 -127.5219
16172.050174 69.036 -130.6538
16289.239516 68.361 -133.1011
16407.278061 67.656 -135.4745
16526.171961 66.931 -138.3179
16645.927415 66.196 -141.9469
16766.550667 65.454 -146.4392
16888.048005 64.710 -151.7183
17010.425762 63.965 -157.6423
17133.690320 63.216 -164.0576
17257.848103 62.462 -170.8206
17382.905584 61.697 -177.8010
17508.869284 60.917 175.1187
17635.745768 60.119 168.0496
17763.541652 59.301 161.1001
17892.263597 58.463 154.3778
18021.918315 57.611 147.9897
18152.512564 56.757 142.0331
18284.053153 55.922 136.5787
18416.546939 55.136 131.6376
18550.000830 54.435 127.1117
18684.421783 53.860 122.7527
18819.816805 53.443 118.1750
18956.192956 53.195 112.9814
19093.557344 53.100 106.9729
19231.917131 53.124 100.3018
19371.279531 53.220 93.4485
19511.651807 53.345 87.0469
19653.041280 53.465 81.7004
19795.455318 53.556 77.8792
19938.901348 53.605 75.8926
