* Measurement data measured by REW V5.31.3
* Source: EXCL: Headset (USB-C to 3.5mm Headphone Jack Adapter), MICROPHONE (Master Volume), 0, volume: 0.750
* Format: 256k Log Swept Sine, 1 sweep at -12.0 dBFS with no timing reference
* Dated: Apr 7, 2025 4:40:06 PM
* REW Settings:
*  C-weighting compensation: Off
*  Target level: 75.0 dB
* Note: ; 
* Measurement: Satyr 3 (Forward) L8
* Smoothing: 1/6 octave
* Frequency Step: 96 ppo
* Start Frequency: 20.0 Hz
*
* Freq(Hz) SPL(dB) Phase(degrees)
20.187378 80.903 -94.8740
20.333664 80.928 -95.0657
20.481010 80.962 -95.3197
20.629424 81.003 -95.6245
20.778913 81.050 -95.9674
20.929486 81.102 -96.3354
21.081150 81.158 -96.7159
21.233912 81.218 -97.0981
21.387782 81.282 -97.4733
21.542767 81.350 -97.8355
21.698874 81.424 -98.1816
21.856113 81.502 -98.5113
22.014492 81.586 -98.8269
22.174018 81.675 -99.1319
22.334700 81.767 -99.4314
22.496546 81.863 -99.7300
22.659566 81.960 -100.0318
22.823766 82.056 -100.3396
22.989157 82.151 -100.6548
23.155745 82.242 -100.9773
23.323542 82.329 -101.3060
23.492554 82.410 -101.6394
23.662790 82.485 -101.9765
23.834261 82.555 -102.3168
24.006973 82.619 -102.6614
24.180938 82.677 -103.0126
24.356163 82.731 -103.3740
24.532658 82.781 -103.7497
24.710431 82.827 -104.1441
24.889493 82.870 -104.5605
25.069853 82.909 -105.0007
25.251519 82.945 -105.4646
25.434502 82.977 -105.9497
25.618811 83.007 -106.4518
25.804456 83.034 -106.9647
25.991445 83.059 -107.4817
26.179790 83.083 -107.9961
26.369500 83.107 -108.5021
26.560584 83.130 -108.9953
26.753053 83.155 -109.4734
26.946917 83.182 -109.9360
27.142185 83.211 -110.3844
27.338869 83.242 -110.8214
27.536977 83.274 -111.2504
27.736522 83.308 -111.6750
27.937512 83.342 -112.0983
28.139959 83.377 -112.5229
28.343872 83.411 -112.9506
28.549264 83.444 -113.3825
28.756143 83.477 -113.8188
28.964522 83.508 -114.2595
29.174411 83.539 -114.7043
29.385821 83.569 -115.1524
29.598763 83.599 -115.6030
29.813248 83.629 -116.0549
30.029287 83.660 -116.5068
30.246891 83.692 -116.9570
30.466073 83.725 -117.4041
30.686842 83.760 -117.8467
30.909212 83.798 -118.2839
31.133193 83.838 -118.7152
31.358797 83.881 -119.1410
31.586035 83.928 -119.5622
31.814921 83.979 -119.9804
32.045465 84.033 -120.3972
32.277680 84.092 -120.8145
32.511577 84.153 -121.2335
32.747169 84.218 -121.6548
32.984469 84.286 -122.0781
33.223488 84.356 -122.5024
33.464239 84.429 -122.9258
33.706735 84.504 -123.3460
33.950987 84.580 -123.7607
34.197010 84.659 -124.1680
34.444816 84.738 -124.5668
34.694417 84.820 -124.9571
34.945827 84.903 -125.3400
35.199059 84.988 -125.7172
35.454126 85.074 -126.0907
35.711041 85.161 -126.4622
35.969818 85.247 -126.8326
36.230470 85.334 -127.2014
36.493011 85.420 -127.5673
36.757455 85.504 -127.9282
37.023814 85.588 -128.2817
37.292104 85.671 -128.6265
37.562338 85.754 -128.9622
37.834530 85.835 -129.2900
38.108695 85.916 -129.6125
38.384846 85.995 -129.9328
38.662999 86.073 -130.2542
38.943167 86.149 -130.5789
39.225365 86.223 -130.9083
39.509608 86.293 -131.2423
39.795911 86.361 -131.5801
40.084289 86.426 -131.9200
40.374756 86.489 -132.2603
40.667328 86.549 -132.5997
40.962020 86.608 -132.9370
41.258848 86.664 -133.2716
41.557827 86.720 -133.6033
41.858972 86.773 -133.9329
42.162299 86.826 -134.2618
42.467824 86.878 -134.5923
42.775564 86.929 -134.9278
43.085533 86.979 -135.2720
43.397749 87.028 -135.6285
43.712227 87.077 -135.9992
44.028983 87.124 -136.3845
44.348036 87.171 -136.7822
44.669400 87.216 -137.1883
44.993093 87.260 -137.5978
45.319131 87.302 -138.0060
45.647532 87.344 -138.4094
45.978313 87.385 -138.8068
46.311491 87.425 -139.1990
46.647083 87.465 -139.5884
46.985107 87.504 -139.9786
47.325581 87.543 -140.3730
47.668521 87.581 -140.7751
48.013947 87.618 -141.1870
48.361876 87.654 -141.6103
48.712326 87.689 -142.0448
49.065315 87.722 -142.4894
49.420863 87.752 -142.9413
49.778987 87.779 -143.3972
50.139706 87.802 -143.8535
50.503039 87.822 -144.3070
50.869005 87.837 -144.7561
51.237623 87.848 -145.2003
51.608912 87.855 -145.6400
51.982891 87.860 -146.0764
52.359580 87.863 -146.5108
52.739000 87.866 -146.9441
53.121168 87.867 -147.3773
53.506106 87.868 -147.8109
53.893833 87.869 -148.2452
54.284370 87.869 -148.6801
54.677737 87.868 -149.1147
55.073955 87.866 -149.5480
55.473043 87.861 -149.9784
55.875024 87.855 -150.4050
56.279917 87.846 -150.8274
56.687745 87.836 -151.2464
57.098527 87.824 -151.6637
57.512287 87.811 -152.0815
57.929045 87.798 -152.5022
58.348822 87.785 -152.9276
58.771642 87.775 -153.3585
59.197525 87.770 -153.7955
59.626495 87.770 -154.2381
60.058573 87.777 -154.6854
60.493782 87.792 -155.1353
60.932145 87.814 -155.5848
61.373685 87.842 -156.0299
61.818424 87.875 -156.4667
62.266386 87.911 -156.8928
62.717593 87.949 -157.3072
63.172071 87.988 -157.7107
63.629842 88.027 -158.1051
64.090930 88.064 -158.4923
64.555359 88.101 -158.8738
65.023154 88.137 -159.2508
65.494339 88.171 -159.6239
65.968938 88.204 -159.9938
66.446976 88.235 -160.3612
66.928478 88.265 -160.7274
67.413469 88.293 -161.0933
67.901975 88.319 -161.4596
68.394021 88.342 -161.8261
68.889632 88.364 -162.1919
69.388835 88.383 -162.5551
69.891655 88.400 -162.9143
70.398118 88.415 -163.2680
70.908252 88.428 -163.6155
71.422083 88.438 -163.9569
71.939636 88.446 -164.2923
72.460941 88.451 -164.6222
72.986023 88.454 -164.9474
73.514909 88.454 -165.2688
74.047629 88.451 -165.5873
74.584208 88.445 -165.9042
75.124676 88.437 -166.2207
75.669061 88.427 -166.5379
76.217390 88.415 -166.8564
76.769692 88.401 -167.1759
77.325997 88.385 -167.4957
77.886333 88.367 -167.8146
78.450730 88.348 -168.1313
79.019216 88.328 -168.4447
79.591822 88.308 -168.7541
80.168577 88.286 -169.0590
80.749512 88.264 -169.3591
81.334656 88.241 -169.6544
81.924040 88.218 -169.9452
82.517696 88.194 -170.2318
83.115653 88.170 -170.5147
83.717943 88.145 -170.7943
84.324598 88.120 -171.0708
84.935649 88.095 -171.3444
85.551128 88.069 -171.6146
86.171066 88.044 -171.8809
86.795497 88.019 -172.1427
87.424453 87.993 -172.3996
88.057967 87.967 -172.6514
88.696071 87.941 -172.8983
89.338800 87.914 -173.1407
89.986185 87.887 -173.3790
90.638262 87.859 -173.6141
91.295065 87.831 -173.8465
91.956626 87.803 -174.0769
92.622982 87.774 -174.3056
93.294166 87.745 -174.5329
93.970214 87.716 -174.7588
94.651161 87.686 -174.9831
95.337042 87.657 -175.2059
96.027894 87.629 -175.4270
96.723752 87.600 -175.6461
97.424652 87.572 -175.8630
98.130631 87.544 -176.0774
98.841726 87.517 -176.2890
99.557974 87.491 -176.4979
100.279412 87.466 -176.7039
101.006078 87.441 -176.9075
101.738010 87.418 -177.1090
102.475245 87.395 -177.3087
103.217823 87.374 -177.5066
103.965782 87.353 -177.7023
104.719161 87.333 -177.8954
105.477999 87.313 -178.0848
106.242336 87.294 -178.2700
107.012212 87.276 -178.4507
107.787666 87.258 -178.6272
108.568740 87.240 -178.8005
109.355474 87.223 -178.9718
110.147909 87.206 -179.1420
110.946086 87.190 -179.3118
111.750047 87.175 -179.4812
112.559834 87.160 -179.6497
113.375489 87.146 -179.8165
114.197055 87.131 -179.9809
115.024574 87.117 179.8580
115.858089 87.102 179.7006
116.697645 87.087 179.5475
117.543284 87.072 179.3992
118.395051 87.056 179.2563
119.252990 87.040 179.1194
120.117147 87.023 178.9889
120.987565 87.006 178.8651
121.864291 86.988 178.7480
122.747370 86.970 178.6379
123.636848 86.950 178.5355
124.532771 86.931 178.4417
125.435187 86.910 178.3585
126.344142 86.889 178.2877
127.259684 86.868 178.2315
128.181860 86.848 178.1913
129.110718 86.828 178.1669
130.046308 86.809 178.1568
130.988677 86.791 178.1577
131.937875 86.775 178.1658
132.893951 86.761 178.1765
133.856956 86.748 178.1857
134.826938 86.736 178.1896
135.803950 86.724 178.1849
136.788041 86.713 178.1690
137.779264 86.701 178.1399
138.777669 86.688 178.0968
139.783309 86.674 178.0396
140.796237 86.657 177.9693
141.816504 86.638 177.8878
142.844165 86.617 177.7972
143.879273 86.593 177.7002
144.921881 86.566 177.5994
145.972045 86.536 177.4975
147.029819 86.503 177.3968
148.095257 86.468 177.2997
149.168417 86.431 177.2086
150.249353 86.392 177.1254
151.338121 86.351 177.0521
152.434780 86.309 176.9906
153.539385 86.266 176.9424
154.651995 86.223 176.9086
155.772667 86.181 176.8900
156.901460 86.138 176.8870
158.038432 86.098 176.9001
159.183644 86.058 176.9297
160.337154 86.021 176.9760
161.499023 85.986 177.0392
162.669312 85.953 177.1190
163.848081 85.923 177.2147
165.035392 85.895 177.3250
166.231306 85.870 177.4477
167.435887 85.848 177.5801
168.649196 85.828 177.7188
169.871298 85.811 177.8601
171.102255 85.796 178.0001
172.342133 85.784 178.1351
173.590995 85.775 178.2615
174.848907 85.769 178.3759
176.115934 85.765 178.4756
177.392143 85.763 178.5579
178.677599 85.762 178.6212
179.972371 85.762 178.6647
181.276525 85.763 178.6887
182.590129 85.764 178.6941
183.913252 85.764 178.6829
185.245964 85.764 178.6570
186.588332 85.762 178.6185
187.940428 85.759 178.5691
189.302322 85.754 178.5104
190.674085 85.748 178.4437
192.055788 85.740 178.3698
193.447503 85.731 178.2893
194.849303 85.720 178.2028
196.261262 85.708 178.1110
197.683452 85.696 178.0159
199.115948 85.682 177.9204
200.558824 85.668 177.8289
202.012156 85.654 177.7458
203.476019 85.640 177.6746
204.950490 85.626 177.6167
206.435646 85.613 177.5715
207.931564 85.600 177.5373
209.438322 85.587 177.5116
210.955998 85.574 177.4918
212.484672 85.561 177.4756
214.024424 85.548 177.4612
215.575333 85.535 177.4471
217.137481 85.522 177.4325
218.710948 85.510 177.4165
220.295818 85.497 177.3989
221.892172 85.486 177.3792
223.500094 85.475 177.3573
225.119668 85.464 177.3332
226.750978 85.455 177.3073
228.394109 85.446 177.2803
230.049147 85.438 177.2529
231.716178 85.432 177.2262
233.395289 85.426 177.2010
235.086567 85.420 177.1784
236.790102 85.416 177.1591
238.505980 85.413 177.1437
240.234293 85.410 177.1322
241.975130 85.408 177.1241
243.728581 85.407 177.1185
245.494739 85.406 177.1143
247.273695 85.405 177.1102
249.065542 85.404 177.1052
250.870374 85.403 177.0984
252.688284 85.403 177.0895
254.519367 85.403 177.0786
256.363720 85.403 177.0664
258.221437 85.402 177.0540
260.092616 85.402 177.0427
261.977354 85.402 177.0340
263.875750 85.402 177.0288
265.787903 85.403 177.0277
267.713911 85.404 177.0309
269.653877 85.405 177.0384
271.607900 85.407 177.0501
273.576083 85.410 177.0659
275.558528 85.413 177.0853
277.555338 85.417 177.1081
279.566619 85.421 177.1335
281.592474 85.426 177.1608
283.633009 85.430 177.1890
285.688331 85.435 177.2170
287.758546 85.440 177.2436
289.843763 85.445 177.2682
291.944090 85.451 177.2906
294.059638 85.456 177.3116
296.190515 85.463 177.3319
298.336833 85.469 177.3528
300.498705 85.476 177.3754
302.676243 85.484 177.4005
304.869559 85.492 177.4288
307.078770 85.501 177.4605
309.303989 85.511 177.4958
311.545334 85.521 177.5347
313.802919 85.531 177.5774
316.076865 85.541 177.6237
318.367288 85.552 177.6736
320.674309 85.562 177.7266
322.998047 85.573 177.7820
325.338624 85.583 177.8387
327.696162 85.592 177.8953
330.070783 85.601 177.9505
332.462612 85.609 178.0025
334.871773 85.617 178.0501
337.298392 85.623 178.0922
339.742595 85.628 178.1287
342.204510 85.632 178.1600
344.684265 85.634 178.1874
347.181989 85.635 178.2126
349.697813 85.635 178.2372
352.231868 85.633 178.2625
354.784285 85.630 178.2896
357.355198 85.626 178.3191
359.944741 85.621 178.3513
362.553049 85.615 178.3858
365.180258 85.608 178.4220
367.826505 85.602 178.4587
370.491927 85.595 178.4950
373.176665 85.589 178.5297
375.880856 85.583 178.5626
378.604644 85.578 178.5938
381.348169 85.574 178.6236
384.111575 85.570 178.6524
386.895006 85.567 178.6807
389.698607 85.563 178.7089
392.522524 85.560 178.7380
395.366904 85.556 178.7685
398.231895 85.551 178.8010
401.117648 85.546 178.8358
404.024312 85.539 178.8731
406.952038 85.530 178.9131
409.900981 85.520 178.9564
412.871292 85.508 179.0035
415.863128 85.494 179.0551
418.876643 85.479 179.1118
421.911996 85.463 179.1739
424.969344 85.446 179.2413
428.048847 85.427 179.3133
431.150666 85.409 179.3888
434.274961 85.389 179.4666
437.421897 85.369 179.5451
440.591636 85.349 179.6232
443.784345 85.328 179.7000
447.000189 85.306 179.7748
450.239337 85.284 179.8477
453.501956 85.261 179.9190
456.788219 85.238 179.9896
460.098294 85.215 -179.9402
463.432356 85.191 -179.8699
466.790578 85.168 -179.7995
470.173135 85.146 -179.7293
473.580203 85.124 -179.6597
477.011961 85.103 -179.5911
480.468586 85.083 -179.5236
483.950259 85.064 -179.4574
487.457163 85.046 -179.3921
490.989478 85.030 -179.3273
494.547390 85.014 -179.2626
498.131084 85.001 -179.1977
501.740748 84.989 -179.1321
505.376568 84.978 -179.0659
509.038735 84.969 -178.9992
512.727439 84.963 -178.9324
516.442874 84.958 -178.8658
520.185232 84.955 -178.8000
523.954708 84.954 -178.7352
527.751500 84.955 -178.6716
531.575805 84.958 -178.6093
535.427822 84.964 -178.5479
539.307753 84.972 -178.4871
543.215800 84.983 -178.4266
547.152165 84.996 -178.3661
551.117055 85.011 -178.3055
555.110677 85.029 -178.2449
559.133237 85.049 -178.1848
563.184947 85.071 -178.1255
567.266018 85.095 -178.0678
571.376661 85.120 -178.0124
575.517092 85.147 -177.9598
579.687526 85.176 -177.9108
583.888181 85.205 -177.8656
588.119275 85.234 -177.8244
592.381030 85.264 -177.7870
596.673667 85.295 -177.7529
600.997410 85.325 -177.7218
605.352485 85.355 -177.6936
609.739119 85.386 -177.6680
614.157540 85.415 -177.6449
618.607979 85.444 -177.6244
623.090667 85.472 -177.6063
627.605839 85.498 -177.5908
632.153730 85.524 -177.5781
636.734576 85.548 -177.5683
641.348617 85.571 -177.5614
645.996094 85.593 -177.5578
650.677248 85.614 -177.5577
655.392323 85.635 -177.5616
660.141566 85.654 -177.5700
664.925224 85.673 -177.5837
669.743546 85.690 -177.6038
674.596784 85.708 -177.6312
679.485191 85.724 -177.6666
684.409020 85.740 -177.7106
689.368530 85.754 -177.7633
694.363979 85.767 -177.8243
699.395626 85.779 -177.8928
704.463736 85.788 -177.9677
709.568570 85.797 -178.0476
714.710396 85.803 -178.1313
719.889483 85.808 -178.2182
725.106099 85.811 -178.3080
730.360516 85.813 -178.4013
735.653010 85.814 -178.4993
740.983855 85.813 -178.6031
746.353329 85.811 -178.7133
751.761713 85.807 -178.8303
757.209288 85.802 -178.9538
762.696339 85.795 -179.0836
768.223151 85.786 -179.2193
773.790013 85.776 -179.3610
779.397214 85.765 -179.5088
785.045047 85.752 -179.6626
790.733808 85.738 -179.8223
796.463791 85.723 -179.9874
802.235296 85.707 179.8430
808.048623 85.690 179.6693
813.904077 85.673 179.4920
819.801961 85.655 179.3107
825.742584 85.638 179.1250
831.726255 85.620 178.9339
837.753287 85.603 178.7365
843.823992 85.586 178.5324
849.938689 85.569 178.3212
856.097695 85.552 178.1031
862.301332 85.535 177.8787
868.549922 85.517 177.6486
874.843793 85.499 177.4139
881.183272 85.480 177.1757
887.568689 85.461 176.9351
894.000378 85.442 176.6924
900.478673 85.423 176.4479
907.003913 85.404 176.2013
913.576437 85.386 175.9522
920.196588 85.367 175.7006
926.864712 85.348 175.4468
933.581156 85.330 175.1916
940.346270 85.311 174.9359
947.160407 85.294 174.6806
954.023921 85.277 174.4264
960.937172 85.260 174.1735
967.900519 85.245 173.9217
974.914325 85.231 173.6704
981.978956 85.219 173.4193
989.094780 85.207 173.1678
996.262169 85.197 172.9158
1003.481495 85.188 172.6631
1010.753136 85.180 172.4093
1018.077470 85.173 172.1539
1025.454879 85.167 171.8963
1032.885748 85.162 171.6360
1040.370463 85.157 171.3731
1047.909417 85.152 171.1082
1055.503000 85.147 170.8429
1063.151610 85.141 170.5797
1070.855645 85.134 170.3212
1078.615506 85.127 170.0695
1086.431599 85.118 169.8260
1094.304330 85.109 169.5912
1102.234110 85.100 169.3646
1110.221353 85.089 169.1458
1118.266475 85.078 168.9343
1126.369895 85.065 168.7300
1134.532035 85.051 168.5334
1142.753322 85.036 168.3450
1151.034184 85.020 168.1652
1159.375052 85.002 167.9941
1167.776361 84.984 167.8313
1176.238550 84.964 167.6761
1184.762060 84.944 167.5280
1193.347334 84.922 167.3868
1201.994821 84.899 167.2532
1210.704971 84.876 167.1282
1219.478238 84.851 167.0134
1228.315080 84.825 166.9102
1237.215957 84.798 166.8203
1246.181334 84.771 166.7447
1255.211678 84.744 166.6840
1264.307459 84.716 166.6379
1273.469152 84.689 166.6055
1282.697235 84.663 166.5856
1291.992188 84.637 166.5768
1301.354495 84.611 166.5779
1310.784647 84.586 166.5876
1320.283132 84.562 166.6051
1329.850448 84.537 166.6292
1339.487093 84.513 166.6594
1349.193569 84.489 166.6954
1358.970381 84.465 166.7372
1368.818041 84.441 166.7853
1378.737061 84.417 166.8403
1388.727958 84.393 166.9025
1398.791253 84.370 166.9726
1408.927471 84.346 167.0513
1419.137140 84.324 167.1401
1429.420793 84.302 167.2407
1439.778965 84.280 167.3549
1450.212197 84.260 167.4841
1460.721033 84.240 167.6298
1471.306019 84.222 167.7940
1481.967709 84.205 167.9785
1492.706658 84.189 168.1851
1503.523426 84.175 168.4144
1514.418576 84.163 168.6661
1525.392678 84.152 168.9386
1536.446302 84.143 169.2295
1547.580025 84.135 169.5360
1558.794428 84.127 169.8561
1570.090095 84.120 170.1886
1581.467615 84.112 170.5334
1592.927581 84.103 170.8911
1604.470591 84.093 171.2620
1616.097246 84.081 171.6465
1627.808153 84.068 172.0442
1639.603922 84.054 172.4547
1651.485168 84.039 172.8775
1663.452510 84.022 173.3127
1675.506573 84.004 173.7611
1687.647984 83.985 174.2235
1699.877377 83.967 174.7010
1712.195390 83.949 175.1934
1724.602663 83.932 175.6990
1737.099845 83.918 176.2145
1749.687587 83.905 176.7355
1762.366544 83.896 177.2572
1775.137379 83.889 177.7755
1788.000756 83.884 178.2870
1800.957346 83.881 178.7896
1814.007826 83.880 179.2828
1827.152874 83.880 179.7670
1840.393177 83.882 -179.7567
1853.729425 83.884 -179.2877
1867.162312 83.887 -178.8262
1880.692540 83.892 -178.3740
1894.320813 83.898 -177.9344
1908.047843 83.906 -177.5121
1921.874344 83.914 -177.1120
1935.801038 83.924 -176.7385
1949.828650 83.932 -176.3951
1963.957912 83.941 -176.0837
1978.189561 83.947 -175.8049
1992.524338 83.951 -175.5569
2006.962991 83.952 -175.3367
2021.506272 83.951 -175.1400
2036.154940 83.946 -174.9627
2050.909758 83.939 -174.8022
2065.771495 83.929 -174.6576
2080.740927 83.919 -174.5294
2095.818833 83.907 -174.4192
2111.006001 83.894 -174.3292
2126.303220 83.881 -174.2616
2141.711290 83.867 -174.2183
2157.231013 83.851 -174.1998
2172.863198 83.834 -174.2052
2188.608660 83.815 -174.2323
2204.468221 83.794 -174.2776
2220.442706 83.771 -174.3377
2236.532950 83.745 -174.4093
2252.739789 83.718 -174.4892
2269.064070 83.688 -174.5747
2285.506644 83.658 -174.6630
2302.068367 83.626 -174.7524
2318.750104 83.594 -174.8418
2335.552723 83.563 -174.9316
2352.477101 83.531 -175.0228
2369.524119 83.501 -175.1172
2386.694668 83.472 -175.2163
2403.989641 83.444 -175.3216
2421.409941 83.417 -175.4337
2438.956476 83.392 -175.5526
2456.630160 83.368 -175.6780
2474.431915 83.346 -175.8103
2492.362668 83.326 -175.9507
2510.423356 83.308 -176.1010
2528.614918 83.292 -176.2633
2546.938304 83.277 -176.4400
2565.394469 83.264 -176.6325
2583.984375 83.251 -176.8415
2602.708991 83.237 -177.0660
2621.569293 83.222 -177.3033
2640.566265 83.204 -177.5487
2659.700897 83.184 -177.7961
2678.974186 83.160 -178.0378
2698.387137 83.133 -178.2654
2717.940763 83.102 -178.4707
2737.636082 83.067 -178.6462
2757.474121 83.031 -178.7857
2777.455915 82.992 -178.8847
2797.582506 82.953 -178.9395
2817.854942 82.913 -178.9475
2838.274281 82.873 -178.9063
2858.841586 82.835 -178.8146
2879.557931 82.798 -178.6712
2900.424394 82.763 -178.4764
2921.442065 82.731 -178.2308
2942.612039 82.703 -177.9363
2963.935418 82.680 -177.5959
2985.413316 82.660 -177.2134
3007.046852 82.646 -176.7941
3028.837153 82.637 -176.3445
3050.785356 82.633 -175.8723
3072.892604 82.634 -175.3862
3095.160050 82.640 -174.8960
3117.588856 82.650 -174.4124
3140.180190 82.664 -173.9462
3162.935230 82.679 -173.5074
3185.855163 82.694 -173.1043
3208.941182 82.708 -172.7415
3232.194493 82.718 -172.4196
3255.616307 82.721 -172.1341
3279.207844 82.718 -171.8762
3302.970336 82.705 -171.6329
3326.905021 82.684 -171.3893
3351.013146 82.655 -171.1300
3375.295969 82.620 -170.8415
3399.754755 82.580 -170.5145
3424.390779 82.540 -170.1459
3449.205326 82.502 -169.7404
3474.199690 82.471 -169.3108
3499.375173 82.449 -168.8777
3524.733088 82.438 -168.4672
3550.274757 82.440 -168.1084
3576.001511 82.454 -167.8299
3601.914692 82.478 -167.6561
3628.015651 82.509 -167.6047
3654.305748 82.543 -167.6848
3680.786354 82.576 -167.8962
3707.458849 82.605 -168.2301
3734.324624 82.625 -168.6712
3761.385080 82.634 -169.1995
3788.641627 82.631 -169.7921
3816.095686 82.614 -170.4256
3843.748688 82.584 -171.0775
3871.602076 82.541 -171.7271
3899.657300 82.486 -172.3573
3927.915825 82.421 -172.9540
3956.379122 82.347 -173.5071
3985.048676 82.266 -174.0095
4013.925981 82.180 -174.4570
4043.012544 82.090 -174.8472
4072.309879 81.997 -175.1788
4101.819515 81.901 -175.4509
4131.542990 81.803 -175.6622
4161.481854 81.703 -175.8111
4191.637667 81.601 -175.8952
4222.012001 81.497 -175.9122
4252.606441 81.391 -175.8596
4283.422580 81.284 -175.7348
4314.462026 81.175 -175.5357
4345.726396 81.066 -175.2604
4377.217321 80.956 -174.9081
4408.936442 80.847 -174.4789
4440.885413 80.738 -173.9742
4473.065899 80.632 -173.3961
4505.479579 80.528 -172.7480
4538.128141 80.427 -172.0335
4571.013288 80.331 -171.2562
4604.136735 80.241 -170.4201
4637.500207 80.156 -169.5286
4671.105446 80.079 -168.5851
4704.954201 80.010 -167.5931
4739.048239 79.951 -166.5564
4773.389336 79.904 -165.4796
4807.979283 79.870 -164.3684
4842.819883 79.851 -163.2298
4877.912952 79.850 -162.0728
4913.260320 79.869 -160.9082
4948.863830 79.908 -159.7491
4984.725337 79.970 -158.6103
5020.846712 80.056 -157.5085
5057.229836 80.167 -156.4615
5093.876609 80.302 -155.4880
5130.788938 80.461 -154.6071
5167.968750 80.644 -153.8378
5205.417982 80.848 -153.1986
5243.138586 81.071 -152.7064
5281.132530 81.311 -152.3767
5319.401793 81.565 -152.2228
5357.948371 81.828 -152.2555
5396.774274 82.096 -152.4832
5435.881525 82.367 -152.9117
5475.272163 82.634 -153.5441
5514.948243 82.894 -154.3803
5554.911831 83.143 -155.4167
5595.165012 83.374 -156.6457
5635.709884 83.584 -158.0552
5676.548561 83.769 -159.6284
5717.683172 83.924 -161.3440
5759.115861 84.046 -163.1761
5800.848789 84.131 -165.0952
5842.884130 84.178 -167.0687
5885.224077 84.186 -169.0613
5927.870837 84.152 -171.0357
5970.826633 84.078 -172.9536
6014.093704 83.965 -174.7757
6057.674306 83.813 -176.4626
6101.570711 83.625 -177.9747
6145.785208 83.404 -179.2728
6190.320101 83.155 179.6826
6235.177712 82.883 178.9304
6280.360380 82.594 178.5095
6325.870460 82.295 178.4569
6371.710325 81.998 178.8059
6417.882365 81.712 179.5815
6464.388986 81.452 -179.2057
6511.232613 81.232 -177.5683
6558.415689 81.069 -175.5513
6605.940673 80.976 -173.2400
6653.810042 80.966 -170.7603
6702.026292 81.043 -168.2697
6750.591937 81.205 -165.9381
6799.509509 81.446 -163.9233
6848.781558 81.751 -162.3507
6898.410653 82.104 -161.3015
6948.399380 82.489 -160.8132
6998.750346 82.890 -160.8869
7049.466176 83.295 -161.4987
7100.549514 83.694 -162.6104
7152.003023 84.080 -164.1791
7203.829385 84.449 -166.1634
7256.031302 84.798 -168.5273
7308.611496 85.124 -171.2427
7361.572708 85.428 -174.2894
7414.917698 85.706 -177.6542
7468.649249 85.956 178.6705
7522.770160 86.177 174.6884
7577.283253 86.363 170.4020
7632.191371 86.510 165.8140
7687.497376 86.613 160.9293
7743.204151 86.665 155.7569
7799.314600 86.661 150.3102
7855.831649 86.595 144.6075
7912.758244 86.461 138.6707
7970.097352 86.256 132.5226
8027.851962 85.978 126.1818
8086.025087 85.627 119.6566
8144.619758 85.206 112.9367
8203.639030 84.720 105.9844
8263.085980 84.176 98.7246
8322.963708 83.584 91.0324
8383.275334 82.954 82.7163
8444.024002 82.300 73.4985
8505.212881 81.636 62.9940
8566.845160 80.979 50.7155
8628.924051 80.347 36.1789
8691.452792 79.758 19.2480
8754.434642 79.227 0.6812
8817.872884 78.766 -17.7812
8881.770826 78.385 -34.3995
8946.131799 78.085 -48.4131
9010.959157 77.864 -59.9447
9076.256282 77.716 -69.4570
9142.026576 77.633 -77.4171
9208.273470 77.606 -84.1963
9275.000415 77.628 -90.0718
9342.210891 77.692 -95.2496
9409.908403 77.792 -99.8875
9478.096478 77.920 -104.1111
9546.778672 78.073 -108.0247
9615.958566 78.241 -111.7166
9685.639765 78.419 -115.2612
9755.825904 78.596 -118.7202
9826.520640 78.766 -122.1407
9897.727659 78.917 -125.5551
9969.450674 79.043 -128.9795
10041.693423 79.134 -132.4147
10114.459673 79.183 -135.8464
10187.753217 79.187 -139.2482
10261.577877 79.142 -142.5839
10335.937500 79.047 -145.8112
10410.835964 78.904 -148.8861
10486.277173 78.716 -151.7676
10562.265060 78.492 -154.4227
10638.803587 78.238 -156.8312
10715.896743 77.967 -158.9883
10793.548548 77.687 -160.9058
10871.763050 77.409 -162.6096
10950.544327 77.144 -164.1364
11029.896485 76.898 -165.5286
11109.823662 76.678 -166.8316
11190.330024 76.488 -168.0920
11271.419768 76.332 -169.3574
11353.097122 76.212 -170.6772
11435.366344 76.127 -172.1022
11518.231722 76.074 -173.6825
11601.697577 76.048 -175.4647
11685.768261 76.039 -177.4866
11770.448155 76.037 -179.7732
11855.741674 76.029 177.6676
11941.653265 76.002 174.8463
12028.187408 75.943 171.7922
12115.348612 75.844 168.5510
12203.141422 75.696 165.1798
12291.570415 75.497 161.7412
12380.640201 75.246 158.2940
12470.355424 74.948 154.8846
12560.720760 74.613 151.5400
12651.740920 74.252 148.2632
12743.420650 73.877 145.0328
12835.764729 73.502 141.8066
12928.777972 73.140 138.5271
13022.465227 72.800 135.1281
13116.831378 72.489 131.5411
13211.881345 72.212 127.7006
13307.620084 71.969 123.5468
13404.052584 71.757 119.0273
13501.183875 71.571 114.0965
13599.019019 71.405 108.7133
13697.563116 71.251 102.8383
13796.821305 71.103 96.4291
13896.798760 70.954 89.4351
13997.500692 70.798 81.7906
14098.932352 70.630 73.4047
14201.099028 70.445 64.1445
14304.006046 70.241 53.8065
14407.658770 70.017 42.0724
14512.062604 69.774 28.4462
14617.222992 69.515 12.1998
14723.145416 69.242 -7.5244
14829.835397 68.961 -31.0479
14937.298497 68.675 -56.8351
15045.540320 68.388 -81.5842
15154.566507 68.104 -102.9446
15264.382743 67.828 -120.7328
15374.994752 67.563 -135.7571
15486.408302 67.315 -148.8531
15598.629201 67.087 -160.6389
15711.663298 66.885 -171.5398
15825.516487 66.709 178.1481
15940.194703 66.557 168.2122
16055.703925 66.421 158.4976
16172.050174 66.290 148.8970
16289.239516 66.147 139.3451
16407.278061 65.975 129.8151
16526.171961 65.760 120.3146
16645.927415 65.491 110.8807
16766.550667 65.159 101.5747
16888.048005 64.761 92.4817
17010.425762 64.295 83.7129
17133.690320 63.765 75.4084
17257.848103 63.175 67.7413
17382.905584 62.534 60.9156
17508.869284 61.853 55.1449
17635.745768 61.144 50.5938
17763.541652 60.423 47.2614
17892.263597 59.703 44.8385
18021.918315 58.998 42.6664
18152.512564 58.318 39.9252
18284.053153 57.670 35.9501
18416.546939 57.056 30.4036
18550.000830 56.474 23.2144
18684.421783 55.922 14.4253
18819.816805 55.397 4.0851
18956.192956 54.901 -7.7672
19093.557344 54.434 -21.0061
19231.917131 54.002 -35.2188
19371.279531 53.613 -49.5167
19511.651807 53.278 -62.6235
19653.041280 53.009 -73.2964
19795.455318 52.820 -80.7079
19938.901348 52.723 -84.4738
