* Measurement data measured by REW V5.31.3
* Source: EXCL: Headset (USB-C to 3.5mm Headphone Jack Adapter), MICROPHONE (Master Volume), 0, volume: 0.260
* Format: 256k Log Swept Sine, 1 sweep at -12.0 dBFS with no timing reference
* Dated: Feb 14, 2025 1:52:58 PM
* REW Settings:
*  C-weighting compensation: Off
*  Target level: 75.0 dB
* Note: ; 
* Measurement: Satyr 3 R10
* Smoothing: 1/6 octave
* Frequency Step: 96 ppo
* Start Frequency: 20.0 Hz
*
* Freq(Hz) SPL(dB) Phase(degrees)
20.141602 94.927 -31.2674
20.287556 94.944 -31.4841
20.434568 94.964 -31.7742
20.582645 94.985 -32.1297
20.731796 95.004 -32.5424
20.882027 95.017 -33.0039
21.033346 95.024 -33.5068
21.185763 95.021 -34.0447
21.339284 95.010 -34.6122
21.493917 94.990 -35.2049
21.649671 94.962 -35.8190
21.806553 94.927 -36.4514
21.964572 94.888 -37.0992
22.123737 94.846 -37.7597
22.284054 94.804 -38.4304
22.445534 94.764 -39.1089
22.608183 94.728 -39.7925
22.772012 94.698 -40.4790
22.937027 94.675 -41.1661
23.103238 94.661 -41.8518
23.270654 94.658 -42.5344
23.439282 94.665 -43.2128
23.609133 94.683 -43.8859
23.780215 94.713 -44.5532
23.952536 94.755 -45.2146
24.126106 94.808 -45.8703
24.300934 94.872 -46.5208
24.477028 94.946 -47.1669
24.654399 95.028 -47.8094
24.833055 95.118 -48.4496
25.013005 95.213 -49.0890
25.194260 95.311 -49.7291
25.376828 95.412 -50.3716
25.560719 95.514 -51.0186
25.745942 95.615 -51.6718
25.932508 95.714 -52.3328
26.120426 95.810 -53.0031
26.309705 95.903 -53.6832
26.500356 95.991 -54.3734
26.692388 96.075 -55.0731
26.885812 96.154 -55.7807
27.080638 96.228 -56.4942
27.276876 96.298 -57.2112
27.474535 96.365 -57.9290
27.673627 96.429 -58.6451
27.874161 96.493 -59.3574
28.076149 96.559 -60.0644
28.279600 96.628 -60.7654
28.484526 96.704 -61.4605
28.690937 96.788 -62.1502
28.898843 96.884 -62.8358
29.108256 96.994 -63.5185
29.319186 97.117 -64.1999
29.531645 97.255 -64.8811
29.745644 97.407 -65.5631
29.961193 97.571 -66.2467
30.178304 97.744 -66.9322
30.396989 97.923 -67.6198
30.617258 98.103 -68.3093
30.839123 98.279 -69.0001
31.062596 98.447 -69.6914
31.287688 98.602 -70.3817
31.514412 98.739 -71.0693
31.742778 98.854 -71.7522
31.972800 98.945 -72.4283
32.204488 99.008 -73.0958
32.437855 99.043 -73.7536
32.672913 99.049 -74.4013
32.909674 99.027 -75.0396
33.148151 98.977 -75.6701
33.388356 98.902 -76.2949
33.630302 98.806 -76.9167
33.874001 98.691 -77.5378
34.119466 98.561 -78.1601
34.366710 98.420 -78.7848
34.615745 98.273 -79.4121
34.866585 98.125 -80.0418
35.119243 97.979 -80.6732
35.373731 97.841 -81.3053
35.630064 97.713 -81.9371
35.888254 97.600 -82.5672
36.148315 97.504 -83.1943
36.410261 97.427 -83.8164
36.674104 97.371 -84.4312
36.939860 97.338 -85.0361
37.207542 97.327 -85.6287
37.477163 97.339 -86.2069
37.748738 97.375 -86.7699
38.022281 97.435 -87.3182
38.297806 97.518 -87.8539
38.575327 97.625 -88.3801
38.854860 97.753 -88.9005
39.136419 97.902 -89.4190
39.420017 98.071 -89.9388
39.705671 98.258 -90.4624
39.993395 98.461 -90.9912
40.283203 98.679 -91.5260
40.575112 98.909 -92.0672
40.869136 99.151 -92.6152
41.165290 99.403 -93.1708
41.463591 99.662 -93.7348
41.764053 99.927 -94.3085
42.066693 100.195 -94.8928
42.371525 100.465 -95.4888
42.678567 100.734 -96.0970
42.987834 101.002 -96.7180
43.299341 101.265 -97.3522
43.613106 101.522 -97.9999
43.929145 101.772 -98.6614
44.247473 102.013 -99.3363
44.568109 102.242 -100.0229
44.891068 102.457 -100.7185
45.216367 102.658 -101.4188
45.544023 102.842 -102.1189
45.874054 103.008 -102.8141
46.206476 103.157 -103.5009
46.541307 103.287 -104.1780
46.878565 103.399 -104.8465
47.218266 103.494 -105.5092
47.560429 103.572 -106.1699
47.905072 103.634 -106.8322
48.252212 103.681 -107.4987
48.601867 103.715 -108.1706
48.954056 103.737 -108.8482
49.308798 103.749 -109.5311
49.666109 103.754 -110.2190
50.026010 103.752 -110.9117
50.388520 103.746 -111.6094
50.753656 103.738 -112.3126
51.121437 103.728 -113.0215
51.491884 103.718 -113.7364
51.865016 103.708 -114.4573
52.240851 103.701 -115.1841
52.619410 103.696 -115.9164
53.000712 103.694 -116.6537
53.384777 103.695 -117.3950
53.771625 103.697 -118.1391
54.161276 103.702 -118.8847
54.553751 103.708 -119.6300
54.949070 103.713 -120.3733
55.347254 103.717 -121.1129
55.748323 103.720 -121.8476
56.152298 103.719 -122.5767
56.559201 103.714 -123.3001
56.969052 103.706 -124.0184
57.381873 103.694 -124.7325
57.797686 103.677 -125.4439
58.216512 103.657 -126.1543
58.638373 103.633 -126.8656
59.063291 103.606 -127.5800
59.491288 103.576 -128.2993
59.922386 103.543 -129.0251
60.356608 103.508 -129.7579
60.793977 103.472 -130.4971
61.234515 103.433 -131.2417
61.678246 103.393 -131.9897
62.125192 103.353 -132.7393
62.575377 103.311 -133.4886
63.028824 103.270 -134.2357
63.485557 103.229 -134.9791
63.945599 103.189 -135.7176
64.408975 103.151 -136.4503
64.875709 103.114 -137.1763
65.345825 103.079 -137.8954
65.819348 103.046 -138.6073
66.296302 103.016 -139.3121
66.776713 102.988 -140.0099
67.260604 102.962 -140.7012
67.748002 102.938 -141.3867
68.238932 102.917 -142.0667
68.733420 102.897 -142.7417
69.231490 102.878 -143.4121
69.733170 102.861 -144.0779
70.238485 102.845 -144.7390
70.747463 102.829 -145.3951
71.260128 102.814 -146.0461
71.776508 102.799 -146.6915
72.296630 102.785 -147.3308
72.820521 102.770 -147.9637
73.348209 102.756 -148.5897
73.879720 102.742 -149.2084
74.415083 102.728 -149.8195
74.954326 102.714 -150.4229
75.497475 102.700 -151.0184
76.044561 102.686 -151.6063
76.595612 102.671 -152.1868
77.150655 102.655 -152.7604
77.709720 102.637 -153.3275
78.272837 102.616 -153.8887
78.840034 102.594 -154.4442
79.411342 102.568 -154.9944
79.986789 102.538 -155.5395
80.566406 102.505 -156.0794
81.150224 102.468 -156.6142
81.738272 102.427 -157.1437
82.330581 102.384 -157.6679
82.927182 102.338 -158.1867
83.528107 102.291 -158.7002
84.133386 102.245 -159.2087
84.743051 102.201 -159.7125
85.357134 102.163 -160.2117
85.975667 102.134 -160.7067
86.598682 102.116 -161.1976
87.226212 102.114 -161.6845
87.858289 102.130 -162.1675
88.494946 102.167 -162.6467
89.136217 102.227 -163.1218
89.782135 102.310 -163.5927
90.432733 102.417 -164.0590
91.088046 102.544 -164.5204
91.748108 102.689 -164.9765
92.412952 102.848 -165.4274
93.082615 103.015 -165.8731
93.757130 103.184 -166.3139
94.436533 103.351 -166.7501
95.120859 103.510 -167.1820
95.810144 103.657 -167.6097
96.504423 103.790 -168.0333
97.203734 103.905 -168.4525
97.908112 104.004 -168.8671
98.617595 104.084 -169.2763
99.332219 104.149 -169.6796
100.052021 104.198 -170.0761
100.777039 104.234 -170.4653
101.507311 104.260 -170.8463
102.242875 104.277 -171.2187
102.983769 104.287 -171.5821
103.730032 104.292 -171.9363
104.481702 104.291 -172.2815
105.238820 104.286 -172.6181
106.001424 104.275 -172.9466
106.769554 104.258 -173.2678
107.543250 104.232 -173.5825
108.322553 104.197 -173.8912
109.107503 104.150 -174.1945
109.898141 104.091 -174.4927
110.694508 104.018 -174.7858
111.496646 103.932 -175.0734
112.304596 103.833 -175.3552
113.118402 103.723 -175.6307
113.938104 103.602 -175.8993
114.763747 103.473 -176.1607
115.595372 103.338 -176.4147
116.433024 103.199 -176.6614
117.276746 103.058 -176.9015
118.126581 102.918 -177.1354
118.982575 102.779 -177.3641
119.844772 102.643 -177.5882
120.713217 102.510 -177.8081
121.587954 102.380 -178.0243
122.469031 102.252 -178.2368
123.356492 102.126 -178.4456
124.250384 101.999 -178.6507
125.150753 101.872 -178.8524
126.057647 101.742 -179.0508
126.971113 101.607 -179.2462
127.891198 101.468 -179.4386
128.817950 101.322 -179.6283
129.751418 101.170 -179.8152
130.691651 101.012 -179.9990
131.638696 100.849 179.8208
132.592604 100.681 179.6445
133.553425 100.512 179.4727
134.521208 100.343 179.3056
135.496004 100.178 179.1434
136.477864 100.021 178.9863
137.466839 99.874 178.8345
138.462981 99.741 178.6879
139.466340 99.624 178.5469
140.476971 99.526 178.4116
141.494925 99.447 178.2819
142.520256 99.386 178.1578
143.553016 99.342 178.0391
144.593260 99.312 177.9255
145.641043 99.293 177.8168
146.696418 99.280 177.7130
147.759441 99.269 177.6138
148.830166 99.258 177.5197
149.908651 99.242 177.4310
150.994951 99.220 177.3488
152.089123 99.191 177.2740
153.191223 99.154 177.2080
154.301310 99.111 177.1520
155.419441 99.061 177.1071
156.545674 99.008 177.0743
157.680069 98.952 177.0544
158.822683 98.896 177.0480
159.973578 98.841 177.0555
161.132813 98.789 177.0768
162.300447 98.741 177.1122
163.476543 98.697 177.1617
164.661162 98.658 177.2251
165.854364 98.625 177.3022
167.056213 98.597 177.3927
168.266772 98.577 177.4956
169.486102 98.562 177.6097
170.714268 98.555 177.7336
171.951334 98.556 177.8654
173.197364 98.564 178.0032
174.452424 98.580 178.1448
175.716578 98.603 178.2880
176.989893 98.633 178.4306
178.272434 98.669 178.5701
179.564270 98.709 178.7045
180.865467 98.753 178.8314
182.176092 98.798 178.9489
183.496216 98.844 179.0551
184.825905 98.890 179.1486
186.165229 98.935 179.2281
187.514259 98.978 179.2926
188.873065 99.020 179.3414
190.241717 99.061 179.3741
191.620287 99.100 179.3903
193.008847 99.139 179.3899
194.407468 99.178 179.3731
195.816225 99.216 179.3401
197.235190 99.254 179.2912
198.664438 99.291 179.2271
200.104042 99.327 179.1486
201.554078 99.361 179.0565
203.014622 99.393 178.9520
204.485750 99.422 178.8364
205.967538 99.447 178.7111
207.460064 99.467 178.5775
208.963405 99.483 178.4371
210.477640 99.495 178.2910
212.002848 99.502 178.1401
213.539108 99.506 177.9855
215.086500 99.506 177.8279
216.645105 99.503 177.6680
218.215005 99.496 177.5067
219.796281 99.487 177.3444
221.389015 99.475 177.1815
222.993292 99.460 177.0181
224.609193 99.441 176.8544
226.236804 99.417 176.6903
227.876209 99.388 176.5259
229.527494 99.353 176.3614
231.190745 99.312 176.1969
232.866048 99.266 176.0327
234.553491 99.213 175.8690
236.253163 99.156 175.7061
237.965150 99.094 175.5442
239.689544 99.028 175.3834
241.426433 98.960 175.2238
243.175909 98.890 175.0656
244.938062 98.820 174.9092
246.712984 98.750 174.7548
248.500768 98.681 174.6027
250.301507 98.614 174.4529
252.115295 98.550 174.3059
253.942226 98.490 174.1619
255.782396 98.434 174.0209
257.635901 98.382 173.8832
259.502837 98.335 173.7490
261.383301 98.294 173.6181
263.277392 98.259 173.4908
265.185209 98.230 173.3669
267.106850 98.207 173.2466
269.042417 98.191 173.1297
270.992009 98.180 173.0161
272.955729 98.174 172.9054
274.933678 98.173 172.7970
276.925961 98.176 172.6903
278.932681 98.182 172.5847
280.953942 98.191 172.4799
282.989850 98.203 172.3758
285.040511 98.217 172.2725
287.106032 98.234 172.1700
289.186521 98.254 172.0689
291.282086 98.279 171.9695
293.392836 98.309 171.8721
295.518881 98.344 171.7773
297.660333 98.385 171.6851
299.817302 98.432 171.5958
301.989902 98.483 171.5093
304.178245 98.538 171.4255
306.382446 98.595 171.3444
308.602620 98.653 171.2656
310.838882 98.708 171.1891
313.091348 98.761 171.1147
315.360137 98.809 171.0423
317.645367 98.850 170.9718
319.947156 98.885 170.9032
322.265625 98.911 170.8362
324.600895 98.928 170.7706
326.953086 98.936 170.7062
329.322323 98.933 170.6430
331.708729 98.920 170.5810
334.112427 98.897 170.5201
336.533543 98.864 170.4604
338.972204 98.820 170.4019
341.428536 98.768 170.3444
343.902668 98.707 170.2880
346.394729 98.639 170.2325
348.904848 98.566 170.1776
351.433156 98.490 170.1232
353.979786 98.412 170.0690
356.544869 98.336 170.0146
359.128540 98.264 169.9597
361.730934 98.198 169.9038
364.352185 98.143 169.8468
366.992431 98.100 169.7885
369.651810 98.072 169.7292
372.330459 98.060 169.6690
375.028519 98.065 169.6082
377.746130 98.089 169.5469
380.483434 98.129 169.4854
383.240574 98.185 169.4238
386.017693 98.254 169.3622
388.814937 98.334 169.3008
391.632450 98.422 169.2396
394.470380 98.516 169.1789
397.328875 98.612 169.1188
400.208084 98.709 169.0594
403.108157 98.805 169.0009
406.029245 98.898 168.9434
408.971500 98.988 168.8869
411.935076 99.074 168.8314
414.920127 99.157 168.7771
417.926810 99.238 168.7240
420.955280 99.316 168.6724
424.005695 99.393 168.6224
427.078215 99.469 168.5744
430.173000 99.546 168.5286
433.290211 99.623 168.4855
436.430010 99.700 168.4453
439.592562 99.777 168.4080
442.778031 99.852 168.3737
445.986583 99.925 168.3419
449.218386 99.995 168.3123
452.473607 100.059 168.2842
455.752418 100.115 168.2574
459.054987 100.164 168.2315
462.381489 100.202 168.2065
465.732096 100.231 168.1823
469.106983 100.250 168.1589
472.506325 100.258 168.1364
475.930301 100.256 168.1147
479.379088 100.246 168.0937
482.852867 100.228 168.0735
486.351817 100.203 168.0541
489.876123 100.173 168.0357
493.425968 100.138 168.0183
497.001536 100.099 168.0021
500.603014 100.056 167.9870
504.230589 100.011 167.9729
507.884452 99.962 167.9596
511.564792 99.911 167.9468
515.271802 99.858 167.9345
519.005673 99.803 167.9224
522.766602 99.747 167.9104
526.554785 99.691 167.8986
530.370418 99.636 167.8868
534.213700 99.586 167.8747
538.084833 99.541 167.8619
541.984018 99.504 167.8480
545.911457 99.475 167.8323
549.867357 99.456 167.8146
553.851922 99.447 167.7948
557.865362 99.446 167.7728
561.907884 99.454 167.7486
565.979700 99.466 167.7222
570.081022 99.483 167.6937
574.212064 99.501 167.6631
578.373042 99.519 167.6304
582.564171 99.534 167.5957
586.785671 99.545 167.5594
591.037762 99.551 167.5219
595.320665 99.550 167.4836
599.634604 99.542 167.4454
603.979804 99.527 167.4080
608.356491 99.505 167.3721
612.764893 99.477 167.3387
617.205240 99.442 167.3082
621.677763 99.404 167.2805
626.182696 99.363 167.2553
630.720274 99.321 167.2316
635.290733 99.281 167.2082
639.894312 99.243 167.1838
644.531250 99.211 167.1573
649.201789 99.185 167.1274
653.906173 99.166 167.0932
658.644647 99.155 167.0539
663.417457 99.153 167.0088
668.224854 99.157 166.9573
673.067086 99.168 166.8989
677.944408 99.182 166.8333
682.857073 99.200 166.7605
687.805336 99.218 166.6806
692.789457 99.236 166.5938
697.809695 99.252 166.5001
702.866312 99.264 166.3997
707.959571 99.272 166.2925
713.089738 99.275 166.1785
718.257080 99.274 166.0580
723.461867 99.267 165.9309
728.704370 99.255 165.7979
733.984862 99.239 165.6594
739.303619 99.219 165.5163
744.660918 99.196 165.3694
750.057038 99.170 165.2200
755.492260 99.141 165.0692
760.966869 99.111 164.9180
766.481148 99.080 164.7674
772.035387 99.047 164.6178
777.629873 99.012 164.4688
783.264900 98.974 164.3198
788.940760 98.933 164.1693
794.657750 98.889 164.0155
800.416168 98.840 163.8569
806.216313 98.785 163.6922
812.058489 98.724 163.5201
817.943000 98.657 163.3401
823.870152 98.582 163.1521
829.840255 98.501 162.9564
835.853619 98.414 162.7537
841.910559 98.320 162.5447
848.011390 98.222 162.3302
854.156430 98.120 162.1110
860.346000 98.015 161.8881
866.580422 97.907 161.6625
872.860020 97.799 161.4359
879.185124 97.691 161.2100
885.556062 97.585 160.9867
891.973166 97.480 160.7679
898.436771 97.380 160.5556
904.947215 97.284 160.3516
911.504835 97.194 160.1574
918.109975 97.112 159.9743
924.762978 97.037 159.8030
931.464192 96.973 159.6439
938.213966 96.918 159.4962
945.012651 96.874 159.3586
951.860602 96.840 159.2294
958.758176 96.816 159.1064
965.705733 96.801 158.9875
972.703635 96.795 158.8703
979.752246 96.797 158.7528
986.851935 96.806 158.6329
994.003071 96.821 158.5085
1001.206027 96.842 158.3778
1008.461179 96.868 158.2395
1015.768904 96.898 158.0923
1023.129584 96.934 157.9355
1030.543603 96.975 157.7687
1038.011347 97.022 157.5919
1045.533205 97.074 157.4055
1053.109569 97.133 157.2102
1060.740836 97.197 157.0065
1068.427401 97.267 156.7948
1076.169666 97.341 156.5755
1083.968035 97.419 156.3488
1091.822915 97.499 156.1155
1099.734713 97.578 155.8763
1107.703844 97.656 155.6324
1115.730723 97.728 155.3855
1123.815768 97.795 155.1379
1131.959400 97.853 154.8925
1140.162045 97.903 154.6528
1148.424129 97.943 154.4227
1156.746083 97.974 154.2065
1165.128342 97.996 154.0083
1173.571343 98.010 153.8315
1182.075524 98.019 153.6783
1190.641331 98.024 153.5493
1199.269209 98.027 153.4437
1207.959608 98.029 153.3593
1216.712981 98.032 153.2928
1225.529785 98.037 153.2412
1234.410479 98.042 153.2016
1243.355526 98.049 153.1717
1252.365393 98.055 153.1500
1261.440549 98.061 153.1359
1270.581467 98.064 153.1299
1279.788624 98.065 153.1336
1289.062500 98.062 153.1490
1298.403578 98.056 153.1787
1307.812346 98.046 153.2249
1317.289293 98.033 153.2888
1326.834914 98.019 153.3708
1336.449707 98.002 153.4696
1346.134173 97.985 153.5825
1355.888816 97.967 153.7057
1365.714145 97.949 153.8349
1375.610673 97.931 153.9657
1385.578915 97.912 154.0945
1395.619391 97.892 154.2193
1405.732624 97.870 154.3403
1415.919142 97.845 154.4595
1426.179476 97.818 154.5811
1436.514160 97.788 154.7101
1446.923734 97.756 154.8520
1457.408740 97.724 155.0120
1467.969724 97.692 155.1940
1478.607238 97.663 155.4005
1489.321836 97.637 155.6312
1500.114076 97.617 155.8840
1510.984521 97.604 156.1552
1521.933737 97.597 156.4396
1532.962297 97.597 156.7321
1544.070773 97.603 157.0277
1555.259747 97.616 157.3232
1566.529800 97.633 157.6166
1577.881521 97.654 157.9074
1589.315501 97.679 158.1959
1600.832336 97.706 158.4822
1612.432627 97.736 158.7657
1624.116978 97.767 159.0450
1635.886000 97.800 159.3182
1647.740304 97.835 159.5839
1659.680509 97.870 159.8410
1671.707238 97.907 160.0895
1683.821118 97.945 160.3300
1696.022780 97.983 160.5642
1708.312860 98.023 160.7939
1720.692000 98.065 161.0211
1733.160843 98.109 161.2473
1745.720041 98.154 161.4730
1758.370248 98.203 161.6970
1771.112124 98.254 161.9161
1783.946332 98.308 162.1261
1796.873543 98.363 162.3221
1809.894429 98.418 162.4996
1823.009670 98.474 162.6560
1836.219950 98.527 162.7905
1849.525956 98.579 162.9045
1862.928384 98.628 163.0012
1876.427931 98.673 163.0844
1890.025301 98.716 163.1589
1903.721204 98.757 163.2287
1917.516352 98.795 163.2964
1931.411466 98.832 163.3632
1945.407270 98.867 163.4287
1959.504493 98.901 163.4920
1973.703870 98.932 163.5517
1988.006142 98.960 163.6064
2002.412054 98.984 163.6548
2016.922357 99.003 163.6957
2031.537808 99.016 163.7278
2046.259169 99.023 163.7499
2061.087206 99.023 163.7605
2076.022694 99.015 163.7573
2091.066410 98.999 163.7383
2106.219139 98.976 163.7027
2121.481671 98.946 163.6509
2136.854802 98.908 163.5851
2152.339333 98.865 163.5078
2167.936071 98.818 163.4211
2183.645829 98.767 163.3262
2199.469427 98.715 163.2230
2215.407689 98.663 163.1100
2231.461446 98.613 162.9858
2247.631536 98.564 162.8485
2263.918800 98.517 162.6970
2280.324089 98.473 162.5305
2296.848258 98.431 162.3490
2313.492167 98.391 162.1521
2330.256685 98.353 161.9392
2347.142685 98.316 161.7094
2364.151049 98.279 161.4617
2381.282662 98.242 161.1956
2398.538418 98.205 160.9118
2415.919216 98.165 160.6118
2433.425962 98.123 160.2980
2451.059570 98.079 159.9730
2468.820958 98.032 159.6396
2486.711052 97.982 159.3004
2504.730786 97.930 158.9590
2522.881098 97.874 158.6194
2541.162934 97.816 158.2867
2559.577248 97.757 157.9666
2578.125000 97.696 157.6645
2596.807157 97.637 157.3850
2615.624692 97.579 157.1313
2634.578586 97.526 156.9047
2653.669829 97.477 156.7048
2672.899414 97.435 156.5307
2692.268345 97.400 156.3809
2711.777632 97.373 156.2546
2731.428290 97.352 156.1519
2751.221345 97.338 156.0738
2771.157829 97.329 156.0223
2791.238781 97.323 156.0005
2811.465248 97.319 156.0125
2831.838284 97.316 156.0634
2852.358952 97.310 156.1589
2873.028321 97.302 156.3055
2893.847468 97.290 156.5093
2914.817480 97.272 156.7762
2935.939449 97.249 157.1110
2957.214476 97.221 157.5173
2978.643672 97.186 157.9968
3000.228152 97.147 158.5497
3021.969041 97.105 159.1741
3043.867475 97.060 159.8661
3065.924593 97.014 160.6205
3088.141547 96.968 161.4306
3110.519493 96.925 162.2887
3133.059600 96.886 163.1857
3155.763041 96.853 164.1111
3178.631001 96.827 165.0522
3201.664672 96.812 165.9944
3224.865254 96.807 166.9213
3248.233957 96.812 167.8160
3271.771999 96.829 168.6624
3295.480608 96.856 169.4464
3319.361019 96.891 170.1578
3343.414477 96.934 170.7909
3367.642236 96.981 171.3454
3392.045560 97.031 171.8253
3416.625721 97.084 172.2383
3441.383999 97.139 172.5933
3466.321686 97.195 172.8985
3491.440082 97.255 173.1595
3516.740496 97.319 173.3780
3542.224247 97.387 173.5516
3567.892664 97.462 173.6741
3593.747085 97.542 173.7371
3619.788858 97.628 173.7315
3646.019340 97.718 173.6498
3672.439900 97.810 173.4874
3699.051913 97.902 173.2436
3725.856768 97.991 172.9219
3752.855862 98.075 172.5297
3780.050603 98.152 172.0775
3807.442408 98.221 171.5777
3835.032705 98.279 171.0444
3862.822933 98.326 170.4919
3890.814540 98.363 169.9340
3919.008986 98.388 169.3838
3947.407741 98.402 168.8530
3976.012284 98.405 168.3516
4004.824108 98.399 167.8879
4033.844715 98.383 167.4683
4063.075616 98.359 167.0972
4092.518337 98.327 166.7775
4122.174412 98.287 166.5112
4152.045387 98.240 166.2998
4182.132820 98.187 166.1449
4212.438278 98.126 166.0486
4242.963342 98.059 166.0139
4273.709604 97.986 166.0443
4304.678665 97.906 166.1442
4335.872141 97.821 166.3179
4367.291658 97.730 166.5702
4398.938854 97.635 166.9053
4430.815378 97.535 167.3273
4462.922893 97.431 167.8402
4495.263072 97.324 168.4474
4527.837601 97.214 169.1521
4560.648179 97.103 169.9569
4593.696515 96.991 170.8636
4626.984334 96.879 171.8726
4660.513370 96.770 172.9827
4694.285371 96.665 174.1906
4728.302098 96.566 175.4915
4762.565324 96.477 176.8778
4797.076835 96.400 178.3405
4831.838432 96.336 179.8687
4866.851925 96.290 -178.5503
4902.119140 96.263 -176.9299
4937.641916 96.258 -175.2848
4973.422105 96.276 -173.6300
5009.461572 96.319 -171.9808
5045.762195 96.388 -170.3525
5082.325868 96.482 -168.7602
5119.154496 96.603 -167.2184
5156.250000 96.749 -165.7415
5193.614313 96.919 -164.3434
5231.249383 97.113 -163.0378
5269.157173 97.329 -161.8382
5307.339658 97.564 -160.7575
5345.798829 97.817 -159.8085
5384.536691 98.086 -159.0034
5423.555263 98.367 -158.3532
5462.856580 98.659 -157.8681
5502.442691 98.958 -157.5565
5542.315659 99.263 -157.4248
5582.477563 99.570 -157.4771
5622.930497 99.876 -157.7152
5663.676569 100.180 -158.1378
5704.717904 100.477 -158.7408
5746.056642 100.766 -159.5167
5787.694937 101.043 -160.4546
5829.634960 101.307 -161.5403
5871.878898 101.553 -162.7563
5914.428953 101.781 -164.0819
5957.287343 101.988 -165.4935
6000.456303 102.173 -166.9651
6043.938083 102.335 -168.4688
6087.734950 102.473 -169.9759
6131.849187 102.589 -171.4578
6176.283094 102.683 -172.8876
6221.038987 102.758 -174.2419
6266.119200 102.816 -175.5016
6311.526083 102.862 -176.6537
6357.262002 102.899 -177.6920
6403.329344 102.931 -178.6178
6449.730508 102.965 -179.4405
6496.467914 103.004 179.8232
6543.543998 103.053 179.1492
6590.961215 103.116 178.5074
6638.722037 103.198 177.8630
6686.828954 103.300 177.1774
6735.284473 103.424 176.4113
6784.091120 103.571 175.5253
6833.251441 103.738 174.4832
6882.767998 103.925 173.2529
6932.643372 104.127 171.8085
6982.880164 104.341 170.1307
7033.480992 104.560 168.2070
7084.448495 104.782 166.0309
7135.785329 105.000 163.6006
7187.494171 105.210 160.9176
7239.577717 105.409 157.9855
7292.038681 105.592 154.8085
7344.879799 105.754 151.3909
7398.103826 105.890 147.7373
7451.713536 105.997 143.8528
7505.711724 106.069 139.7443
7560.101205 106.099 135.4219
7614.884815 106.081 130.8997
7670.065409 106.011 126.1964
7725.645865 105.882 121.3359
7781.629080 105.691 116.3451
7838.017972 105.434 111.2520
7894.815481 105.110 106.0820
7952.024569 104.720 100.8542
8009.648217 104.264 95.5770
8067.689429 103.748 90.2445
8126.151233 103.174 84.8321
8185.036674 102.550 79.2927
8244.348824 101.883 73.5511
8304.090774 101.182 67.4983
8364.265639 100.459 60.9830
8424.876556 99.731 53.8037
8485.926684 99.015 45.7047
8547.419207 98.336 36.3864
8609.357330 97.723 25.5574
8671.744282 97.205 13.0646
8734.583316 96.811 -0.8995
8797.877707 96.562 -15.6469
8861.630756 96.466 -30.1615
8925.845785 96.517 -43.5620
8990.526143 96.694 -55.4293
9055.675202 96.972 -65.7685
9121.296357 97.323 -74.8024
9187.393031 97.719 -82.8063
9253.968668 98.138 -90.0315
9321.026740 98.563 -96.6837
9388.570742 98.977 -102.9238
9456.604196 99.370 -108.8746
9525.130648 99.731 -114.6290
9594.153671 100.050 -120.2548
9663.676863 100.321 -125.7992
9733.703850 100.536 -131.2911
9804.238280 100.690 -136.7437
9875.283832 100.776 -142.1543
9946.844210 100.790 -147.5067
10018.923143 100.728 -152.7717
10091.524390 100.589 -157.9089
10164.651736 100.371 -162.8699
10238.308993 100.077 -167.6028
10312.500000 99.711 -172.0579
10387.228626 99.279 -176.1926
10462.498767 98.789 -179.9776
10538.314345 98.251 176.6011
10614.679315 97.678 173.5402
10691.597657 97.080 170.8190
10769.073381 96.470 168.4007
10847.110526 95.860 166.2352
10925.713161 95.260 164.2617
11004.885382 94.679 162.4131
11084.631318 94.123 160.6201
11164.955126 93.596 158.8148
11245.860993 93.099 156.9337
11327.353138 92.631 154.9195
11409.435808 92.188 152.7214
11492.113283 91.766 150.2952
11575.389873 91.360 147.6021
11659.269920 90.965 144.6079
11743.757796 90.574 141.2827
11828.857906 90.184 137.5999
11914.574686 89.786 133.5370
12000.912606 89.375 129.0754
12087.876166 88.942 124.2013
12175.469900 88.482 118.9042
12263.698373 87.986 113.1768
12352.566187 87.447 107.0114
12442.077974 86.863 100.3964
12532.238400 86.232 93.3140
12623.052165 85.556 85.7417
12714.524005 84.845 77.6678
12806.658687 84.116 69.1235
12899.461015 83.394 60.2285
12992.935827 82.719 51.2286
13087.087996 82.144 42.4756
13181.922430 81.728 34.3318
13277.444074 81.525 27.0404
13373.657907 81.564 20.6516
13470.568945 81.835 15.0452
13568.182241 82.295 10.0095
13666.502883 82.886 5.3196
13765.535996 83.548 0.7832
13865.286744 84.234 -3.7423
13965.760328 84.908 -8.3518
14066.961984 85.546 -13.0999
14168.896989 86.129 -18.0084
14271.570658 86.645 -23.0723
14374.988342 87.084 -28.2645
14479.155433 87.440 -33.5395
14584.077362 87.711 -38.8380
14689.759598 87.898 -44.0908
14796.207652 88.004 -49.2249
14903.427072 88.039 -54.1726
15011.423448 88.018 -58.8823
15120.202410 87.959 -63.3309
15229.769630 87.886 -67.5327
15340.130819 87.819 -71.5386
15451.291730 87.776 -75.4283
15563.258160 87.765 -79.2971
15676.035944 87.786 -83.2401
15789.630962 87.833 -87.3392
15904.049137 87.889 -91.6532
16019.296433 87.937 -96.2131
16135.378859 87.960 -101.0211
16252.302465 87.941 -106.0546
16370.073348 87.869 -111.2720
16488.697648 87.735 -116.6199
16608.181548 87.533 -122.0385
16728.531278 87.262 -127.4672
16849.753112 86.923 -132.8478
16971.853368 86.517 -138.1281
17094.838414 86.052 -143.2656
17218.714660 85.534 -148.2310
17343.488565 84.973 -153.0117
17469.166632 84.383 -157.6149
17595.755415 83.778 -162.0688
17723.261512 83.177 -166.4221
17851.691571 82.597 -170.7407
17981.052287 82.059 -175.1073
18111.350404 81.581 -179.6190
18242.592715 81.176 175.6150
18374.786062 80.848 170.4813
18507.937336 80.593 164.8774
18642.053479 80.396 158.7285
18777.141484 80.236 152.0029
18913.208391 80.094 144.7239
19050.261296 79.952 136.9810
19188.307342 79.803 128.9456
19327.353727 79.642 120.8850
19467.407699 79.476 113.1658
19608.476560 79.314 106.2274
19750.567664 79.172 100.5286
19893.688419 79.066 96.4774
20037.846286 79.009 94.3735
