* Measurement data measured by REW V5.31.3
* Source: EXCL: Headset (USB-C to 3.5mm Headphone Jack Adapter), MICROPHONE (Master Volume), 0, volume: 0.750
* Format: 256k Log Swept Sine, 1 sweep at -12.0 dBFS with no timing reference
* Dated: Apr 1, 2025 11:03:59 PM
* REW Settings:
*  C-weighting compensation: Off
*  Target level: 75.0 dB
* Note: ; 
* Measurement: Satyr 3 (Stock) L17
* Smoothing: 1/6 octave
* Frequency Step: 96 ppo
* Start Frequency: 20.0 Hz
*
* Freq(Hz) SPL(dB) Phase(degrees)
20.187378 82.264 -91.4088
20.333664 82.291 -91.4355
20.481010 82.329 -91.4730
20.629424 82.377 -91.5226
20.778913 82.435 -91.5862
20.929486 82.502 -91.6660
21.081150 82.578 -91.7646
21.233912 82.662 -91.8848
21.387782 82.752 -92.0296
21.542767 82.847 -92.2016
21.698874 82.946 -92.4029
21.856113 83.047 -92.6350
22.014492 83.148 -92.8984
22.174018 83.248 -93.1928
22.334700 83.345 -93.5167
22.496546 83.437 -93.8676
22.659566 83.524 -94.2422
22.823766 83.606 -94.6370
22.989157 83.681 -95.0478
23.155745 83.752 -95.4710
23.323542 83.817 -95.9033
23.492554 83.877 -96.3423
23.662790 83.935 -96.7865
23.834261 83.991 -97.2352
24.006973 84.046 -97.6881
24.180938 84.101 -98.1456
24.356163 84.156 -98.6074
24.532658 84.212 -99.0726
24.710431 84.268 -99.5395
24.889493 84.324 -100.0049
25.069853 84.380 -100.4649
25.251519 84.435 -100.9149
25.434502 84.488 -101.3503
25.618811 84.540 -101.7675
25.804456 84.590 -102.1640
25.991445 84.638 -102.5399
26.179790 84.684 -102.8976
26.369500 84.729 -103.2417
26.560584 84.772 -103.5791
26.753053 84.814 -103.9179
26.946917 84.856 -104.2663
27.142185 84.897 -104.6321
27.338869 84.937 -105.0210
27.536977 84.977 -105.4366
27.736522 85.016 -105.8796
27.937512 85.056 -106.3481
28.139959 85.095 -106.8379
28.343872 85.137 -107.3435
28.549264 85.179 -107.8585
28.756143 85.225 -108.3768
28.964522 85.272 -108.8932
29.174411 85.323 -109.4036
29.385821 85.377 -109.9055
29.598763 85.432 -110.3979
29.813248 85.490 -110.8808
30.029287 85.548 -111.3547
30.246891 85.607 -111.8211
30.466073 85.666 -112.2814
30.686842 85.725 -112.7372
30.909212 85.783 -113.1904
31.133193 85.843 -113.6427
31.358797 85.904 -114.0962
31.586035 85.968 -114.5528
31.814921 86.036 -115.0145
32.045465 86.109 -115.4829
32.277680 86.187 -115.9591
32.511577 86.271 -116.4436
32.747169 86.361 -116.9363
32.984469 86.455 -117.4363
33.223488 86.553 -117.9422
33.464239 86.654 -118.4523
33.706735 86.756 -118.9643
33.950987 86.859 -119.4761
34.197010 86.960 -119.9854
34.444816 87.060 -120.4901
34.694417 87.158 -120.9881
34.945827 87.253 -121.4777
35.199059 87.346 -121.9573
35.454126 87.436 -122.4256
35.711041 87.524 -122.8818
35.969818 87.609 -123.3255
36.230470 87.693 -123.7569
36.493011 87.776 -124.1772
36.757455 87.857 -124.5882
37.023814 87.936 -124.9928
37.292104 88.014 -125.3949
37.562338 88.089 -125.7988
37.834530 88.163 -126.2091
38.108695 88.235 -126.6299
38.384846 88.304 -127.0645
38.662999 88.372 -127.5146
38.943167 88.438 -127.9804
39.225365 88.503 -128.4601
39.509608 88.566 -128.9507
39.795911 88.628 -129.4483
40.084289 88.689 -129.9482
40.374756 88.748 -130.4464
40.667328 88.806 -130.9389
40.962020 88.862 -131.4227
41.258848 88.917 -131.8956
41.557827 88.969 -132.3564
41.858972 89.018 -132.8045
42.162299 89.066 -133.2400
42.467824 89.112 -133.6634
42.775564 89.157 -134.0754
43.085533 89.201 -134.4767
43.397749 89.245 -134.8678
43.712227 89.289 -135.2491
44.028983 89.332 -135.6216
44.348036 89.375 -135.9864
44.669400 89.418 -136.3455
44.993093 89.461 -136.7016
45.319131 89.504 -137.0582
45.647532 89.546 -137.4188
45.978313 89.588 -137.7870
46.311491 89.630 -138.1656
46.647083 89.671 -138.5567
46.985107 89.712 -138.9607
47.325581 89.752 -139.3771
47.668521 89.790 -139.8045
48.013947 89.827 -140.2408
48.361876 89.862 -140.6844
48.712326 89.895 -141.1340
49.065315 89.925 -141.5892
49.420863 89.953 -142.0500
49.778987 89.977 -142.5166
50.139706 89.998 -142.9888
50.503039 90.016 -143.4662
50.869005 90.030 -143.9475
51.237623 90.042 -144.4315
51.608912 90.050 -144.9167
51.982891 90.056 -145.4014
52.359580 90.060 -145.8839
52.739000 90.061 -146.3624
53.121168 90.062 -146.8354
53.506106 90.062 -147.3018
53.893833 90.062 -147.7616
54.284370 90.063 -148.2155
54.677737 90.066 -148.6650
55.073955 90.070 -149.1124
55.473043 90.075 -149.5605
55.875024 90.082 -150.0120
56.279917 90.091 -150.4698
56.687745 90.101 -150.9358
57.098527 90.112 -151.4110
57.512287 90.126 -151.8947
57.929045 90.140 -152.3844
58.348822 90.156 -152.8757
58.771642 90.173 -153.3630
59.197525 90.189 -153.8397
59.626495 90.204 -154.2994
60.058573 90.217 -154.7375
60.493782 90.229 -155.1523
60.932145 90.241 -155.5458
61.373685 90.252 -155.9228
61.818424 90.264 -156.2901
62.266386 90.277 -156.6540
62.717593 90.293 -157.0197
63.172071 90.311 -157.3906
63.629842 90.331 -157.7682
64.090930 90.353 -158.1529
64.555359 90.376 -158.5443
65.023154 90.401 -158.9416
65.494339 90.426 -159.3434
65.968938 90.452 -159.7484
66.446976 90.478 -160.1548
66.928478 90.504 -160.5609
67.413469 90.529 -160.9653
67.901975 90.555 -161.3668
68.394021 90.580 -161.7647
68.889632 90.604 -162.1588
69.388835 90.627 -162.5490
69.891655 90.648 -162.9355
70.398118 90.667 -163.3188
70.908252 90.684 -163.6989
71.422083 90.699 -164.0764
71.939636 90.710 -164.4519
72.460941 90.719 -164.8258
72.986023 90.726 -165.1989
73.514909 90.729 -165.5715
74.047629 90.730 -165.9437
74.584208 90.728 -166.3150
75.124676 90.724 -166.6848
75.669061 90.717 -167.0518
76.217390 90.709 -167.4153
76.769692 90.698 -167.7744
77.325997 90.685 -168.1285
77.886333 90.670 -168.4775
78.450730 90.653 -168.8216
79.019216 90.635 -169.1611
79.591822 90.615 -169.4965
80.168577 90.594 -169.8281
80.749512 90.572 -170.1561
81.334656 90.549 -170.4808
81.924040 90.526 -170.8020
82.517696 90.501 -171.1199
83.115653 90.476 -171.4344
83.717943 90.451 -171.7460
84.324598 90.425 -172.0550
84.935649 90.399 -172.3618
85.551128 90.372 -172.6668
86.171066 90.346 -172.9703
86.795497 90.320 -173.2721
87.424453 90.293 -173.5720
88.057967 90.266 -173.8692
88.696071 90.239 -174.1632
89.338800 90.212 -174.4535
89.986185 90.185 -174.7401
90.638262 90.157 -175.0229
91.295065 90.129 -175.3026
91.956626 90.101 -175.5797
92.622982 90.073 -175.8545
93.294166 90.044 -176.1278
93.970214 90.016 -176.3998
94.651161 89.987 -176.6706
95.337042 89.959 -176.9401
96.027894 89.930 -177.2079
96.723752 89.902 -177.4733
97.424652 89.874 -177.7356
98.130631 89.846 -177.9942
98.841726 89.819 -178.2485
99.557974 89.793 -178.4983
100.279412 89.766 -178.7433
101.006078 89.741 -178.9838
101.738010 89.716 -179.2200
102.475245 89.692 -179.4523
103.217823 89.668 -179.6817
103.965782 89.646 -179.9088
104.719161 89.625 179.8657
105.477999 89.605 179.6415
106.242336 89.586 179.4191
107.012212 89.568 179.1992
107.787666 89.552 178.9826
108.568740 89.535 178.7701
109.355474 89.520 178.5622
110.147909 89.506 178.3589
110.946086 89.492 178.1604
111.750047 89.478 177.9664
112.559834 89.465 177.7766
113.375489 89.453 177.5901
114.197055 89.440 177.4066
115.024574 89.428 177.2251
115.858089 89.416 177.0449
116.697645 89.403 176.8657
117.543284 89.390 176.6872
118.395051 89.376 176.5093
119.252990 89.362 176.3321
120.117147 89.346 176.1554
120.987565 89.330 175.9794
121.864291 89.312 175.8044
122.747370 89.293 175.6308
123.636848 89.273 175.4595
124.532771 89.251 175.2917
125.435187 89.229 175.1290
126.344142 89.206 174.9730
127.259684 89.181 174.8256
128.181860 89.156 174.6884
129.110718 89.129 174.5629
130.046308 89.101 174.4497
130.988677 89.072 174.3497
131.937875 89.042 174.2629
132.893951 89.012 174.1893
133.856956 88.981 174.1282
134.826938 88.951 174.0781
135.803950 88.921 174.0371
136.788041 88.892 174.0027
137.779264 88.863 173.9721
138.777669 88.836 173.9423
139.783309 88.809 173.9107
140.796237 88.783 173.8750
141.816504 88.757 173.8338
142.844165 88.731 173.7867
143.879273 88.704 173.7340
144.921881 88.676 173.6770
145.972045 88.647 173.6172
147.029819 88.616 173.5568
148.095257 88.584 173.4976
149.168417 88.551 173.4417
150.249353 88.515 173.3912
151.338121 88.479 173.3481
152.434780 88.441 173.3144
153.539385 88.402 173.2921
154.651995 88.364 173.2831
155.772667 88.325 173.2889
156.901460 88.287 173.3102
158.038432 88.249 173.3475
159.183644 88.213 173.4004
160.337154 88.179 173.4682
161.499023 88.147 173.5495
162.669312 88.116 173.6425
163.848081 88.089 173.7454
165.035392 88.065 173.8560
166.231306 88.043 173.9719
167.435887 88.025 174.0908
168.649196 88.010 174.2103
169.871298 87.999 174.3276
171.102255 87.991 174.4400
172.342133 87.985 174.5450
173.590995 87.982 174.6400
174.848907 87.981 174.7227
176.115934 87.982 174.7914
177.392143 87.984 174.8446
178.677599 87.986 174.8812
179.972371 87.989 174.9005
181.276525 87.993 174.9025
182.590129 87.996 174.8877
183.913252 87.998 174.8569
185.245964 88.000 174.8113
186.588332 88.001 174.7524
187.940428 88.001 174.6817
189.302322 87.999 174.6006
190.674085 87.995 174.5108
192.055788 87.990 174.4138
193.447503 87.984 174.3113
194.849303 87.975 174.2054
196.261262 87.965 174.0984
197.683452 87.954 173.9925
199.115948 87.941 173.8898
200.558824 87.928 173.7915
202.012156 87.914 173.6984
203.476019 87.899 173.6102
204.950490 87.884 173.5259
206.435646 87.869 173.4442
207.931564 87.854 173.3640
209.438322 87.839 173.2846
210.955998 87.824 173.2056
212.484672 87.808 173.1269
214.024424 87.793 173.0485
215.575333 87.777 172.9708
217.137481 87.762 172.8942
218.710948 87.747 172.8194
220.295818 87.732 172.7473
221.892172 87.718 172.6784
223.500094 87.705 172.6133
225.119668 87.693 172.5526
226.750978 87.682 172.4963
228.394109 87.672 172.4449
230.049147 87.664 172.3982
231.716178 87.657 172.3556
233.395289 87.651 172.3163
235.086567 87.646 172.2792
236.790102 87.643 172.2437
238.505980 87.641 172.2090
240.234293 87.640 172.1750
241.975130 87.639 172.1417
243.728581 87.639 172.1093
245.494739 87.640 172.0782
247.273695 87.641 172.0486
249.065542 87.643 172.0206
250.870374 87.644 171.9941
252.688284 87.646 171.9686
254.519367 87.648 171.9433
256.363720 87.650 171.9177
258.221437 87.652 171.8911
260.092616 87.653 171.8633
261.977354 87.654 171.8344
263.875750 87.655 171.8047
265.787903 87.656 171.7748
267.713911 87.656 171.7456
269.653877 87.656 171.7179
271.607900 87.656 171.6924
273.576083 87.656 171.6696
275.558528 87.657 171.6495
277.555338 87.658 171.6321
279.566619 87.659 171.6173
281.592474 87.660 171.6048
283.633009 87.663 171.5942
285.688331 87.666 171.5851
287.758546 87.670 171.5772
289.843763 87.675 171.5703
291.944090 87.681 171.5646
294.059638 87.687 171.5603
296.190515 87.694 171.5578
298.336833 87.702 171.5573
300.498705 87.710 171.5589
302.676243 87.718 171.5623
304.869559 87.727 171.5676
307.078770 87.736 171.5744
309.303989 87.746 171.5826
311.545334 87.756 171.5921
313.802919 87.767 171.6023
316.076865 87.778 171.6130
318.367288 87.790 171.6236
320.674309 87.801 171.6339
322.998047 87.812 171.6433
325.338624 87.824 171.6517
327.696162 87.834 171.6587
330.070783 87.844 171.6642
332.462612 87.854 171.6682
334.871773 87.862 171.6706
337.298392 87.870 171.6717
339.742595 87.877 171.6722
342.204510 87.882 171.6730
344.684265 87.887 171.6755
347.181989 87.891 171.6807
349.697813 87.895 171.6895
352.231868 87.897 171.7021
354.784285 87.900 171.7183
357.355198 87.901 171.7373
359.944741 87.903 171.7581
362.553049 87.903 171.7798
365.180258 87.903 171.8016
367.826505 87.902 171.8226
370.491927 87.901 171.8423
373.176665 87.899 171.8600
375.880856 87.897 171.8752
378.604644 87.894 171.8875
381.348169 87.892 171.8964
384.111575 87.888 171.9019
386.895006 87.885 171.9040
389.698607 87.881 171.9032
392.522524 87.877 171.8999
395.366904 87.872 171.8948
398.231895 87.867 171.8888
401.117648 87.861 171.8826
404.024312 87.854 171.8773
406.952038 87.845 171.8736
409.900981 87.836 171.8728
412.871292 87.824 171.8759
415.863128 87.812 171.8836
418.876643 87.798 171.8966
421.911996 87.782 171.9151
424.969344 87.765 171.9384
428.048847 87.748 171.9654
431.150666 87.729 171.9950
434.274961 87.710 172.0259
437.421897 87.689 172.0569
440.591636 87.669 172.0875
443.784345 87.647 172.1173
447.000189 87.625 172.1461
450.239337 87.602 172.1737
453.501956 87.579 172.2002
456.788219 87.555 172.2255
460.098294 87.531 172.2497
463.432356 87.508 172.2729
466.790578 87.485 172.2955
470.173135 87.463 172.3174
473.580203 87.441 172.3390
477.011961 87.421 172.3604
480.468586 87.401 172.3815
483.950259 87.382 172.4022
487.457163 87.365 172.4224
490.989478 87.348 172.4419
494.547390 87.332 172.4607
498.131084 87.317 172.4791
501.740748 87.304 172.4974
505.376568 87.291 172.5164
509.038735 87.281 172.5365
512.727439 87.271 172.5584
516.442874 87.264 172.5824
520.185232 87.259 172.6087
523.954708 87.256 172.6370
527.751500 87.255 172.6668
531.575805 87.257 172.6975
535.427822 87.261 172.7283
539.307753 87.267 172.7585
543.215800 87.276 172.7877
547.152165 87.288 172.8153
551.117055 87.302 172.8415
555.110677 87.318 172.8660
559.133237 87.336 172.8890
563.184947 87.356 172.9104
567.266018 87.378 172.9301
571.376661 87.402 172.9481
575.517092 87.427 172.9642
579.687526 87.453 172.9782
583.888181 87.480 172.9900
588.119275 87.508 172.9996
592.381030 87.535 173.0071
596.673667 87.562 173.0129
600.997410 87.589 173.0174
605.352485 87.615 173.0212
609.739119 87.641 173.0248
614.157540 87.665 173.0284
618.607979 87.689 173.0323
623.090667 87.712 173.0367
627.605839 87.734 173.0416
632.153730 87.756 173.0466
636.734576 87.777 173.0509
641.348617 87.798 173.0538
645.996094 87.819 173.0537
650.677248 87.839 173.0492
655.392323 87.859 173.0383
660.141566 87.879 173.0192
664.925224 87.898 172.9905
669.743546 87.916 172.9512
674.596784 87.933 172.9011
679.485191 87.949 172.8407
684.409020 87.962 172.7713
689.368530 87.974 172.6947
694.363979 87.983 172.6129
699.395626 87.990 172.5280
704.463736 87.995 172.4424
709.568570 87.998 172.3581
714.710396 87.998 172.2770
719.889483 87.998 172.2003
725.106099 87.996 172.1281
730.360516 87.993 172.0596
735.653010 87.990 171.9925
740.983855 87.987 171.9242
746.353329 87.983 171.8517
751.761713 87.980 171.7725
757.209288 87.975 171.6845
762.696339 87.971 171.5866
768.223151 87.965 171.4781
773.790013 87.958 171.3589
779.397214 87.950 171.2298
785.045047 87.941 171.0917
790.733808 87.930 170.9460
796.463791 87.918 170.7941
802.235296 87.905 170.6375
808.048623 87.891 170.4771
813.904077 87.876 170.3143
819.801961 87.861 170.1498
825.742584 87.846 169.9842
831.726255 87.831 169.8177
837.753287 87.816 169.6498
843.823992 87.802 169.4799
849.938689 87.790 169.3064
856.097695 87.778 169.1276
862.301332 87.767 168.9419
868.549922 87.756 168.7480
874.843793 87.747 168.5453
881.183272 87.737 168.3334
887.568689 87.728 168.1126
894.000378 87.718 167.8835
900.478673 87.708 167.6471
907.003913 87.698 167.4050
913.576437 87.687 167.1590
920.196588 87.676 166.9109
926.864712 87.665 166.6625
933.581156 87.655 166.4149
940.346270 87.645 166.1684
947.160407 87.636 165.9230
954.023921 87.628 165.6780
960.937172 87.623 165.4323
967.900519 87.618 165.1849
974.914325 87.615 164.9350
981.978956 87.614 164.6825
989.094780 87.614 164.4276
996.262169 87.615 164.1711
1003.481495 87.617 163.9140
1010.753136 87.621 163.6569
1018.077470 87.626 163.3998
1025.454879 87.633 163.1423
1032.885748 87.641 162.8836
1040.370463 87.650 162.6223
1047.909417 87.660 162.3571
1055.503000 87.670 162.0873
1063.151610 87.680 161.8128
1070.855645 87.689 161.5344
1078.615506 87.697 161.2540
1086.431599 87.704 160.9741
1094.304330 87.709 160.6972
1102.234110 87.713 160.4254
1110.221353 87.716 160.1598
1118.266475 87.717 159.9003
1126.369895 87.717 159.6461
1134.532035 87.716 159.3960
1142.753322 87.714 159.1490
1151.034184 87.709 158.9053
1159.375052 87.703 158.6660
1167.776361 87.693 158.4331
1176.238550 87.681 158.2099
1184.762060 87.667 157.9998
1193.347334 87.651 157.8061
1201.994821 87.633 157.6309
1210.704971 87.615 157.4750
1219.478238 87.596 157.3375
1228.315080 87.578 157.2163
1237.215957 87.561 157.1084
1246.181334 87.545 157.0111
1255.211678 87.530 156.9224
1264.307459 87.515 156.8414
1273.469152 87.501 156.7676
1282.697235 87.487 156.7007
1291.992188 87.474 156.6404
1301.354495 87.461 156.5859
1310.784647 87.448 156.5365
1320.283132 87.436 156.4914
1329.850448 87.423 156.4504
1339.487093 87.409 156.4139
1349.193569 87.395 156.3831
1358.970381 87.381 156.3598
1368.818041 87.366 156.3461
1378.737061 87.351 156.3434
1388.727958 87.336 156.3525
1398.791253 87.321 156.3737
1408.927471 87.308 156.4062
1419.137140 87.296 156.4492
1429.420793 87.285 156.5021
1439.778965 87.275 156.5648
1450.212197 87.267 156.6382
1460.721033 87.259 156.7239
1471.306019 87.254 156.8232
1481.967709 87.250 156.9363
1492.706658 87.247 157.0619
1503.523426 87.246 157.1981
1514.418576 87.246 157.3431
1525.392678 87.245 157.4969
1536.446302 87.244 157.6613
1547.580025 87.241 157.8401
1558.794428 87.236 158.0374
1570.090095 87.230 158.2570
1581.467615 87.222 158.5010
1592.927581 87.213 158.7700
1604.470591 87.203 159.0625
1616.097246 87.192 159.3756
1627.808153 87.180 159.7056
1639.603922 87.168 160.0492
1651.485168 87.155 160.4040
1663.452510 87.140 160.7688
1675.506573 87.125 161.1435
1687.647984 87.109 161.5290
1699.877377 87.091 161.9268
1712.195390 87.073 162.3384
1724.602663 87.055 162.7648
1737.099845 87.038 163.2064
1749.687587 87.021 163.6624
1762.366544 87.006 164.1317
1775.137379 86.993 164.6125
1788.000756 86.983 165.1021
1800.957346 86.976 165.5970
1814.007826 86.971 166.0937
1827.152874 86.969 166.5881
1840.393177 86.970 167.0773
1853.729425 86.972 167.5590
1867.162312 86.977 168.0317
1880.692540 86.983 168.4941
1894.320813 86.991 168.9444
1908.047843 87.000 169.3804
1921.874344 87.010 169.7995
1935.801038 87.020 170.1996
1949.828650 87.031 170.5800
1963.957912 87.042 170.9407
1978.189561 87.052 171.2814
1992.524338 87.063 171.6014
2006.962991 87.073 171.8979
2021.506272 87.084 172.1672
2036.154940 87.096 172.4054
2050.909758 87.106 172.6101
2065.771495 87.116 172.7808
2080.740927 87.125 172.9177
2095.818833 87.132 173.0224
2111.006001 87.138 173.0963
2126.303220 87.142 173.1416
2141.711290 87.144 173.1608
2157.231013 87.144 173.1564
2172.863198 87.143 173.1302
2188.608660 87.141 173.0835
2204.468221 87.137 173.0165
2220.442706 87.132 172.9301
2236.532950 87.125 172.8257
2252.739789 87.117 172.7054
2269.064070 87.108 172.5710
2285.506644 87.097 172.4240
2302.068367 87.086 172.2648
2318.750104 87.073 172.0939
2335.552723 87.060 171.9120
2352.477101 87.046 171.7198
2369.524119 87.032 171.5179
2386.694668 87.017 171.3070
2403.989641 87.002 171.0875
2421.409941 86.987 170.8603
2438.956476 86.972 170.6262
2456.630160 86.958 170.3857
2474.431915 86.944 170.1380
2492.362668 86.931 169.8814
2510.423356 86.919 169.6136
2528.614918 86.908 169.3321
2546.938304 86.897 169.0350
2565.394469 86.885 168.7214
2583.984375 86.873 168.3914
2602.708991 86.858 168.0475
2621.569293 86.840 167.6937
2640.566265 86.818 167.3363
2659.700897 86.791 166.9832
2678.974186 86.759 166.6436
2698.387137 86.722 166.3277
2717.940763 86.680 166.0453
2737.636082 86.633 165.8053
2757.474121 86.583 165.6149
2777.455915 86.531 165.4796
2797.582506 86.477 165.4029
2817.854942 86.423 165.3869
2838.274281 86.370 165.4327
2858.841586 86.318 165.5408
2879.557931 86.268 165.7113
2900.424394 86.221 165.9445
2921.442065 86.178 166.2399
2942.612039 86.138 166.5971
2963.935418 86.104 167.0143
2985.413316 86.075 167.4883
3007.046852 86.053 168.0137
3028.837153 86.037 168.5832
3050.785356 86.029 169.1872
3072.892604 86.029 169.8141
3095.160050 86.036 170.4504
3117.588856 86.051 171.0817
3140.180190 86.071 171.6930
3162.935230 86.095 172.2700
3185.855163 86.123 172.8004
3208.941182 86.150 173.2758
3232.194493 86.175 173.6925
3255.616307 86.194 174.0525
3279.207844 86.207 174.3636
3302.970336 86.210 174.6389
3326.905021 86.202 174.8953
3351.013146 86.184 175.1520
3375.295969 86.156 175.4283
3399.754755 86.120 175.7408
3424.390779 86.079 176.1019
3449.205326 86.036 176.5171
3474.199690 85.996 176.9843
3499.375173 85.961 177.4926
3524.733088 85.936 178.0236
3550.274757 85.922 178.5525
3576.001511 85.923 179.0507
3601.914692 85.938 179.4895
3628.015651 85.965 179.8428
3654.305748 86.003 -179.9102
3680.786354 86.049 -179.7831
3707.458849 86.099 -179.7812
3734.324624 86.149 -179.9021
3761.385080 86.195 179.8640
3788.641627 86.235 179.5319
3816.095686 86.267 179.1203
3843.748688 86.289 178.6496
3871.602076 86.300 178.1401
3899.657300 86.300 177.6111
3927.915825 86.290 177.0799
3956.379122 86.270 176.5613
3985.048676 86.241 176.0678
4013.925981 86.205 175.6094
4043.012544 86.163 175.1940
4072.309879 86.114 174.8278
4101.819515 86.062 174.5151
4131.542990 86.005 174.2595
4161.481854 85.945 174.0634
4191.637667 85.883 173.9288
4222.012001 85.818 173.8571
4252.606441 85.752 173.8492
4283.422580 85.685 173.9050
4314.462026 85.617 174.0234
4345.726396 85.549 174.2019
4377.217321 85.481 174.4371
4408.936442 85.414 174.7241
4440.885413 85.348 175.0576
4473.065899 85.283 175.4311
4505.479579 85.220 175.8384
4538.128141 85.159 176.2729
4571.013288 85.098 176.7286
4604.136735 85.039 177.2003
4637.500207 84.981 177.6839
4671.105446 84.923 178.1765
4704.954201 84.866 178.6766
4739.048239 84.810 179.1842
4773.389336 84.753 179.7002
4807.979283 84.698 -179.7729
4842.819883 84.643 -179.2318
4877.912952 84.589 -178.6722
4913.260320 84.537 -178.0892
4948.863830 84.488 -177.4776
4984.725337 84.443 -176.8320
5020.846712 84.403 -176.1472
5057.229836 84.369 -175.4188
5093.876609 84.344 -174.6433
5130.788938 84.329 -173.8185
5167.968750 84.326 -172.9439
5205.417982 84.338 -172.0212
5243.138586 84.366 -171.0541
5281.132530 84.412 -170.0490
5319.401793 84.479 -169.0152
5357.948371 84.567 -167.9646
5396.774274 84.678 -166.9122
5435.881525 84.812 -165.8753
5475.272163 84.969 -164.8738
5514.948243 85.148 -163.9286
5554.911831 85.348 -163.0611
5595.165012 85.566 -162.2917
5635.709884 85.800 -161.6386
5676.548561 86.046 -161.1166
5717.683172 86.300 -160.7363
5759.115861 86.560 -160.5044
5800.848789 86.820 -160.4234
5842.884130 87.078 -160.4922
5885.224077 87.331 -160.7063
5927.870837 87.575 -161.0582
5970.826633 87.809 -161.5377
6014.093704 88.029 -162.1324
6057.674306 88.234 -162.8280
6101.570711 88.423 -163.6084
6145.785208 88.595 -164.4566
6190.320101 88.748 -165.3549
6235.177712 88.885 -166.2852
6280.360380 89.005 -167.2304
6325.870460 89.110 -168.1746
6371.710325 89.202 -169.1046
6417.882365 89.285 -170.0108
6464.388986 89.361 -170.8886
6511.232613 89.434 -171.7389
6558.415689 89.507 -172.5688
6605.940673 89.584 -173.3920
6653.810042 89.667 -174.2282
6702.026292 89.759 -175.1026
6750.591937 89.861 -176.0435
6799.509509 89.972 -177.0810
6848.781558 90.090 -178.2440
6898.410653 90.213 -179.5583
6948.399380 90.337 178.9553
6998.750346 90.457 177.2820
7049.466176 90.569 175.4133
7100.549514 90.668 173.3470
7152.003023 90.749 171.0869
7203.829385 90.809 168.6412
7256.031302 90.843 166.0219
7308.611496 90.849 163.2437
7361.572708 90.822 160.3230
7414.917698 90.761 157.2776
7468.649249 90.664 154.1260
7522.770160 90.529 150.8875
7577.283253 90.355 147.5817
7632.191371 90.139 144.2283
7687.497376 89.882 140.8467
7743.204151 89.584 137.4551
7799.314600 89.244 134.0696
7855.831649 88.863 130.7032
7912.758244 88.443 127.3652
7970.097352 87.985 124.0600
8027.851962 87.490 120.7870
8086.025087 86.961 117.5402
8144.619758 86.398 114.3074
8203.639030 85.804 111.0695
8263.085980 85.181 107.7993
8322.963708 84.532 104.4591
8383.275334 83.860 100.9971
8444.024002 83.167 97.3441
8505.212881 82.460 93.4058
8566.845160 81.744 89.0514
8628.924051 81.027 84.0915
8691.452792 80.320 78.2376
8754.434642 79.639 71.0228
8817.872884 79.002 61.6561
8881.770826 78.432 48.8014
8946.131799 77.957 30.5658
9010.959157 77.600 6.2039
9076.256282 77.380 -19.9117
9142.026576 77.305 -41.2574
9208.273470 77.366 -56.5040
9275.000415 77.545 -67.4182
9342.210891 77.816 -75.6604
9409.908403 78.152 -82.2640
9478.096478 78.526 -87.8356
9546.778672 78.916 -92.7408
9615.958566 79.303 -97.2097
9685.639765 79.675 -101.3922
9755.825904 80.018 -105.3872
9826.520640 80.323 -109.2576
9897.727659 80.584 -113.0391
9969.450674 80.794 -116.7455
10041.693423 80.951 -120.3741
10114.459673 81.053 -123.9099
10187.753217 81.102 -127.3312
10261.577877 81.099 -130.6151
10335.937500 81.050 -133.7411
10410.835964 80.961 -136.6943
10486.277173 80.838 -139.4664
10562.265060 80.687 -142.0560
10638.803587 80.514 -144.4679
10715.896743 80.326 -146.7136
10793.548548 80.130 -148.8119
10871.763050 79.930 -150.7892
10950.544327 79.732 -152.6803
11029.896485 79.539 -154.5253
11109.823662 79.349 -156.3658
11190.330024 79.162 -158.2385
11271.419768 78.970 -160.1685
11353.097122 78.767 -162.1627
11435.366344 78.543 -164.2063
11518.231722 78.288 -166.2610
11601.697577 77.997 -168.2684
11685.768261 77.664 -170.1548
11770.448155 77.291 -171.8401
11855.741674 76.884 -173.2484
11941.653265 76.451 -174.3189
12028.187408 76.010 -175.0204
12115.348612 75.582 -175.3652
12203.141422 75.191 -175.4224
12291.570415 74.864 -175.3226
12380.640201 74.619 -175.2494
12470.355424 74.471 -175.4128
12560.720760 74.416 -176.0155
12651.740920 74.442 -177.2207
12743.420650 74.523 -179.1356
12835.764729 74.633 178.1901
12928.777972 74.744 174.7538
13022.465227 74.835 170.5846
13116.831378 74.887 165.7267
13211.881345 74.891 160.2257
13307.620084 74.842 154.1147
13404.052584 74.740 147.4006
13501.183875 74.591 140.0450
13599.019019 74.401 131.9329
13697.563116 74.182 122.8109
13796.821305 73.943 112.1409
13896.798760 73.697 98.7121
13997.500692 73.452 79.5262
14098.932352 73.216 47.4529
14201.099028 72.994 0.0970
14304.006046 72.786 -37.3394
14407.658770 72.592 -59.4802
14512.062604 72.409 -74.4560
14617.222992 72.229 -86.1960
14723.145416 72.046 -96.2562
14829.835397 71.853 -105.3125
14937.298497 71.641 -113.6852
15045.540320 71.404 -121.5279
15154.566507 71.133 -128.9043
15264.382743 70.825 -135.8226
15374.994752 70.475 -142.2562
15486.408302 70.086 -148.1655
15598.629201 69.665 -153.5251
15711.663298 69.226 -158.3584
15825.516487 68.786 -162.7634
15940.194703 68.363 -166.9202
16055.703925 67.971 -171.0614
16172.050174 67.616 -175.4177
16289.239516 67.289 179.8401
16407.278061 66.976 174.6312
16526.171961 66.656 168.9644
16645.927415 66.308 162.9153
16766.550667 65.914 156.5989
16888.048005 65.461 150.1495
17010.425762 64.939 143.7086
17133.690320 64.344 137.4148
17257.848103 63.675 131.3958
17382.905584 62.935 125.7593
17508.869284 62.131 120.5804
17635.745768 61.273 115.8911
17763.541652 60.375 111.6628
17892.263597 59.457 107.7916
18021.918315 58.540 104.0906
18152.512564 57.652 100.3013
18284.053153 56.820 96.1304
18416.546939 56.066 91.2959
18550.000830 55.407 85.5653
18684.421783 54.842 78.7688
18819.816805 54.362 70.7939
18956.192956 53.946 61.5793
19093.557344 53.576 51.1390
19231.917131 53.238 39.6494
19371.279531 52.925 27.6021
19511.651807 52.643 15.9136
19653.041280 52.406 5.8016
19795.455318 52.232 -1.5796
19938.901348 52.140 -5.4481
