* Measurement data measured by REW V5.31.3
* Source: EXCL: Headset (USB-C to 3.5mm Headphone Jack Adapter), MICROPHONE (Master Volume), 0, volume: 0.750
* Format: 256k Log Swept Sine, 1 sweep at -12.0 dBFS with no timing reference
* Dated: Apr 7, 2025 4:46:39 PM
* REW Settings:
*  C-weighting compensation: Off
*  Target level: 75.0 dB
* Note: ; 
* Measurement: Satyr 3 (Centered) R7
* Smoothing: 1/6 octave
* Frequency Step: 96 ppo
* Start Frequency: 20.0 Hz
*
* Freq(Hz) SPL(dB) Phase(degrees)
20.187378 80.033 -98.4918
20.333664 80.068 -98.6703
20.481010 80.116 -98.9039
20.629424 80.175 -99.1788
20.778913 80.244 -99.4814
20.929486 80.323 -99.7990
21.081150 80.411 -100.1216
21.233912 80.505 -100.4421
21.387782 80.605 -100.7568
21.542767 80.710 -101.0650
21.698874 80.817 -101.3683
21.856113 80.926 -101.6702
22.014492 81.034 -101.9751
22.174018 81.140 -102.2876
22.334700 81.243 -102.6117
22.496546 81.341 -102.9505
22.659566 81.434 -103.3058
22.823766 81.520 -103.6780
22.989157 81.600 -104.0660
23.155745 81.674 -104.4678
23.323542 81.742 -104.8808
23.492554 81.806 -105.3020
23.662790 81.865 -105.7287
23.834261 81.923 -106.1589
24.006973 81.978 -106.5914
24.180938 82.034 -107.0256
24.356163 82.089 -107.4618
24.532658 82.146 -107.9007
24.710431 82.202 -108.3430
24.889493 82.260 -108.7890
25.069853 82.316 -109.2385
25.251519 82.371 -109.6908
25.434502 82.425 -110.1443
25.618811 82.475 -110.5974
25.804456 82.523 -111.0482
25.991445 82.567 -111.4953
26.179790 82.607 -111.9378
26.369500 82.644 -112.3756
26.560584 82.678 -112.8093
26.753053 82.709 -113.2402
26.946917 82.738 -113.6696
27.142185 82.766 -114.0989
27.338869 82.793 -114.5290
27.536977 82.820 -114.9600
27.736522 82.847 -115.3912
27.937512 82.875 -115.8213
28.139959 82.904 -116.2488
28.343872 82.935 -116.6719
28.549264 82.969 -117.0895
28.756143 83.005 -117.5012
28.964522 83.044 -117.9072
29.174411 83.085 -118.3087
29.385821 83.129 -118.7076
29.598763 83.174 -119.1056
29.813248 83.221 -119.5050
30.029287 83.268 -119.9074
30.246891 83.317 -120.3142
30.466073 83.365 -120.7264
30.686842 83.414 -121.1445
30.909212 83.464 -121.5689
31.133193 83.514 -121.9998
31.358797 83.566 -122.4369
31.586035 83.620 -122.8801
31.814921 83.676 -123.3286
32.045465 83.735 -123.7815
32.277680 83.798 -124.2373
32.511577 83.863 -124.6943
32.747169 83.933 -125.1511
32.984469 84.006 -125.6062
33.223488 84.083 -126.0585
33.464239 84.163 -126.5079
33.706735 84.245 -126.9543
33.950987 84.330 -127.3985
34.197010 84.416 -127.8408
34.444816 84.503 -128.2817
34.694417 84.590 -128.7208
34.945827 84.676 -129.1569
35.199059 84.761 -129.5883
35.454126 84.845 -130.0125
35.711041 84.928 -130.4271
35.969818 85.009 -130.8303
36.230470 85.090 -131.2208
36.493011 85.171 -131.5987
36.757455 85.251 -131.9655
37.023814 85.333 -132.3241
37.292104 85.415 -132.6781
37.562338 85.498 -133.0319
37.834530 85.581 -133.3895
38.108695 85.665 -133.7548
38.384846 85.748 -134.1304
38.662999 85.831 -134.5177
38.943167 85.912 -134.9170
39.225365 85.991 -135.3274
39.509608 86.068 -135.7474
39.795911 86.142 -136.1750
40.084289 86.212 -136.6082
40.374756 86.280 -137.0454
40.667328 86.343 -137.4850
40.962020 86.403 -137.9259
41.258848 86.459 -138.3669
41.557827 86.511 -138.8069
41.858972 86.560 -139.2446
42.162299 86.606 -139.6792
42.467824 86.650 -140.1100
42.775564 86.693 -140.5370
43.085533 86.735 -140.9608
43.397749 86.777 -141.3831
43.712227 86.820 -141.8057
44.028983 86.862 -142.2304
44.348036 86.905 -142.6591
44.669400 86.947 -143.0929
44.993093 86.988 -143.5324
45.319131 87.027 -143.9774
45.647532 87.064 -144.4272
45.978313 87.098 -144.8807
46.311491 87.130 -145.3362
46.647083 87.160 -145.7920
46.985107 87.188 -146.2465
47.325581 87.214 -146.6984
47.668521 87.239 -147.1472
48.013947 87.264 -147.5931
48.361876 87.287 -148.0369
48.712326 87.311 -148.4801
49.065315 87.332 -148.9243
49.420863 87.353 -149.3716
49.778987 87.372 -149.8242
50.139706 87.389 -150.2843
50.503039 87.404 -150.7537
50.869005 87.417 -151.2331
51.237623 87.427 -151.7223
51.608912 87.436 -152.2196
51.982891 87.442 -152.7227
52.359580 87.447 -153.2290
52.739000 87.451 -153.7367
53.121168 87.454 -154.2448
53.506106 87.456 -154.7538
53.893833 87.458 -155.2643
54.284370 87.459 -155.7773
54.677737 87.458 -156.2937
55.073955 87.457 -156.8135
55.473043 87.453 -157.3360
55.875024 87.448 -157.8605
56.279917 87.441 -158.3858
56.687745 87.432 -158.9115
57.098527 87.423 -159.4375
57.512287 87.413 -159.9642
57.929045 87.404 -160.4909
58.348822 87.397 -161.0156
58.771642 87.391 -161.5341
59.197525 87.390 -162.0407
59.626495 87.394 -162.5300
60.058573 87.404 -162.9983
60.493782 87.421 -163.4447
60.932145 87.444 -163.8712
61.373685 87.473 -164.2815
61.818424 87.505 -164.6799
62.266386 87.538 -165.0706
62.717593 87.572 -165.4575
63.172071 87.605 -165.8441
63.629842 87.637 -166.2329
64.090930 87.667 -166.6257
64.555359 87.696 -167.0228
65.023154 87.723 -167.4235
65.494339 87.748 -167.8266
65.968938 87.773 -168.2306
66.446976 87.796 -168.6341
66.928478 87.819 -169.0361
67.413469 87.841 -169.4358
67.901975 87.862 -169.8330
68.394021 87.881 -170.2277
68.889632 87.899 -170.6203
69.388835 87.915 -171.0114
69.891655 87.928 -171.4017
70.398118 87.938 -171.7919
70.908252 87.946 -172.1821
71.422083 87.951 -172.5720
71.939636 87.952 -172.9609
72.460941 87.951 -173.3479
72.986023 87.946 -173.7321
73.514909 87.940 -174.1129
74.047629 87.931 -174.4901
74.584208 87.920 -174.8639
75.124676 87.908 -175.2344
75.669061 87.895 -175.6017
76.217390 87.881 -175.9656
76.769692 87.866 -176.3260
77.325997 87.851 -176.6828
77.886333 87.834 -177.0363
78.450730 87.816 -177.3870
79.019216 87.797 -177.7351
79.591822 87.775 -178.0807
80.168577 87.753 -178.4237
80.749512 87.728 -178.7641
81.334656 87.703 -179.1016
81.924040 87.676 -179.4360
82.517696 87.648 -179.7668
83.115653 87.620 179.9065
83.717943 87.592 179.5842
84.324598 87.563 179.2668
84.935649 87.534 178.9542
85.551128 87.506 178.6463
86.171066 87.477 178.3427
86.795497 87.449 178.0427
87.424453 87.421 177.7460
88.057967 87.393 177.4518
88.696071 87.364 177.1601
89.338800 87.336 176.8707
89.986185 87.307 176.5836
90.638262 87.278 176.2992
91.295065 87.248 176.0175
91.956626 87.219 175.7387
92.622982 87.189 175.4628
93.294166 87.159 175.1898
93.970214 87.129 174.9196
94.651161 87.099 174.6513
95.337042 87.069 174.3843
96.027894 87.039 174.1174
96.723752 87.010 173.8495
97.424652 86.982 173.5800
98.130631 86.953 173.3085
98.841726 86.926 173.0353
99.557974 86.899 172.7606
100.279412 86.873 172.4849
101.006078 86.847 172.2088
101.738010 86.823 171.9332
102.475245 86.799 171.6590
103.217823 86.776 171.3878
103.965782 86.754 171.1214
104.719161 86.733 170.8619
105.477999 86.712 170.6116
106.242336 86.692 170.3720
107.012212 86.672 170.1434
107.787666 86.653 169.9246
108.568740 86.634 169.7134
109.355474 86.617 169.5072
110.147909 86.600 169.3035
110.946086 86.585 169.1006
111.750047 86.570 168.8975
112.559834 86.556 168.6934
113.375489 86.543 168.4884
114.197055 86.530 168.2827
115.024574 86.518 168.0766
115.858089 86.505 167.8705
116.697645 86.493 167.6645
117.543284 86.481 167.4586
118.395051 86.468 167.2528
119.252990 86.454 167.0475
120.117147 86.440 166.8432
120.987565 86.425 166.6406
121.864291 86.409 166.4406
122.747370 86.393 166.2437
123.636848 86.375 166.0500
124.532771 86.356 165.8595
125.435187 86.336 165.6715
126.344142 86.316 165.4852
127.259684 86.295 165.2999
128.181860 86.274 165.1151
129.110718 86.251 164.9305
130.046308 86.227 164.7462
130.988677 86.203 164.5620
131.937875 86.177 164.3781
132.893951 86.149 164.1944
133.856956 86.120 164.0109
134.826938 86.089 163.8281
135.803950 86.056 163.6465
136.788041 86.021 163.4676
137.779264 85.984 163.2931
138.777669 85.945 163.1248
139.783309 85.904 162.9647
140.796237 85.861 162.8146
141.816504 85.817 162.6758
142.844165 85.770 162.5496
143.879273 85.722 162.4370
144.921881 85.673 162.3385
145.972045 85.623 162.2541
147.029819 85.571 162.1833
148.095257 85.519 162.1255
149.168417 85.466 162.0797
150.249353 85.414 162.0449
151.338121 85.361 162.0204
152.434780 85.308 162.0056
153.539385 85.256 162.0002
154.651995 85.204 162.0043
155.772667 85.154 162.0184
156.901460 85.104 162.0428
158.038432 85.055 162.0775
159.183644 85.008 162.1225
160.337154 84.963 162.1775
161.499023 84.919 162.2425
162.669312 84.877 162.3176
163.848081 84.837 162.4034
165.035392 84.799 162.5004
166.231306 84.764 162.6091
167.435887 84.732 162.7295
168.649196 84.702 162.8608
169.871298 84.675 163.0020
171.102255 84.651 163.1513
172.342133 84.630 163.3067
173.590995 84.611 163.4659
174.848907 84.595 163.6266
176.115934 84.581 163.7862
177.392143 84.570 163.9426
178.677599 84.560 164.0937
179.972371 84.552 164.2372
181.276525 84.547 164.3711
182.590129 84.544 164.4932
183.913252 84.542 164.6013
185.245964 84.543 164.6936
186.588332 84.545 164.7684
187.940428 84.548 164.8243
189.302322 84.552 164.8600
190.674085 84.556 164.8749
192.055788 84.561 164.8690
193.447503 84.566 164.8434
194.849303 84.570 164.8001
196.261262 84.575 164.7418
197.683452 84.578 164.6716
199.115948 84.581 164.5924
200.558824 84.583 164.5068
202.012156 84.585 164.4165
203.476019 84.585 164.3228
204.950490 84.585 164.2260
206.435646 84.584 164.1260
207.931564 84.584 164.0223
209.438322 84.583 163.9148
210.955998 84.583 163.8032
212.484672 84.583 163.6876
214.024424 84.584 163.5680
215.575333 84.584 163.4445
217.137481 84.584 163.3175
218.710948 84.584 163.1871
220.295818 84.584 163.0539
221.892172 84.584 162.9187
223.500094 84.584 162.7827
225.119668 84.584 162.6474
226.750978 84.583 162.5144
228.394109 84.583 162.3852
230.049147 84.582 162.2611
231.716178 84.581 162.1427
233.395289 84.580 162.0300
235.086567 84.580 161.9225
236.790102 84.580 161.8188
238.505980 84.580 161.7175
240.234293 84.582 161.6169
241.975130 84.584 161.5157
243.728581 84.586 161.4131
245.494739 84.589 161.3085
247.273695 84.592 161.2019
249.065542 84.595 161.0936
250.870374 84.598 160.9838
252.688284 84.600 160.8731
254.519367 84.602 160.7625
256.363720 84.603 160.6527
258.221437 84.604 160.5448
260.092616 84.605 160.4399
261.977354 84.606 160.3389
263.875750 84.607 160.2429
265.787903 84.607 160.1526
267.713911 84.608 160.0685
269.653877 84.609 159.9904
271.607900 84.611 159.9179
273.576083 84.612 159.8507
275.558528 84.614 159.7883
277.555338 84.615 159.7298
279.566619 84.616 159.6744
281.592474 84.618 159.6206
283.633009 84.619 159.5668
285.688331 84.620 159.5113
287.758546 84.621 159.4523
289.843763 84.622 159.3887
291.944090 84.623 159.3198
294.059638 84.625 159.2460
296.190515 84.628 159.1687
298.336833 84.631 159.0896
300.498705 84.635 159.0102
302.676243 84.640 158.9319
304.869559 84.645 158.8553
307.078770 84.652 158.7810
309.303989 84.658 158.7094
311.545334 84.666 158.6403
313.802919 84.673 158.5739
316.076865 84.681 158.5098
318.367288 84.689 158.4475
320.674309 84.697 158.3866
322.998047 84.705 158.3267
325.338624 84.713 158.2674
327.696162 84.720 158.2087
330.070783 84.727 158.1508
332.462612 84.733 158.0938
334.871773 84.738 158.0378
337.298392 84.743 157.9823
339.742595 84.747 157.9266
342.204510 84.751 157.8697
344.684265 84.753 157.8103
347.181989 84.755 157.7475
349.697813 84.756 157.6808
352.231868 84.756 157.6104
354.784285 84.756 157.5368
357.355198 84.755 157.4610
359.944741 84.753 157.3838
362.553049 84.749 157.3063
365.180258 84.745 157.2295
367.826505 84.739 157.1539
370.491927 84.731 157.0798
373.176665 84.723 157.0074
375.880856 84.713 156.9369
378.604644 84.702 156.8682
381.348169 84.690 156.8017
384.111575 84.677 156.7376
386.895006 84.663 156.6759
389.698607 84.650 156.6166
392.522524 84.636 156.5589
395.366904 84.623 156.5020
398.231895 84.610 156.4446
401.117648 84.597 156.3854
404.024312 84.583 156.3232
406.952038 84.569 156.2576
409.900981 84.554 156.1885
412.871292 84.537 156.1168
415.863128 84.518 156.0441
418.876643 84.497 155.9729
421.911996 84.472 155.9062
424.969344 84.445 155.8478
428.048847 84.415 155.8016
431.150666 84.383 155.7710
434.274961 84.349 155.7585
437.421897 84.315 155.7644
440.591636 84.281 155.7866
443.784345 84.248 155.8205
447.000189 84.218 155.8602
450.239337 84.189 155.8997
453.501956 84.162 155.9335
456.788219 84.137 155.9581
460.098294 84.114 155.9713
463.432356 84.091 155.9725
466.790578 84.068 155.9626
470.173135 84.046 155.9426
473.580203 84.023 155.9143
477.011961 84.001 155.8792
480.468586 83.978 155.8387
483.950259 83.956 155.7939
487.457163 83.934 155.7462
490.989478 83.912 155.6966
494.547390 83.891 155.6462
498.131084 83.871 155.5959
501.740748 83.852 155.5464
505.376568 83.834 155.4978
509.038735 83.816 155.4503
512.727439 83.800 155.4037
516.442874 83.786 155.3580
520.185232 83.773 155.3131
523.954708 83.762 155.2692
527.751500 83.753 155.2265
531.575805 83.747 155.1853
535.427822 83.742 155.1461
539.307753 83.740 155.1096
543.215800 83.741 155.0763
547.152165 83.743 155.0467
551.117055 83.748 155.0211
555.110677 83.755 154.9999
559.133237 83.765 154.9827
563.184947 83.775 154.9690
567.266018 83.788 154.9581
571.376661 83.802 154.9490
575.517092 83.817 154.9403
579.687526 83.832 154.9309
583.888181 83.849 154.9196
588.119275 83.866 154.9055
592.381030 83.883 154.8884
596.673667 83.900 154.8685
600.997410 83.918 154.8460
605.352485 83.934 154.8218
609.739119 83.951 154.7961
614.157540 83.967 154.7693
618.607979 83.982 154.7409
623.090667 83.997 154.7103
627.605839 84.011 154.6769
632.153730 84.023 154.6399
636.734576 84.035 154.5987
641.348617 84.046 154.5530
645.996094 84.055 154.5024
650.677248 84.063 154.4471
655.392323 84.070 154.3870
660.141566 84.074 154.3228
664.925224 84.077 154.2554
669.743546 84.078 154.1863
674.596784 84.077 154.1172
679.485191 84.075 154.0504
684.409020 84.071 153.9878
689.368530 84.065 153.9310
694.363979 84.059 153.8802
699.395626 84.053 153.8342
704.463736 84.047 153.7906
709.568570 84.042 153.7461
714.710396 84.036 153.6976
719.889483 84.030 153.6428
725.106099 84.024 153.5802
730.360516 84.016 153.5092
735.653010 84.008 153.4297
740.983855 83.997 153.3423
746.353329 83.984 153.2480
751.761713 83.970 153.1480
757.209288 83.953 153.0437
762.696339 83.934 152.9368
768.223151 83.914 152.8290
773.790013 83.892 152.7218
779.397214 83.868 152.6164
785.045047 83.843 152.5134
790.733808 83.818 152.4133
796.463791 83.792 152.3158
802.235296 83.766 152.2202
808.048623 83.741 152.1255
813.904077 83.715 152.0307
819.801961 83.691 151.9344
825.742584 83.668 151.8356
831.726255 83.645 151.7332
837.753287 83.623 151.6259
843.823992 83.603 151.5125
849.938689 83.583 151.3922
856.097695 83.564 151.2643
862.301332 83.545 151.1288
868.549922 83.526 150.9862
874.843793 83.508 150.8375
881.183272 83.489 150.6841
887.568689 83.470 150.5278
894.000378 83.451 150.3707
900.478673 83.431 150.2147
907.003913 83.412 150.0611
913.576437 83.393 149.9109
920.196588 83.375 149.7645
926.864712 83.358 149.6221
933.581156 83.342 149.4838
940.346270 83.328 149.3493
947.160407 83.315 149.2186
954.023921 83.305 149.0914
960.937172 83.298 148.9674
967.900519 83.293 148.8455
974.914325 83.291 148.7243
981.978956 83.292 148.6019
989.094780 83.297 148.4761
996.262169 83.303 148.3448
1003.481495 83.313 148.2065
1010.753136 83.325 148.0598
1018.077470 83.339 147.9042
1025.454879 83.354 147.7393
1032.885748 83.371 147.5650
1040.370463 83.388 147.3816
1047.909417 83.406 147.1898
1055.503000 83.424 146.9906
1063.151610 83.441 146.7855
1070.855645 83.458 146.5766
1078.615506 83.474 146.3658
1086.431599 83.488 146.1553
1094.304330 83.501 145.9472
1102.234110 83.513 145.7432
1110.221353 83.523 145.5447
1118.266475 83.532 145.3528
1126.369895 83.539 145.1686
1134.532035 83.544 144.9929
1142.753322 83.548 144.8265
1151.034184 83.551 144.6699
1159.375052 83.553 144.5240
1167.776361 83.553 144.3895
1176.238550 83.552 144.2669
1184.762060 83.551 144.1564
1193.347334 83.549 144.0579
1201.994821 83.547 143.9708
1210.704971 83.544 143.8945
1219.478238 83.542 143.8289
1228.315080 83.539 143.7737
1237.215957 83.537 143.7290
1246.181334 83.534 143.6945
1255.211678 83.532 143.6703
1264.307459 83.531 143.6561
1273.469152 83.530 143.6518
1282.697235 83.530 143.6574
1291.992188 83.531 143.6727
1301.354495 83.532 143.6971
1310.784647 83.535 143.7294
1320.283132 83.538 143.7684
1329.850448 83.543 143.8126
1339.487093 83.548 143.8610
1349.193569 83.554 143.9127
1358.970381 83.561 143.9674
1368.818041 83.568 144.0249
1378.737061 83.576 144.0852
1388.727958 83.585 144.1482
1398.791253 83.595 144.2138
1408.927471 83.606 144.2824
1419.137140 83.618 144.3549
1429.420793 83.631 144.4332
1439.778965 83.644 144.5193
1450.212197 83.659 144.6154
1460.721033 83.676 144.7228
1471.306019 83.694 144.8427
1481.967709 83.713 144.9751
1492.706658 83.735 145.1195
1503.523426 83.758 145.2748
1514.418576 83.783 145.4389
1525.392678 83.809 145.6098
1536.446302 83.836 145.7856
1547.580025 83.862 145.9652
1558.794428 83.886 146.1485
1570.090095 83.909 146.3365
1581.467615 83.929 146.5315
1592.927581 83.946 146.7368
1604.470591 83.960 146.9564
1616.097246 83.970 147.1947
1627.808153 83.977 147.4556
1639.603922 83.983 147.7422
1651.485168 83.987 148.0556
1663.452510 83.991 148.3947
1675.506573 83.995 148.7560
1687.647984 84.001 149.1342
1699.877377 84.009 149.5224
1712.195390 84.020 149.9133
1724.602663 84.033 150.2998
1737.099845 84.048 150.6756
1749.687587 84.065 151.0362
1762.366544 84.083 151.3791
1775.137379 84.101 151.7042
1788.000756 84.119 152.0133
1800.957346 84.135 152.3094
1814.007826 84.151 152.5963
1827.152874 84.165 152.8781
1840.393177 84.178 153.1575
1853.729425 84.191 153.4361
1867.162312 84.202 153.7137
1880.692540 84.214 153.9883
1894.320813 84.226 154.2569
1908.047843 84.237 154.5157
1921.874344 84.247 154.7616
1935.801038 84.257 154.9926
1949.828650 84.265 155.2077
1963.957912 84.271 155.4066
1978.189561 84.276 155.5898
1992.524338 84.278 155.7576
2006.962991 84.278 155.9105
2021.506272 84.277 156.0488
2036.154940 84.273 156.1729
2050.909758 84.267 156.2833
2065.771495 84.260 156.3802
2080.740927 84.251 156.4639
2095.818833 84.240 156.5342
2111.006001 84.229 156.5910
2126.303220 84.217 156.6337
2141.711290 84.204 156.6619
2157.231013 84.190 156.6758
2172.863198 84.175 156.6759
2188.608660 84.159 156.6632
2204.468221 84.143 156.6389
2220.442706 84.126 156.6045
2236.532950 84.109 156.5612
2252.739789 84.092 156.5099
2269.064070 84.074 156.4512
2285.506644 84.057 156.3848
2302.068367 84.040 156.3104
2318.750104 84.024 156.2271
2335.552723 84.008 156.1340
2352.477101 83.994 156.0299
2369.524119 83.981 155.9135
2386.694668 83.968 155.7833
2403.989641 83.957 155.6379
2421.409941 83.947 155.4757
2438.956476 83.938 155.2948
2456.630160 83.930 155.0936
2474.431915 83.921 154.8710
2492.362668 83.912 154.6271
2510.423356 83.902 154.3634
2528.614918 83.889 154.0829
2546.938304 83.873 153.7904
2565.394469 83.854 153.4919
2583.984375 83.831 153.1945
2602.708991 83.804 152.9061
2621.569293 83.772 152.6342
2640.566265 83.738 152.3862
2659.700897 83.699 152.1688
2678.974186 83.659 151.9872
2698.387137 83.617 151.8453
2717.940763 83.574 151.7454
2737.636082 83.531 151.6882
2757.474121 83.488 151.6735
2777.455915 83.446 151.7004
2797.582506 83.406 151.7678
2817.854942 83.367 151.8748
2838.274281 83.329 152.0212
2858.841586 83.293 152.2076
2879.557931 83.257 152.4355
2900.424394 83.223 152.7071
2921.442065 83.190 153.0253
2942.612039 83.157 153.3934
2963.935418 83.126 153.8146
2985.413316 83.096 154.2917
3007.046852 83.069 154.8263
3028.837153 83.045 155.4180
3050.785356 83.025 156.0646
3072.892604 83.009 156.7610
3095.160050 82.999 157.5002
3117.588856 82.993 158.2728
3140.180190 82.994 159.0683
3162.935230 83.000 159.8754
3185.855163 83.012 160.6824
3208.941182 83.029 161.4776
3232.194493 83.049 162.2498
3255.616307 83.073 162.9890
3279.207844 83.098 163.6869
3302.970336 83.124 164.3373
3326.905021 83.149 164.9371
3351.013146 83.172 165.4865
3375.295969 83.193 165.9883
3399.754755 83.209 166.4475
3424.390779 83.222 166.8701
3449.205326 83.232 167.2610
3474.199690 83.240 167.6230
3499.375173 83.246 167.9556
3524.733088 83.253 168.2548
3550.274757 83.259 168.5137
3576.001511 83.266 168.7245
3601.914692 83.274 168.8792
3628.015651 83.282 168.9722
3654.305748 83.287 169.0009
3680.786354 83.290 168.9666
3707.458849 83.288 168.8745
3734.324624 83.279 168.7332
3761.385080 83.264 168.5544
3788.641627 83.241 168.3517
3816.095686 83.209 168.1396
3843.748688 83.169 167.9328
3871.602076 83.122 167.7452
3899.657300 83.068 167.5894
3927.915825 83.009 167.4762
3956.379122 82.945 167.4144
3985.048676 82.879 167.4106
4013.925981 82.811 167.4691
4043.012544 82.744 167.5917
4072.309879 82.677 167.7787
4101.819515 82.613 168.0287
4131.542990 82.551 168.3392
4161.481854 82.493 168.7070
4191.637667 82.437 169.1290
4222.012001 82.385 169.6019
4252.606441 82.336 170.1229
4283.422580 82.289 170.6894
4314.462026 82.245 171.2987
4345.726396 82.203 171.9478
4377.217321 82.163 172.6332
4408.936442 82.125 173.3510
4440.885413 82.089 174.0971
4473.065899 82.055 174.8671
4505.479579 82.022 175.6564
4538.128141 81.991 176.4605
4571.013288 81.961 177.2754
4604.136735 81.932 178.0968
4637.500207 81.905 178.9209
4671.105446 81.879 179.7443
4704.954201 81.854 -179.4361
4739.048239 81.830 -178.6227
4773.389336 81.807 -177.8171
4807.979283 81.785 -177.0198
4842.819883 81.763 -176.2304
4877.912952 81.743 -175.4473
4913.260320 81.723 -174.6676
4948.863830 81.704 -173.8874
4984.725337 81.685 -173.1018
5020.846712 81.667 -172.3047
5057.229836 81.651 -171.4895
5093.876609 81.636 -170.6484
5130.788938 81.623 -169.7728
5167.968750 81.614 -168.8535
5205.417982 81.609 -167.8804
5243.138586 81.611 -166.8435
5281.132530 81.620 -165.7332
5319.401793 81.639 -164.5413
5357.948371 81.672 -163.2617
5396.774274 81.720 -161.8912
5435.881525 81.788 -160.4303
5475.272163 81.877 -158.8833
5514.948243 81.992 -157.2594
5554.911831 82.134 -155.5720
5595.165012 82.306 -153.8392
5635.709884 82.510 -152.0842
5676.548561 82.746 -150.3345
5717.683172 83.014 -148.6219
5759.115861 83.314 -146.9814
5800.848789 83.642 -145.4497
5842.884130 83.997 -144.0635
5885.224077 84.374 -142.8577
5927.870837 84.768 -141.8633
5970.826633 85.174 -141.1063
6014.093704 85.586 -140.6056
6057.674306 85.998 -140.3733
6101.570711 86.405 -140.4139
6145.785208 86.801 -140.7253
6190.320101 87.181 -141.2986
6235.177712 87.541 -142.1196
6280.360380 87.877 -143.1688
6325.870460 88.185 -144.4226
6371.710325 88.463 -145.8544
6417.882365 88.710 -147.4356
6464.388986 88.925 -149.1376
6511.232613 89.110 -150.9327
6558.415689 89.265 -152.7967
6605.940673 89.393 -154.7097
6653.810042 89.497 -156.6574
6702.026292 89.579 -158.6313
6750.591937 89.642 -160.6292
6799.509509 89.689 -162.6540
6848.781558 89.721 -164.7129
6898.410653 89.740 -166.8159
6948.399380 89.746 -168.9742
6998.750346 89.738 -171.1986
7049.466176 89.715 -173.4984
7100.549514 89.676 -175.8803
7152.003023 89.619 -178.3483
7203.829385 89.542 179.0966
7256.031302 89.442 176.4561
7308.611496 89.319 173.7339
7361.572708 89.169 170.9358
7414.917698 88.992 168.0691
7468.649249 88.786 165.1422
7522.770160 88.550 162.1641
7577.283253 88.283 159.1443
7632.191371 87.983 156.0917
7687.497376 87.652 153.0146
7743.204151 87.288 149.9197
7799.314600 86.893 146.8113
7855.831649 86.467 143.6909
7912.758244 86.012 140.5559
7970.097352 85.528 137.3993
8027.851962 85.019 134.2084
8086.025087 84.486 130.9641
8144.619758 83.933 127.6398
8203.639030 83.362 124.2001
8263.085980 82.779 120.6000
8322.963708 82.188 116.7843
8383.275334 81.595 112.6878
8444.024002 81.006 108.2365
8505.212881 80.429 103.3496
8566.845160 79.870 97.9441
8628.924051 79.341 91.9414
8691.452792 78.852 85.2810
8754.434642 78.416 77.9383
8817.872884 78.047 69.9488
8881.770826 77.758 61.4283
8946.131799 77.560 52.5769
9010.959157 77.462 43.6535
9076.256282 77.468 34.9247
9142.026576 77.572 26.6080
9208.273470 77.767 18.8384
9275.000415 78.039 11.6614
9342.210891 78.372 5.0536
9409.908403 78.749 -1.0527
9478.096478 79.155 -6.7468
9546.778672 79.574 -12.1227
9615.958566 79.993 -17.2694
9685.639765 80.399 -22.2649
9755.825904 80.780 -27.1737
9826.520640 81.128 -32.0450
9897.727659 81.433 -36.9124
9969.450674 81.686 -41.7939
10041.693423 81.881 -46.6928
10114.459673 82.012 -51.5981
10187.753217 82.074 -56.4878
10261.577877 82.066 -61.3315
10335.937500 81.986 -66.0942
10410.835964 81.836 -70.7400
10486.277173 81.618 -75.2355
10562.265060 81.335 -79.5510
10638.803587 80.992 -83.6620
10715.896743 80.593 -87.5483
10793.548548 80.143 -91.1955
10871.763050 79.646 -94.5941
10950.544327 79.107 -97.7407
11029.896485 78.531 -100.6389
11109.823662 77.924 -103.2993
11190.330024 77.290 -105.7396
11271.419768 76.635 -107.9839
11353.097122 75.962 -110.0611
11435.366344 75.277 -112.0048
11518.231722 74.582 -113.8527
11601.697577 73.884 -115.6487
11685.768261 73.186 -117.4437
11770.448155 72.493 -119.2981
11855.741674 71.813 -121.2827
11941.653265 71.153 -123.4796
12028.187408 70.519 -125.9812
12115.348612 69.919 -128.8887
12203.141422 69.360 -132.3090
12291.570415 68.844 -136.3497
12380.640201 68.370 -141.1130
12470.355424 67.934 -146.6837
12560.720760 67.526 -153.1172
12651.740920 67.132 -160.4197
12743.420650 66.738 -168.5256
12835.764729 66.333 -177.2762
12928.777972 65.906 173.5913
13022.465227 65.454 164.4277
13116.831378 64.980 155.6224
13211.881345 64.491 147.5351
13307.620084 64.003 140.4369
13404.052584 63.534 134.4846
13501.183875 63.109 129.7257
13599.019019 62.758 126.1198
13697.563116 62.507 123.5608
13796.821305 62.378 121.8936
13896.798760 62.383 120.9259
13997.500692 62.523 120.4415
14098.932352 62.783 120.2180
14201.099028 63.139 120.0491
14304.006046 63.563 119.7653
14407.658770 64.027 119.2469
14512.062604 64.507 118.4271
14617.222992 64.985 117.2852
14723.145416 65.450 115.8335
14829.835397 65.893 114.1021
14937.298497 66.313 112.1244
15045.540320 66.709 109.9283
15154.566507 67.083 107.5314
15264.382743 67.436 104.9412
15374.994752 67.769 102.1579
15486.408302 68.083 99.1769
15598.629201 68.377 95.9912
15711.663298 68.650 92.5912
15825.516487 68.900 88.9651
15940.194703 69.125 85.0996
16055.703925 69.320 80.9827
16172.050174 69.478 76.6080
16289.239516 69.594 71.9774
16407.278061 69.662 67.1034
16526.171961 69.675 62.0072
16645.927415 69.632 56.7161
16766.550667 69.530 51.2595
16888.048005 69.370 45.6663
17010.425762 69.152 39.9626
17133.690320 68.879 34.1699
17257.848103 68.554 28.3047
17382.905584 68.179 22.3791
17508.869284 67.757 16.4017
17635.745768 67.290 10.3793
17763.541652 66.783 4.3175
17892.263597 66.239 -1.7832
18021.918315 65.663 -7.9310
18152.512564 65.066 -14.1508
18284.053153 64.460 -20.4910
18416.546939 63.860 -27.0283
18550.000830 63.284 -33.8705
18684.421783 62.748 -41.1499
18819.816805 62.266 -49.0088
18956.192956 61.844 -57.5724
19093.557344 61.483 -66.8974
19231.917131 61.179 -76.8899
19371.279531 60.927 -87.1955
19511.651807 60.723 -97.1296
19653.041280 60.564 -105.7510
19795.455318 60.454 -112.1013
19938.901348 60.397 -115.4588
