* Measurement data measured by REW V5.31.3
* Source: EXCL: Headset (USB-C to 3.5mm Headphone Jack Adapter), MICROPHONE (Master Volume), 0, volume: 0.750
* Format: 256k Log Swept Sine, 1 sweep at -12.0 dBFS with no timing reference
* Dated: Apr 7, 2025 4:40:26 PM
* REW Settings:
*  C-weighting compensation: Off
*  Target level: 75.0 dB
* Note: ; 
* Measurement: Satyr 3 (Forward) L9
* Smoothing: 1/6 octave
* Frequency Step: 96 ppo
* Start Frequency: 20.0 Hz
*
* Freq(Hz) SPL(dB) Phase(degrees)
20.187378 80.823 -99.1510
20.333664 80.849 -99.2339
20.481010 80.883 -99.3407
20.629424 80.925 -99.4638
20.778913 80.975 -99.5957
20.929486 81.031 -99.7312
21.081150 81.095 -99.8671
21.233912 81.164 -100.0035
21.387782 81.239 -100.1429
21.542767 81.320 -100.2899
21.698874 81.405 -100.4503
21.856113 81.494 -100.6301
22.014492 81.585 -100.8348
22.174018 81.677 -101.0685
22.334700 81.770 -101.3337
22.496546 81.861 -101.6306
22.659566 81.950 -101.9580
22.823766 82.035 -102.3131
22.989157 82.117 -102.6921
23.155745 82.195 -103.0909
23.323542 82.268 -103.5052
23.492554 82.336 -103.9315
23.662790 82.399 -104.3664
23.834261 82.458 -104.8074
24.006973 82.512 -105.2521
24.180938 82.560 -105.6982
24.356163 82.603 -106.1436
24.532658 82.641 -106.5855
24.710431 82.672 -107.0210
24.889493 82.698 -107.4473
25.069853 82.719 -107.8618
25.251519 82.735 -108.2626
25.434502 82.746 -108.6493
25.618811 82.755 -109.0232
25.804456 82.761 -109.3875
25.991445 82.766 -109.7475
26.179790 82.771 -110.1097
26.369500 82.777 -110.4815
26.560584 82.784 -110.8699
26.753053 82.794 -111.2807
26.946917 82.806 -111.7177
27.142185 82.821 -112.1813
27.338869 82.839 -112.6693
27.536977 82.859 -113.1761
27.736522 82.883 -113.6938
27.937512 82.911 -114.2133
28.139959 82.943 -114.7251
28.343872 82.979 -115.2207
28.549264 83.020 -115.6939
28.756143 83.067 -116.1409
28.964522 83.118 -116.5612
29.174411 83.173 -116.9572
29.385821 83.231 -117.3335
29.598763 83.291 -117.6963
29.813248 83.350 -118.0521
30.029287 83.408 -118.4075
30.246891 83.463 -118.7676
30.466073 83.515 -119.1365
30.686842 83.563 -119.5164
30.909212 83.608 -119.9085
31.133193 83.650 -120.3127
31.358797 83.692 -120.7283
31.586035 83.735 -121.1545
31.814921 83.781 -121.5901
32.045465 83.831 -122.0343
32.277680 83.887 -122.4859
32.511577 83.950 -122.9435
32.747169 84.020 -123.4051
32.984469 84.096 -123.8676
33.223488 84.176 -124.3268
33.464239 84.259 -124.7773
33.706735 84.344 -125.2136
33.950987 84.430 -125.6298
34.197010 84.514 -126.0214
34.444816 84.598 -126.3854
34.694417 84.681 -126.7216
34.945827 84.763 -127.0326
35.199059 84.845 -127.3236
35.454126 84.927 -127.6020
35.711041 85.011 -127.8762
35.969818 85.096 -128.1541
36.230470 85.182 -128.4418
36.493011 85.269 -128.7431
36.757455 85.356 -129.0582
37.023814 85.442 -129.3849
37.292104 85.527 -129.7186
37.562338 85.610 -130.0537
37.834530 85.692 -130.3847
38.108695 85.771 -130.7074
38.384846 85.850 -131.0198
38.662999 85.927 -131.3221
38.943167 86.003 -131.6171
39.225365 86.079 -131.9096
39.509608 86.156 -132.2057
39.795911 86.232 -132.5119
40.084289 86.309 -132.8342
40.374756 86.385 -133.1775
40.667328 86.462 -133.5446
40.962020 86.538 -133.9362
41.258848 86.612 -134.3513
41.557827 86.685 -134.7870
41.858972 86.755 -135.2392
42.162299 86.823 -135.7036
42.467824 86.888 -136.1757
42.775564 86.949 -136.6509
43.085533 87.007 -137.1251
43.397749 87.061 -137.5947
43.712227 87.112 -138.0562
44.028983 87.160 -138.5073
44.348036 87.206 -138.9464
44.669400 87.250 -139.3735
44.993093 87.294 -139.7899
45.319131 87.337 -140.1982
45.647532 87.380 -140.6020
45.978313 87.423 -141.0045
46.311491 87.464 -141.4085
46.647083 87.505 -141.8157
46.985107 87.543 -142.2265
47.325581 87.578 -142.6407
47.668521 87.609 -143.0579
48.013947 87.638 -143.4781
48.361876 87.663 -143.9021
48.712326 87.686 -144.3317
49.065315 87.707 -144.7689
49.420863 87.728 -145.2158
49.778987 87.747 -145.6734
50.139706 87.766 -146.1414
50.503039 87.785 -146.6184
50.869005 87.804 -147.1020
51.237623 87.822 -147.5896
51.608912 87.839 -148.0792
51.982891 87.853 -148.5691
52.359580 87.866 -149.0583
52.739000 87.877 -149.5456
53.121168 87.885 -150.0294
53.506106 87.890 -150.5076
53.893833 87.895 -150.9777
54.284370 87.898 -151.4375
54.677737 87.903 -151.8857
55.073955 87.908 -152.3223
55.473043 87.916 -152.7486
55.875024 87.927 -153.1670
56.279917 87.943 -153.5803
56.687745 87.963 -153.9907
57.098527 87.988 -154.3994
57.512287 88.017 -154.8065
57.929045 88.050 -155.2117
58.348822 88.084 -155.6156
58.771642 88.117 -156.0194
59.197525 88.146 -156.4249
59.626495 88.167 -156.8334
60.058573 88.179 -157.2450
60.493782 88.181 -157.6591
60.932145 88.174 -158.0750
61.373685 88.159 -158.4927
61.818424 88.141 -158.9130
62.266386 88.123 -159.3364
62.717593 88.107 -159.7623
63.172071 88.095 -160.1892
63.629842 88.088 -160.6146
64.090930 88.086 -161.0366
64.555359 88.090 -161.4539
65.023154 88.098 -161.8658
65.494339 88.111 -162.2724
65.968938 88.126 -162.6735
66.446976 88.144 -163.0692
66.928478 88.165 -163.4595
67.413469 88.186 -163.8446
67.901975 88.207 -164.2245
68.394021 88.229 -164.5997
68.889632 88.248 -164.9710
69.388835 88.267 -165.3391
69.891655 88.282 -165.7048
70.398118 88.296 -166.0689
70.908252 88.306 -166.4313
71.422083 88.314 -166.7919
71.939636 88.320 -167.1501
72.460941 88.322 -167.5052
72.986023 88.322 -167.8568
73.514909 88.319 -168.2043
74.047629 88.314 -168.5476
74.584208 88.306 -168.8870
75.124676 88.296 -169.2227
75.669061 88.284 -169.5550
76.217390 88.270 -169.8838
76.769692 88.255 -170.2088
77.325997 88.238 -170.5297
77.886333 88.221 -170.8458
78.450730 88.202 -171.1570
79.019216 88.183 -171.4632
79.591822 88.163 -171.7646
80.168577 88.142 -172.0620
80.749512 88.121 -172.3561
81.334656 88.098 -172.6477
81.924040 88.075 -172.9375
82.517696 88.052 -173.2262
83.115653 88.027 -173.5141
83.717943 88.002 -173.8015
84.324598 87.977 -174.0883
84.935649 87.951 -174.3746
85.551128 87.924 -174.6599
86.171066 87.898 -174.9439
86.795497 87.870 -175.2265
87.424453 87.842 -175.5070
88.057967 87.814 -175.7851
88.696071 87.785 -176.0599
89.338800 87.756 -176.3307
89.986185 87.727 -176.5970
90.638262 87.698 -176.8582
91.295065 87.669 -177.1146
91.956626 87.640 -177.3662
92.622982 87.612 -177.6134
93.294166 87.584 -177.8565
93.970214 87.556 -178.0957
94.651161 87.528 -178.3309
95.337042 87.500 -178.5622
96.027894 87.473 -178.7895
96.723752 87.446 -179.0128
97.424652 87.420 -179.2320
98.130631 87.394 -179.4468
98.841726 87.369 -179.6568
99.557974 87.345 -179.8619
100.279412 87.321 179.9378
101.006078 87.298 179.7419
101.738010 87.276 179.5494
102.475245 87.254 179.3588
103.217823 87.233 179.1681
103.965782 87.212 178.9752
104.719161 87.192 178.7777
105.477999 87.171 178.5735
106.242336 87.151 178.3612
107.012212 87.131 178.1409
107.787666 87.111 177.9141
108.568740 87.091 177.6834
109.355474 87.073 177.4520
110.147909 87.055 177.2231
110.946086 87.038 176.9996
111.750047 87.022 176.7831
112.559834 87.006 176.5749
113.375489 86.991 176.3750
114.197055 86.975 176.1830
115.024574 86.959 175.9978
115.858089 86.942 175.8184
116.697645 86.925 175.6439
117.543284 86.906 175.4741
118.395051 86.887 175.3093
119.252990 86.868 175.1505
120.117147 86.847 174.9991
120.987565 86.827 174.8568
121.864291 86.806 174.7254
122.747370 86.784 174.6065
123.636848 86.762 174.5015
124.532771 86.740 174.4113
125.435187 86.718 174.3367
126.344142 86.696 174.2781
127.259684 86.674 174.2355
128.181860 86.653 174.2085
129.110718 86.632 174.1957
130.046308 86.613 174.1944
130.988677 86.595 174.2010
131.937875 86.579 174.2108
132.893951 86.564 174.2186
133.856956 86.550 174.2194
134.826938 86.537 174.2084
135.803950 86.525 174.1819
136.788041 86.513 174.1375
137.779264 86.500 174.0742
138.777669 86.486 173.9929
139.783309 86.471 173.8954
140.796237 86.454 173.7847
141.816504 86.434 173.6638
142.844165 86.411 173.5359
143.879273 86.386 173.4042
144.921881 86.358 173.2715
145.972045 86.327 173.1407
147.029819 86.294 173.0142
148.095257 86.259 172.8945
149.168417 86.222 172.7837
150.249353 86.184 172.6837
151.338121 86.144 172.5962
152.434780 86.103 172.5228
153.539385 86.062 172.4648
154.651995 86.020 172.4239
155.772667 85.978 172.4009
156.901460 85.937 172.3966
158.038432 85.897 172.4113
159.183644 85.857 172.4442
160.337154 85.819 172.4943
161.499023 85.783 172.5597
162.669312 85.748 172.6386
163.848081 85.716 172.7292
165.035392 85.687 172.8298
166.231306 85.660 172.9387
167.435887 85.637 173.0540
168.649196 85.617 173.1733
169.871298 85.601 173.2936
171.102255 85.588 173.4118
172.342133 85.579 173.5245
173.590995 85.573 173.6285
174.848907 85.569 173.7210
176.115934 85.567 173.7998
177.392143 85.566 173.8632
178.677599 85.565 173.9101
179.972371 85.563 173.9404
181.276525 85.561 173.9546
182.590129 85.557 173.9536
183.913252 85.553 173.9383
185.245964 85.547 173.9098
186.588332 85.541 173.8691
187.940428 85.534 173.8177
189.302322 85.526 173.7577
190.674085 85.517 173.6915
192.055788 85.508 173.6218
193.447503 85.497 173.5508
194.849303 85.486 173.4801
196.261262 85.473 173.4100
197.683452 85.460 173.3404
199.115948 85.445 173.2709
200.558824 85.430 173.2011
202.012156 85.415 173.1306
203.476019 85.400 173.0593
204.950490 85.385 172.9872
206.435646 85.370 172.9146
207.931564 85.356 172.8419
209.438322 85.341 172.7698
210.955998 85.327 172.6990
212.484672 85.313 172.6299
214.024424 85.299 172.5631
215.575333 85.285 172.4985
217.137481 85.272 172.4364
218.710948 85.258 172.3765
220.295818 85.245 172.3183
221.892172 85.232 172.2613
223.500094 85.220 172.2049
225.119668 85.210 172.1489
226.750978 85.200 172.0938
228.394109 85.191 172.0402
230.049147 85.184 171.9890
231.716178 85.178 171.9412
233.395289 85.173 171.8972
235.086567 85.169 171.8570
236.790102 85.166 171.8200
238.505980 85.164 171.7856
240.234293 85.162 171.7533
241.975130 85.161 171.7228
243.728581 85.160 171.6941
245.494739 85.160 171.6673
247.273695 85.159 171.6425
249.065542 85.159 171.6194
250.870374 85.159 171.5979
252.688284 85.160 171.5777
254.519367 85.161 171.5585
256.363720 85.162 171.5402
258.221437 85.164 171.5221
260.092616 85.166 171.5037
261.977354 85.168 171.4843
263.875750 85.170 171.4638
265.787903 85.172 171.4427
267.713911 85.172 171.4216
269.653877 85.172 171.4018
271.607900 85.171 171.3840
273.576083 85.169 171.3693
275.558528 85.168 171.3586
277.555338 85.167 171.3521
279.566619 85.166 171.3500
281.592474 85.167 171.3516
283.633009 85.168 171.3561
285.688331 85.170 171.3624
287.758546 85.173 171.3696
289.843763 85.176 171.3774
291.944090 85.180 171.3855
294.059638 85.184 171.3939
296.190515 85.189 171.4027
298.336833 85.194 171.4122
300.498705 85.200 171.4224
302.676243 85.207 171.4332
304.869559 85.214 171.4442
307.078770 85.221 171.4551
309.303989 85.230 171.4654
311.545334 85.238 171.4748
313.802919 85.247 171.4834
316.076865 85.256 171.4914
318.367288 85.265 171.4993
320.674309 85.274 171.5078
322.998047 85.283 171.5174
325.338624 85.292 171.5286
327.696162 85.301 171.5421
330.070783 85.309 171.5583
332.462612 85.317 171.5779
334.871773 85.325 171.6011
337.298392 85.333 171.6273
339.742595 85.340 171.6560
342.204510 85.345 171.6861
344.684265 85.351 171.7164
347.181989 85.355 171.7463
349.697813 85.358 171.7753
352.231868 85.359 171.8033
354.784285 85.360 171.8306
357.355198 85.360 171.8578
359.944741 85.358 171.8856
362.553049 85.356 171.9144
365.180258 85.353 171.9445
367.826505 85.350 171.9754
370.491927 85.346 172.0061
373.176665 85.342 172.0353
375.880856 85.338 172.0619
378.604644 85.334 172.0844
381.348169 85.330 172.1018
384.111575 85.325 172.1137
386.895006 85.321 172.1201
389.698607 85.316 172.1217
392.522524 85.311 172.1196
395.366904 85.306 172.1151
398.231895 85.299 172.1094
401.117648 85.292 172.1039
404.024312 85.283 172.0999
406.952038 85.273 172.0984
409.900981 85.262 172.1012
412.871292 85.250 172.1095
415.863128 85.236 172.1247
418.876643 85.222 172.1477
421.911996 85.206 172.1791
424.969344 85.189 172.2188
428.048847 85.172 172.2656
431.150666 85.154 172.3183
434.274961 85.136 172.3751
437.421897 85.117 172.4342
440.591636 85.097 172.4941
443.784345 85.076 172.5534
447.000189 85.055 172.6112
450.239337 85.033 172.6671
453.501956 85.011 172.7211
456.788219 84.989 172.7736
460.098294 84.966 172.8252
463.432356 84.943 172.8764
466.790578 84.921 172.9278
470.173135 84.900 172.9793
473.580203 84.879 173.0309
477.011961 84.860 173.0819
480.468586 84.841 173.1321
483.950259 84.824 173.1809
487.457163 84.809 173.2282
490.989478 84.795 173.2743
494.547390 84.782 173.3195
498.131084 84.771 173.3643
501.740748 84.762 173.4089
505.376568 84.754 173.4535
509.038735 84.748 173.4981
512.727439 84.744 173.5426
516.442874 84.741 173.5869
520.185232 84.741 173.6307
523.954708 84.742 173.6740
527.751500 84.745 173.7167
531.575805 84.751 173.7588
535.427822 84.759 173.8000
539.307753 84.770 173.8403
543.215800 84.784 173.8792
547.152165 84.800 173.9157
551.117055 84.819 173.9493
555.110677 84.841 173.9791
559.133237 84.864 174.0045
563.184947 84.890 174.0255
567.266018 84.918 174.0418
571.376661 84.948 174.0538
575.517092 84.978 174.0619
579.687526 85.010 174.0662
583.888181 85.042 174.0671
588.119275 85.075 174.0652
592.381030 85.108 174.0611
596.673667 85.141 174.0553
600.997410 85.174 174.0479
605.352485 85.207 174.0389
609.739119 85.239 174.0276
614.157540 85.271 174.0135
618.607979 85.302 173.9961
623.090667 85.332 173.9747
627.605839 85.361 173.9490
632.153730 85.388 173.9188
636.734576 85.415 173.8838
641.348617 85.440 173.8438
645.996094 85.464 173.7990
650.677248 85.487 173.7493
655.392323 85.509 173.6946
660.141566 85.529 173.6349
664.925224 85.549 173.5699
669.743546 85.568 173.4991
674.596784 85.586 173.4219
679.485191 85.603 173.3378
684.409020 85.618 173.2464
689.368530 85.631 173.1479
694.363979 85.643 173.0430
699.395626 85.653 172.9329
704.463736 85.661 172.8190
709.568570 85.667 172.7031
714.710396 85.672 172.5866
719.889483 85.676 172.4703
725.106099 85.678 172.3539
730.360516 85.679 172.2362
735.653010 85.680 172.1152
740.983855 85.680 171.9889
746.353329 85.679 171.8557
751.761713 85.677 171.7148
757.209288 85.673 171.5659
762.696339 85.668 171.4092
768.223151 85.662 171.2448
773.790013 85.654 171.0729
779.397214 85.645 170.8936
785.045047 85.634 170.7070
790.733808 85.622 170.5137
796.463791 85.608 170.3145
802.235296 85.593 170.1104
808.048623 85.578 169.9026
813.904077 85.561 169.6916
819.801961 85.545 169.4776
825.742584 85.529 169.2600
831.726255 85.512 169.0384
837.753287 85.496 168.8121
843.823992 85.481 168.5805
849.938689 85.466 168.3434
856.097695 85.451 168.1010
862.301332 85.436 167.8536
868.549922 85.421 167.6019
874.843793 85.406 167.3463
881.183272 85.391 167.0876
887.568689 85.376 166.8262
894.000378 85.361 166.5620
900.478673 85.347 166.2946
907.003913 85.333 166.0230
913.576437 85.319 165.7469
920.196588 85.306 165.4658
926.864712 85.292 165.1801
933.581156 85.279 164.8905
940.346270 85.266 164.5981
947.160407 85.253 164.3037
954.023921 85.240 164.0081
960.937172 85.229 163.7115
967.900519 85.218 163.4139
974.914325 85.209 163.1152
981.978956 85.201 162.8155
989.094780 85.195 162.5149
996.262169 85.189 162.2137
1003.481495 85.185 161.9122
1010.753136 85.183 161.6100
1018.077470 85.181 161.3064
1025.454879 85.181 161.0003
1032.885748 85.181 160.6909
1040.370463 85.182 160.3775
1047.909417 85.183 160.0606
1055.503000 85.183 159.7414
1063.151610 85.182 159.4222
1070.855645 85.181 159.1057
1078.615506 85.178 158.7941
1086.431599 85.174 158.4890
1094.304330 85.170 158.1908
1102.234110 85.164 157.8994
1110.221353 85.158 157.6146
1118.266475 85.150 157.3359
1126.369895 85.142 157.0637
1134.532035 85.131 156.7987
1142.753322 85.119 156.5419
1151.034184 85.106 156.2944
1159.375052 85.092 156.0568
1167.776361 85.076 155.8292
1176.238550 85.060 155.6111
1184.762060 85.042 155.4019
1193.347334 85.024 155.2012
1201.994821 85.004 155.0091
1210.704971 84.983 154.8260
1219.478238 84.962 154.6529
1228.315080 84.939 154.4909
1237.215957 84.916 154.3412
1246.181334 84.892 154.2045
1255.211678 84.868 154.0811
1264.307459 84.843 153.9705
1273.469152 84.820 153.8716
1282.697235 84.796 153.7831
1291.992188 84.773 153.7039
1301.354495 84.751 153.6328
1310.784647 84.729 153.5689
1320.283132 84.707 153.5115
1329.850448 84.686 153.4598
1339.487093 84.664 153.4133
1349.193569 84.643 153.3716
1358.970381 84.622 153.3348
1368.818041 84.600 153.3036
1378.737061 84.578 153.2784
1388.727958 84.556 153.2599
1398.791253 84.534 153.2488
1408.927471 84.513 153.2462
1419.137140 84.491 153.2535
1429.420793 84.469 153.2727
1439.778965 84.448 153.3057
1450.212197 84.427 153.3541
1460.721033 84.407 153.4192
1471.306019 84.388 153.5028
1481.967709 84.369 153.6068
1492.706658 84.352 153.7327
1503.523426 84.336 153.8813
1514.418576 84.322 154.0523
1525.392678 84.309 154.2443
1536.446302 84.297 154.4550
1547.580025 84.286 154.6819
1558.794428 84.276 154.9232
1570.090095 84.265 155.1779
1581.467615 84.253 155.4461
1592.927581 84.240 155.7289
1604.470591 84.225 156.0278
1616.097246 84.209 156.3439
1627.808153 84.191 156.6777
1639.603922 84.171 157.0289
1651.485168 84.150 157.3970
1663.452510 84.129 157.7818
1675.506573 84.107 158.1829
1687.647984 84.084 158.6002
1699.877377 84.062 159.0334
1712.195390 84.040 159.4813
1724.602663 84.020 159.9412
1737.099845 84.002 160.4092
1749.687587 83.986 160.8810
1762.366544 83.973 161.3526
1775.137379 83.962 161.8205
1788.000756 83.953 162.2823
1800.957346 83.945 162.7372
1814.007826 83.940 163.1851
1827.152874 83.935 163.6270
1840.393177 83.932 164.0637
1853.729425 83.930 164.4952
1867.162312 83.930 164.9206
1880.692540 83.931 165.3370
1894.320813 83.934 165.7399
1908.047843 83.938 166.1241
1921.874344 83.944 166.4845
1935.801038 83.949 166.8170
1949.828650 83.955 167.1192
1963.957912 83.958 167.3904
1978.189561 83.960 167.6316
1992.524338 83.959 167.8456
2006.962991 83.955 168.0363
2021.506272 83.948 168.2079
2036.154940 83.938 168.3639
2050.909758 83.926 168.5061
2065.771495 83.911 168.6346
2080.740927 83.896 168.7477
2095.818833 83.880 168.8435
2111.006001 83.863 168.9195
2126.303220 83.845 168.9734
2141.711290 83.827 169.0035
2157.231013 83.807 169.0093
2172.863198 83.786 168.9918
2188.608660 83.762 168.9534
2204.468221 83.737 168.8976
2220.442706 83.709 168.8282
2236.532950 83.679 168.7486
2252.739789 83.646 168.6619
2269.064070 83.612 168.5711
2285.506644 83.577 168.4791
2302.068367 83.540 168.3879
2318.750104 83.502 168.2990
2335.552723 83.464 168.2124
2352.477101 83.427 168.1278
2369.524119 83.390 168.0443
2386.694668 83.354 167.9611
2403.989641 83.319 167.8778
2421.409941 83.286 167.7942
2438.956476 83.254 167.7101
2456.630160 83.224 167.6252
2474.431915 83.197 167.5379
2492.362668 83.172 167.4456
2510.423356 83.151 167.3446
2528.614918 83.133 167.2311
2546.938304 83.117 167.1016
2565.394469 83.103 166.9537
2583.984375 83.090 166.7867
2602.708991 83.077 166.6017
2621.569293 83.062 166.4020
2640.566265 83.046 166.1931
2659.700897 83.026 165.9814
2678.974186 83.003 165.7750
2698.387137 82.977 165.5821
2717.940763 82.947 165.4112
2737.636082 82.914 165.2697
2757.474121 82.879 165.1637
2777.455915 82.841 165.0978
2797.582506 82.803 165.0756
2817.854942 82.764 165.1000
2838.274281 82.726 165.1732
2858.841586 82.688 165.2975
2879.557931 82.651 165.4741
2900.424394 82.617 165.7038
2921.442065 82.586 165.9865
2942.612039 82.557 166.3208
2963.935418 82.533 166.7041
2985.413316 82.514 167.1325
3007.046852 82.499 167.6008
3028.837153 82.490 168.1025
3050.785356 82.485 168.6301
3072.892604 82.486 169.1750
3095.160050 82.492 169.7277
3117.588856 82.502 170.2776
3140.180190 82.515 170.8143
3162.935230 82.531 171.3275
3185.855163 82.547 171.8087
3208.941182 82.562 172.2529
3232.194493 82.573 172.6592
3255.616307 82.579 173.0316
3279.207844 82.578 173.3787
3302.970336 82.569 173.7132
3326.905021 82.552 174.0499
3351.013146 82.527 174.4039
3375.295969 82.497 174.7889
3399.754755 82.463 175.2144
3424.390779 82.430 175.6834
3449.205326 82.400 176.1914
3474.199690 82.377 176.7253
3499.375173 82.364 177.2641
3524.733088 82.363 177.7811
3550.274757 82.376 178.2463
3576.001511 82.401 178.6302
3601.914692 82.438 178.9075
3628.015651 82.482 179.0598
3654.305748 82.531 179.0772
3680.786354 82.580 178.9592
3707.458849 82.625 178.7132
3734.324624 82.663 178.3536
3761.385080 82.691 177.8994
3788.641627 82.707 177.3723
3816.095686 82.711 176.7951
3843.748688 82.701 176.1898
3871.602076 82.679 175.5766
3899.657300 82.645 174.9728
3927.915825 82.601 174.3926
3956.379122 82.548 173.8466
3985.048676 82.488 173.3426
4013.925981 82.421 172.8858
4043.012544 82.350 172.4798
4072.309879 82.274 172.1272
4101.819515 82.194 171.8301
4131.542990 82.111 171.5907
4161.481854 82.024 171.4114
4191.637667 81.935 171.2947
4222.012001 81.842 171.2433
4252.606441 81.747 171.2599
4283.422580 81.649 171.3472
4314.462026 81.548 171.5078
4345.726396 81.445 171.7438
4377.217321 81.341 172.0573
4408.936442 81.235 172.4487
4440.885413 81.129 172.9180
4473.065899 81.023 173.4642
4505.479579 80.919 174.0854
4538.128141 80.816 174.7797
4571.013288 80.716 175.5445
4604.136735 80.619 176.3776
4637.500207 80.528 177.2764
4671.105446 80.442 178.2388
4704.954201 80.364 179.2621
4739.048239 80.295 -179.6569
4773.389336 80.237 -178.5220
4807.979283 80.191 -177.3382
4842.819883 80.160 -176.1120
4877.912952 80.147 -174.8517
4913.260320 80.152 -173.5679
4948.863830 80.179 -172.2733
4984.725337 80.228 -170.9829
5020.846712 80.302 -169.7136
5057.229836 80.401 -168.4837
5093.876609 80.525 -167.3126
5130.788938 80.674 -166.2205
5167.968750 80.848 -165.2275
5205.417982 81.046 -164.3531
5243.138586 81.264 -163.6159
5281.132530 81.500 -163.0330
5319.401793 81.752 -162.6193
5357.948371 82.016 -162.3877
5396.774274 82.288 -162.3486
5435.881525 82.563 -162.5098
5475.272163 82.838 -162.8759
5514.948243 83.107 -163.4485
5554.911831 83.366 -164.2254
5595.165012 83.609 -165.2000
5635.709884 83.833 -166.3613
5676.548561 84.031 -167.6929
5717.683172 84.201 -169.1736
5759.115861 84.337 -170.7770
5800.848789 84.437 -172.4724
5842.884130 84.498 -174.2247
5885.224077 84.519 -175.9956
5927.870837 84.497 -177.7439
5970.826633 84.435 -179.4262
6014.093704 84.331 179.0030
6057.674306 84.189 177.5898
6101.570711 84.011 176.3813
6145.785208 83.802 175.4246
6190.320101 83.568 174.7666
6235.177712 83.316 174.4529
6280.360380 83.055 174.5262
6325.870460 82.796 175.0237
6371.710325 82.552 175.9710
6417.882365 82.337 177.3762
6464.388986 82.169 179.2197
6511.232613 82.062 -178.5550
6558.415689 82.030 -176.0474
6605.940673 82.083 -173.3985
6653.810042 82.222 -170.7783
6702.026292 82.443 -168.3632
6750.591937 82.736 -166.3108
6799.509509 83.084 -164.7400
6848.781558 83.470 -163.7223
6898.410653 83.878 -163.2843
6948.399380 84.291 -163.4161
6998.750346 84.698 -164.0834
7049.466176 85.088 -165.2379
7100.549514 85.456 -166.8261
7152.003023 85.798 -168.7958
7203.829385 86.111 -171.1003
7256.031302 86.396 -173.7012
7308.611496 86.654 -176.5696
7361.572708 86.884 -179.6861
7414.917698 87.089 176.9599
7468.649249 87.267 173.3718
7522.770160 87.417 169.5483
7577.283253 87.537 165.4857
7632.191371 87.622 161.1805
7687.497376 87.667 156.6329
7743.204151 87.664 151.8488
7799.314600 87.607 146.8415
7855.831649 87.489 141.6334
7912.758244 87.302 136.2549
7970.097352 87.042 130.7423
8027.851962 86.704 125.1330
8086.025087 86.288 119.4591
8144.619758 85.794 113.7397
8203.639030 85.225 107.9727
8263.085980 84.588 102.1258
8322.963708 83.888 96.1262
8383.275334 83.134 89.8431
8444.024002 82.338 83.0600
8505.212881 81.511 75.4204
8566.845160 80.670 66.3278
8628.924051 79.834 54.7684
8691.452792 79.029 39.1230
8754.434642 78.282 17.6421
8817.872884 77.623 -8.5510
8881.770826 77.080 -33.2217
8946.131799 76.673 -51.8692
9010.959157 76.409 -65.0505
9076.256282 76.284 -74.6172
9142.026576 76.281 -81.9146
9208.273470 76.381 -87.7462
9275.000415 76.559 -92.5901
9342.210891 76.797 -96.7456
9409.908403 77.077 -100.4144
9478.096478 77.386 -103.7438
9546.778672 77.711 -106.8479
9615.958566 78.042 -109.8191
9685.639765 78.369 -112.7321
9755.825904 78.682 -115.6453
9826.520640 78.972 -118.6006
9897.727659 79.231 -121.6226
9969.450674 79.449 -124.7191
10041.693423 79.621 -127.8813
10114.459673 79.739 -131.0856
10187.753217 79.801 -134.2960
10261.577877 79.803 -137.4676
10335.937500 79.746 -140.5494
10410.835964 79.631 -143.4896
10486.277173 79.464 -146.2390
10562.265060 79.250 -148.7567
10638.803587 78.998 -151.0138
10715.896743 78.719 -152.9962
10793.548548 78.422 -154.7050
10871.763050 78.118 -156.1552
10950.544327 77.817 -157.3733
11029.896485 77.528 -158.3947
11109.823662 77.258 -159.2613
11190.330024 77.014 -160.0211
11271.419768 76.803 -160.7277
11353.097122 76.626 -161.4398
11435.366344 76.485 -162.2194
11518.231722 76.378 -163.1278
11601.697577 76.300 -164.2209
11685.768261 76.242 -165.5432
11770.448155 76.192 -167.1219
11855.741674 76.138 -168.9647
11941.653265 76.067 -171.0567
12028.187408 75.966 -173.3632
12115.348612 75.826 -175.8318
12203.141422 75.638 -178.3987
12291.570415 75.400 179.0048
12380.640201 75.112 176.4431
12470.355424 74.777 173.9688
12560.720760 74.405 171.6155
12651.740920 74.004 169.3937
12743.420650 73.586 167.2893
12835.764729 73.165 165.2651
12928.777972 72.752 163.2645
13022.465227 72.359 161.2165
13116.831378 71.996 159.0431
13211.881345 71.666 156.6660
13307.620084 71.373 154.0134
13404.052584 71.114 151.0242
13501.183875 70.885 147.6503
13599.019019 70.679 143.8551
13697.563116 70.492 139.6105
13796.821305 70.316 134.8915
13896.798760 70.148 129.6710
13997.500692 69.984 123.9122
14098.932352 69.822 117.5579
14201.099028 69.662 110.5107
14304.006046 69.505 102.5883
14407.658770 69.353 93.4151
14512.062604 69.209 82.1205
14617.222992 69.075 66.3074
14723.145416 68.951 37.9186
14829.835397 68.839 -19.2715
14937.298497 68.733 -67.1781
15045.540320 68.631 -90.3746
15154.566507 68.528 -105.0285
15264.382743 68.418 -116.5200
15374.994752 68.299 -126.5469
15486.408302 68.170 -135.7729
15598.629201 68.031 -144.5094
15711.663298 67.888 -152.9290
15825.516487 67.741 -161.1462
15940.194703 67.594 -169.2483
16055.703925 67.445 -177.3066
16172.050174 67.289 174.6246
16289.239516 67.117 166.5093
16407.278061 66.917 158.3345
16526.171961 66.680 150.1096
16645.927415 66.395 141.8662
16766.550667 66.055 133.6534
16888.048005 65.655 125.5391
17010.425762 65.196 117.6108
17133.690320 64.677 109.9813
17257.848103 64.101 102.7931
17382.905584 63.475 96.2230
17508.869284 62.805 90.4753
17635.745768 62.100 85.7517
17763.541652 61.371 82.1770
17892.263597 60.630 79.6755
18021.918315 59.888 77.8552
18152.512564 59.153 76.0352
18284.053153 58.433 73.4749
18416.546939 57.730 69.6443
18550.000830 57.046 64.3162
18684.421783 56.380 57.4838
18819.816805 55.731 49.2428
18956.192956 55.100 39.7351
19093.557344 54.494 29.1777
19231.917131 53.920 17.9541
19371.279531 53.393 6.7031
19511.651807 52.931 -3.7061
19653.041280 52.557 -12.3556
19795.455318 52.292 -18.5013
19938.901348 52.154 -21.6780
