* Measurement data measured by REW V5.31.3
* Source: EXCL: Headset (USB-C to 3.5mm Headphone Jack Adapter), MICROPHONE (Master Volume), 0, volume: 0.750
* Format: 256k Log Swept Sine, 1 sweep at -12.0 dBFS with no timing reference
* Dated: Apr 7, 2025 4:48:47 PM
* REW Settings:
*  C-weighting compensation: Off
*  Target level: 75.0 dB
* Note: ; 
* Measurement: Satyr 3 (Forward) R3
* Smoothing: 1/6 octave
* Frequency Step: 96 ppo
* Start Frequency: 20.0 Hz
*
* Freq(Hz) SPL(dB) Phase(degrees)
20.187378 80.606 -101.9092
20.333664 80.644 -102.0312
20.481010 80.695 -102.1949
20.629424 80.758 -102.3959
20.778913 80.832 -102.6290
20.929486 80.913 -102.8884
21.081150 81.002 -103.1682
21.233912 81.097 -103.4625
21.387782 81.196 -103.7657
21.542767 81.299 -104.0730
21.698874 81.404 -104.3807
21.856113 81.510 -104.6860
22.014492 81.618 -104.9878
22.174018 81.725 -105.2865
22.334700 81.831 -105.5838
22.496546 81.936 -105.8823
22.659566 82.039 -106.1858
22.823766 82.139 -106.4982
22.989157 82.235 -106.8233
23.155745 82.327 -107.1647
23.323542 82.414 -107.5250
23.492554 82.497 -107.9055
23.662790 82.574 -108.3069
23.834261 82.647 -108.7284
24.006973 82.714 -109.1686
24.180938 82.778 -109.6252
24.356163 82.838 -110.0956
24.532658 82.894 -110.5772
24.710431 82.948 -111.0671
24.889493 83.000 -111.5628
25.069853 83.050 -112.0615
25.251519 83.097 -112.5607
25.434502 83.143 -113.0578
25.618811 83.186 -113.5500
25.804456 83.226 -114.0345
25.991445 83.263 -114.5085
26.179790 83.296 -114.9697
26.369500 83.326 -115.4160
26.560584 83.352 -115.8466
26.753053 83.375 -116.2617
26.946917 83.395 -116.6631
27.142185 83.413 -117.0541
27.338869 83.430 -117.4390
27.536977 83.447 -117.8235
27.736522 83.463 -118.2136
27.937512 83.481 -118.6151
28.139959 83.500 -119.0329
28.343872 83.520 -119.4706
28.549264 83.542 -119.9300
28.756143 83.565 -120.4109
28.964522 83.590 -120.9116
29.174411 83.617 -121.4283
29.385821 83.646 -121.9567
29.598763 83.677 -122.4916
29.813248 83.710 -123.0281
30.029287 83.746 -123.5615
30.246891 83.785 -124.0882
30.466073 83.827 -124.6054
30.686842 83.873 -125.1114
30.909212 83.922 -125.6054
31.133193 83.976 -126.0876
31.358797 84.032 -126.5587
31.586035 84.092 -127.0196
31.814921 84.155 -127.4715
32.045465 84.220 -127.9155
32.277680 84.288 -128.3526
32.511577 84.357 -128.7834
32.747169 84.427 -129.2082
32.984469 84.499 -129.6273
33.223488 84.572 -130.0408
33.464239 84.646 -130.4487
33.706735 84.722 -130.8514
33.950987 84.799 -131.2496
34.197010 84.878 -131.6446
34.444816 84.958 -132.0376
34.694417 85.040 -132.4304
34.945827 85.124 -132.8243
35.199059 85.208 -133.2205
35.454126 85.293 -133.6194
35.711041 85.378 -134.0210
35.969818 85.462 -134.4243
36.230470 85.545 -134.8280
36.493011 85.626 -135.2302
36.757455 85.706 -135.6290
37.023814 85.784 -136.0228
37.292104 85.860 -136.4101
37.562338 85.934 -136.7899
37.834530 86.007 -137.1615
38.108695 86.079 -137.5251
38.384846 86.150 -137.8807
38.662999 86.221 -138.2292
38.943167 86.290 -138.5714
39.225365 86.359 -138.9087
39.509608 86.426 -139.2425
39.795911 86.492 -139.5749
40.084289 86.556 -139.9080
40.374756 86.618 -140.2439
40.667328 86.678 -140.5852
40.962020 86.736 -140.9336
41.258848 86.792 -141.2910
41.557827 86.847 -141.6582
41.858972 86.901 -142.0356
42.162299 86.955 -142.4229
42.467824 87.008 -142.8194
42.775564 87.061 -143.2241
43.085533 87.113 -143.6357
43.397749 87.165 -144.0533
43.712227 87.217 -144.4759
44.028983 87.267 -144.9033
44.348036 87.315 -145.3357
44.669400 87.363 -145.7739
44.993093 87.408 -146.2191
45.319131 87.452 -146.6728
45.647532 87.494 -147.1362
45.978313 87.535 -147.6097
46.311491 87.575 -148.0926
46.647083 87.614 -148.5832
46.985107 87.652 -149.0787
47.325581 87.688 -149.5754
47.668521 87.723 -150.0692
48.013947 87.756 -150.5561
48.361876 87.786 -151.0326
48.712326 87.814 -151.4968
49.065315 87.839 -151.9483
49.420863 87.861 -152.3887
49.778987 87.881 -152.8212
50.139706 87.898 -153.2499
50.503039 87.913 -153.6794
50.869005 87.926 -154.1131
51.237623 87.937 -154.5538
51.608912 87.945 -155.0024
51.982891 87.951 -155.4592
52.359580 87.954 -155.9237
52.739000 87.954 -156.3960
53.121168 87.952 -156.8764
53.506106 87.947 -157.3660
53.893833 87.941 -157.8662
54.284370 87.933 -158.3790
54.677737 87.924 -158.9064
55.073955 87.914 -159.4509
55.473043 87.904 -160.0154
55.875024 87.893 -160.6034
56.279917 87.882 -161.2187
56.687745 87.871 -161.8646
57.098527 87.859 -162.5423
57.512287 87.848 -163.2493
57.929045 87.839 -163.9770
58.348822 87.831 -164.7090
58.771642 87.827 -165.4211
59.197525 87.826 -166.0839
59.626495 87.830 -166.6685
60.058573 87.840 -167.1539
60.493782 87.855 -167.5325
60.932145 87.875 -167.8128
61.373685 87.901 -168.0167
61.818424 87.929 -168.1737
62.266386 87.958 -168.3137
62.717593 87.988 -168.4620
63.172071 88.016 -168.6365
63.629842 88.044 -168.8468
64.090930 88.070 -169.0961
64.555359 88.095 -169.3821
65.023154 88.118 -169.7005
65.494339 88.141 -170.0457
65.968938 88.162 -170.4130
66.446976 88.184 -170.7977
66.928478 88.204 -171.1961
67.413469 88.225 -171.6040
67.901975 88.245 -172.0175
68.394021 88.265 -172.4326
68.889632 88.284 -172.8456
69.388835 88.302 -173.2537
69.891655 88.319 -173.6548
70.398118 88.334 -174.0480
70.908252 88.348 -174.4330
71.422083 88.359 -174.8099
71.939636 88.368 -175.1794
72.460941 88.374 -175.5420
72.986023 88.378 -175.8987
73.514909 88.380 -176.2504
74.047629 88.378 -176.5988
74.584208 88.373 -176.9455
75.124676 88.366 -177.2926
75.669061 88.355 -177.6420
76.217390 88.342 -177.9951
76.769692 88.327 -178.3522
77.325997 88.308 -178.7132
77.886333 88.288 -179.0770
78.450730 88.266 -179.4418
79.019216 88.243 -179.8060
79.591822 88.218 179.8318
80.168577 88.193 179.4727
80.749512 88.166 179.1173
81.334656 88.139 178.7659
81.924040 88.111 178.4185
82.517696 88.082 178.0753
83.115653 88.054 177.7360
83.717943 88.025 177.4008
84.324598 87.996 177.0698
84.935649 87.966 176.7430
85.551128 87.936 176.4207
86.171066 87.906 176.1028
86.795497 87.876 175.7890
87.424453 87.845 175.4791
88.057967 87.815 175.1727
88.696071 87.784 174.8692
89.338800 87.754 174.5684
89.986185 87.724 174.2698
90.638262 87.694 173.9733
91.295065 87.664 173.6784
91.956626 87.633 173.3848
92.622982 87.603 173.0919
93.294166 87.573 172.7999
93.970214 87.542 172.5088
94.651161 87.511 172.2193
95.337042 87.479 171.9323
96.027894 87.448 171.6485
96.723752 87.417 171.3689
97.424652 87.386 171.0939
98.130631 87.355 170.8239
98.841726 87.324 170.5586
99.557974 87.294 170.2976
100.279412 87.264 170.0401
101.006078 87.235 169.7849
101.738010 87.207 169.5312
102.475245 87.179 169.2782
103.217823 87.152 169.0256
103.965782 87.125 168.7736
104.719161 87.100 168.5232
105.477999 87.076 168.2758
106.242336 87.053 168.0330
107.012212 87.032 167.7961
107.787666 87.012 167.5655
108.568740 86.993 167.3409
109.355474 86.976 167.1212
110.147909 86.959 166.9052
110.946086 86.943 166.6915
111.750047 86.928 166.4788
112.559834 86.913 166.2661
113.375489 86.898 166.0524
114.197055 86.884 165.8371
115.024574 86.870 165.6201
115.858089 86.857 165.4017
116.697645 86.843 165.1827
117.543284 86.829 164.9645
118.395051 86.816 164.7488
119.252990 86.802 164.5376
120.117147 86.788 164.3326
120.987565 86.773 164.1351
121.864291 86.758 163.9452
122.747370 86.742 163.7621
123.636848 86.725 163.5848
124.532771 86.708 163.4116
125.435187 86.690 163.2410
126.344142 86.670 163.0718
127.259684 86.650 162.9036
128.181860 86.629 162.7366
129.110718 86.606 162.5714
130.046308 86.583 162.4087
130.988677 86.557 162.2493
131.937875 86.531 162.0933
132.893951 86.504 161.9407
133.856956 86.475 161.7911
134.826938 86.445 161.6437
135.803950 86.414 161.4984
136.788041 86.382 161.3550
137.779264 86.348 161.2138
138.777669 86.312 161.0755
139.783309 86.275 160.9405
140.796237 86.235 160.8094
141.816504 86.194 160.6829
142.844165 86.151 160.5616
143.879273 86.107 160.4464
144.921881 86.061 160.3385
145.972045 86.015 160.2388
147.029819 85.968 160.1484
148.095257 85.920 160.0680
149.168417 85.871 159.9984
150.249353 85.822 159.9398
151.338121 85.773 159.8930
152.434780 85.724 159.8584
153.539385 85.674 159.8368
154.651995 85.625 159.8290
155.772667 85.577 159.8355
156.901460 85.529 159.8567
158.038432 85.482 159.8922
159.183644 85.437 159.9415
160.337154 85.393 160.0039
161.499023 85.352 160.0788
162.669312 85.312 160.1662
163.848081 85.274 160.2659
165.035392 85.239 160.3781
166.231306 85.207 160.5026
167.435887 85.178 160.6386
168.649196 85.153 160.7849
169.871298 85.131 160.9398
171.102255 85.113 161.1012
172.342133 85.098 161.2666
173.590995 85.087 161.4333
174.848907 85.079 161.5977
176.115934 85.073 161.7562
177.392143 85.070 161.9044
178.677599 85.068 162.0377
179.972371 85.067 162.1523
181.276525 85.067 162.2450
182.590129 85.068 162.3145
183.913252 85.070 162.3611
185.245964 85.072 162.3859
186.588332 85.075 162.3912
187.940428 85.079 162.3798
189.302322 85.084 162.3539
190.674085 85.089 162.3158
192.055788 85.095 162.2670
193.447503 85.100 162.2085
194.849303 85.105 162.1407
196.261262 85.109 162.0633
197.683452 85.113 161.9761
199.115948 85.116 161.8788
200.558824 85.118 161.7712
202.012156 85.120 161.6539
203.476019 85.121 161.5276
204.950490 85.122 161.3935
206.435646 85.122 161.2530
207.931564 85.122 161.1077
209.438322 85.121 160.9593
210.955998 85.120 160.8097
212.484672 85.119 160.6610
214.024424 85.117 160.5148
215.575333 85.115 160.3723
217.137481 85.112 160.2336
218.710948 85.108 160.0989
220.295818 85.104 159.9681
221.892172 85.100 159.8409
223.500094 85.095 159.7167
225.119668 85.091 159.5949
226.750978 85.088 159.4747
228.394109 85.085 159.3552
230.049147 85.083 159.2353
231.716178 85.081 159.1139
233.395289 85.081 158.9898
235.086567 85.081 158.8623
236.790102 85.082 158.7312
238.505980 85.084 158.5967
240.234293 85.086 158.4596
241.975130 85.090 158.3204
243.728581 85.093 158.1802
245.494739 85.097 158.0397
247.273695 85.101 157.9001
249.065542 85.105 157.7620
250.870374 85.109 157.6263
252.688284 85.114 157.4930
254.519367 85.119 157.3625
256.363720 85.125 157.2348
258.221437 85.130 157.1104
260.092616 85.136 156.9892
261.977354 85.142 156.8710
263.875750 85.147 156.7550
265.787903 85.151 156.6400
267.713911 85.153 156.5251
269.653877 85.155 156.4095
271.607900 85.156 156.2933
273.576083 85.156 156.1769
275.558528 85.156 156.0605
277.555338 85.157 155.9444
279.566619 85.157 155.8283
281.592474 85.159 155.7120
283.633009 85.160 155.5956
285.688331 85.162 155.4789
287.758546 85.165 155.3624
289.843763 85.167 155.2463
291.944090 85.169 155.1312
294.059638 85.172 155.0176
296.190515 85.174 154.9059
298.336833 85.177 154.7966
300.498705 85.179 154.6897
302.676243 85.182 154.5852
304.869559 85.186 154.4824
307.078770 85.189 154.3805
309.303989 85.193 154.2786
311.545334 85.198 154.1757
313.802919 85.203 154.0712
316.076865 85.210 153.9650
318.367288 85.216 153.8572
320.674309 85.223 153.7487
322.998047 85.231 153.6405
325.338624 85.238 153.5339
327.696162 85.245 153.4299
330.070783 85.252 153.3296
332.462612 85.258 153.2336
334.871773 85.263 153.1422
337.298392 85.267 153.0556
339.742595 85.271 152.9736
342.204510 85.273 152.8958
344.684265 85.274 152.8217
347.181989 85.274 152.7503
349.697813 85.273 152.6808
352.231868 85.271 152.6119
354.784285 85.269 152.5424
357.355198 85.265 152.4714
359.944741 85.261 152.3980
362.553049 85.256 152.3215
365.180258 85.250 152.2415
367.826505 85.244 152.1574
370.491927 85.237 152.0691
373.176665 85.230 151.9767
375.880856 85.222 151.8806
378.604644 85.214 151.7812
381.348169 85.205 151.6793
384.111575 85.196 151.5751
386.895006 85.187 151.4689
389.698607 85.178 151.3607
392.522524 85.169 151.2501
395.366904 85.159 151.1370
398.231895 85.149 151.0209
401.117648 85.139 150.9017
404.024312 85.127 150.7792
406.952038 85.113 150.6531
409.900981 85.098 150.5234
412.871292 85.081 150.3906
415.863128 85.061 150.2560
418.876643 85.038 150.1219
421.911996 85.011 149.9921
424.969344 84.982 149.8709
428.048847 84.950 149.7630
431.150666 84.915 149.6727
434.274961 84.878 149.6029
437.421897 84.841 149.5543
440.591636 84.804 149.5247
443.784345 84.768 149.5095
447.000189 84.733 149.5029
450.239337 84.699 149.4990
453.501956 84.667 149.4931
456.788219 84.636 149.4818
460.098294 84.606 149.4631
463.432356 84.577 149.4366
466.790578 84.548 149.4025
470.173135 84.519 149.3619
473.580203 84.490 149.3162
477.011961 84.462 149.2666
480.468586 84.434 149.2147
483.950259 84.407 149.1615
487.457163 84.381 149.1082
490.989478 84.356 149.0555
494.547390 84.332 149.0041
498.131084 84.309 148.9543
501.740748 84.288 148.9065
505.376568 84.268 148.8608
509.038735 84.250 148.8173
512.727439 84.235 148.7759
516.442874 84.221 148.7363
520.185232 84.210 148.6976
523.954708 84.202 148.6591
527.751500 84.195 148.6197
531.575805 84.192 148.5784
535.427822 84.190 148.5347
539.307753 84.192 148.4880
543.215800 84.195 148.4385
547.152165 84.201 148.3860
551.117055 84.208 148.3310
555.110677 84.218 148.2736
559.133237 84.229 148.2142
563.184947 84.242 148.1531
567.266018 84.256 148.0906
571.376661 84.272 148.0266
575.517092 84.289 147.9612
579.687526 84.306 147.8937
583.888181 84.325 147.8237
588.119275 84.343 147.7508
592.381030 84.362 147.6749
596.673667 84.381 147.5961
600.997410 84.399 147.5149
605.352485 84.416 147.4319
609.739119 84.433 147.3476
614.157540 84.448 147.2625
618.607979 84.463 147.1771
623.090667 84.476 147.0913
627.605839 84.488 147.0050
632.153730 84.500 146.9176
636.734576 84.511 146.8280
641.348617 84.522 146.7349
645.996094 84.531 146.6367
650.677248 84.540 146.5323
655.392323 84.549 146.4208
660.141566 84.556 146.3019
664.925224 84.562 146.1764
669.743546 84.566 146.0455
674.596784 84.569 145.9111
679.485191 84.569 145.7758
684.409020 84.568 145.6423
689.368530 84.565 145.5132
694.363979 84.560 145.3899
699.395626 84.555 145.2725
704.463736 84.549 145.1595
709.568570 84.542 145.0481
714.710396 84.535 144.9347
719.889483 84.528 144.8165
725.106099 84.521 144.6909
730.360516 84.512 144.5566
735.653010 84.503 144.4128
740.983855 84.492 144.2593
746.353329 84.480 144.0963
751.761713 84.466 143.9240
757.209288 84.450 143.7433
762.696339 84.432 143.5551
768.223151 84.412 143.3609
773.790013 84.389 143.1624
779.397214 84.365 142.9611
785.045047 84.339 142.7588
790.733808 84.311 142.5568
796.463791 84.282 142.3561
802.235296 84.252 142.1574
808.048623 84.221 141.9609
813.904077 84.190 141.7668
819.801961 84.160 141.5748
825.742584 84.129 141.3843
831.726255 84.100 141.1941
837.753287 84.072 141.0030
843.823992 84.045 140.8094
849.938689 84.019 140.6120
856.097695 83.994 140.4097
862.301332 83.970 140.2018
868.549922 83.946 139.9879
874.843793 83.923 139.7680
881.183272 83.899 139.5425
887.568689 83.876 139.3121
894.000378 83.853 139.0777
900.478673 83.830 138.8400
907.003913 83.807 138.5999
913.576437 83.784 138.3582
920.196588 83.762 138.1157
926.864712 83.741 137.8727
933.581156 83.720 137.6295
940.346270 83.700 137.3862
947.160407 83.681 137.1431
954.023921 83.663 136.9002
960.937172 83.647 136.6579
967.900519 83.632 136.4164
974.914325 83.618 136.1758
981.978956 83.607 135.9361
989.094780 83.597 135.6968
996.262169 83.589 135.4572
1003.481495 83.583 135.2166
1010.753136 83.579 134.9741
1018.077470 83.576 134.7295
1025.454879 83.574 134.4827
1032.885748 83.573 134.2344
1040.370463 83.572 133.9851
1047.909417 83.571 133.7357
1055.503000 83.571 133.4867
1063.151610 83.571 133.2388
1070.855645 83.570 132.9927
1078.615506 83.569 132.7491
1086.431599 83.567 132.5091
1094.304330 83.565 132.2738
1102.234110 83.562 132.0446
1110.221353 83.558 131.8228
1118.266475 83.553 131.6095
1126.369895 83.547 131.4056
1134.532035 83.540 131.2116
1142.753322 83.532 131.0278
1151.034184 83.524 130.8541
1159.375052 83.514 130.6901
1167.776361 83.504 130.5350
1176.238550 83.493 130.3882
1184.762060 83.481 130.2492
1193.347334 83.468 130.1180
1201.994821 83.455 129.9951
1210.704971 83.441 129.8813
1219.478238 83.426 129.7777
1228.315080 83.411 129.6856
1237.215957 83.395 129.6060
1246.181334 83.380 129.5397
1255.211678 83.364 129.4871
1264.307459 83.349 129.4484
1273.469152 83.334 129.4235
1282.697235 83.320 129.4126
1291.992188 83.307 129.4155
1301.354495 83.295 129.4315
1310.784647 83.284 129.4596
1320.283132 83.274 129.4984
1329.850448 83.265 129.5464
1339.487093 83.257 129.6031
1349.193569 83.250 129.6682
1358.970381 83.244 129.7415
1368.818041 83.240 129.8235
1378.737061 83.237 129.9150
1388.727958 83.235 130.0165
1398.791253 83.236 130.1276
1408.927471 83.240 130.2476
1419.137140 83.247 130.3746
1429.420793 83.257 130.5064
1439.778965 83.270 130.6407
1450.212197 83.286 130.7750
1460.721033 83.306 130.9070
1471.306019 83.328 131.0351
1481.967709 83.351 131.1583
1492.706658 83.376 131.2769
1503.523426 83.401 131.3921
1514.418576 83.426 131.5059
1525.392678 83.450 131.6208
1536.446302 83.472 131.7398
1547.580025 83.492 131.8663
1558.794428 83.510 132.0037
1570.090095 83.526 132.1552
1581.467615 83.539 132.3234
1592.927581 83.549 132.5105
1604.470591 83.557 132.7178
1616.097246 83.564 132.9458
1627.808153 83.569 133.1940
1639.603922 83.573 133.4610
1651.485168 83.576 133.7444
1663.452510 83.579 134.0412
1675.506573 83.582 134.3481
1687.647984 83.585 134.6621
1699.877377 83.589 134.9801
1712.195390 83.594 135.2998
1724.602663 83.599 135.6196
1737.099845 83.605 135.9380
1749.687587 83.611 136.2542
1762.366544 83.618 136.5670
1775.137379 83.626 136.8752
1788.000756 83.635 137.1772
1800.957346 83.645 137.4713
1814.007826 83.656 137.7555
1827.152874 83.666 138.0279
1840.393177 83.677 138.2869
1853.729425 83.688 138.5312
1867.162312 83.697 138.7606
1880.692540 83.706 138.9754
1894.320813 83.712 139.1769
1908.047843 83.716 139.3673
1921.874344 83.718 139.5488
1935.801038 83.718 139.7231
1949.828650 83.716 139.8913
1963.957912 83.711 140.0534
1978.189561 83.705 140.2082
1992.524338 83.698 140.3535
2006.962991 83.689 140.4865
2021.506272 83.679 140.6047
2036.154940 83.667 140.7060
2050.909758 83.654 140.7893
2065.771495 83.639 140.8547
2080.740927 83.622 140.9031
2095.818833 83.603 140.9362
2111.006001 83.582 140.9559
2126.303220 83.559 140.9644
2141.711290 83.535 140.9636
2157.231013 83.510 140.9550
2172.863198 83.483 140.9401
2188.608660 83.456 140.9194
2204.468221 83.430 140.8934
2220.442706 83.403 140.8616
2236.532950 83.377 140.8225
2252.739789 83.352 140.7744
2269.064070 83.328 140.7152
2285.506644 83.305 140.6431
2302.068367 83.283 140.5567
2318.750104 83.261 140.4557
2335.552723 83.239 140.3401
2352.477101 83.218 140.2099
2369.524119 83.197 140.0651
2386.694668 83.177 139.9052
2403.989641 83.157 139.7288
2421.409941 83.136 139.5348
2438.956476 83.116 139.3222
2456.630160 83.095 139.0912
2474.431915 83.072 138.8436
2492.362668 83.047 138.5827
2510.423356 83.019 138.3134
2528.614918 82.989 138.0416
2546.938304 82.955 137.7742
2565.394469 82.918 137.5180
2583.984375 82.878 137.2794
2602.708991 82.836 137.0640
2621.569293 82.793 136.8762
2640.566265 82.749 136.7188
2659.700897 82.705 136.5930
2678.974186 82.661 136.4985
2698.387137 82.619 136.4339
2717.940763 82.578 136.3973
2737.636082 82.538 136.3870
2757.474121 82.499 136.4016
2777.455915 82.462 136.4413
2797.582506 82.424 136.5074
2817.854942 82.387 136.6026
2838.274281 82.349 136.7305
2858.841586 82.311 136.8958
2879.557931 82.272 137.1029
2900.424394 82.233 137.3567
2921.442065 82.195 137.6613
2942.612039 82.157 138.0208
2963.935418 82.119 138.4382
2985.413316 82.084 138.9160
3007.046852 82.051 139.4552
3028.837153 82.021 140.0553
3050.785356 81.995 140.7135
3072.892604 81.973 141.4249
3095.160050 81.957 142.1819
3117.588856 81.947 142.9752
3140.180190 81.942 143.7940
3162.935230 81.944 144.6265
3185.855163 81.951 145.4607
3208.941182 81.963 146.2850
3232.194493 81.980 147.0886
3255.616307 82.000 147.8621
3279.207844 82.021 148.5980
3302.970336 82.044 149.2912
3326.905021 82.067 149.9390
3351.013146 82.089 150.5411
3375.295969 82.109 151.0999
3399.754755 82.127 151.6190
3424.390779 82.143 152.1027
3449.205326 82.157 152.5536
3474.199690 82.172 152.9723
3499.375173 82.187 153.3552
3524.733088 82.204 153.6955
3550.274757 82.223 153.9837
3576.001511 82.244 154.2095
3601.914692 82.266 154.3636
3628.015651 82.289 154.4396
3654.305748 82.310 154.4354
3680.786354 82.328 154.3530
3707.458849 82.340 154.1990
3734.324624 82.346 153.9834
3761.385080 82.343 153.7185
3788.641627 82.332 153.4183
3816.095686 82.311 153.0974
3843.748688 82.281 152.7699
3871.602076 82.243 152.4496
3899.657300 82.196 152.1490
3927.915825 82.141 151.8793
3956.379122 82.081 151.6502
3985.048676 82.014 151.4692
4013.925981 81.944 151.3419
4043.012544 81.871 151.2718
4072.309879 81.795 151.2606
4101.819515 81.718 151.3088
4131.542990 81.639 151.4161
4161.481854 81.560 151.5819
4191.637667 81.479 151.8058
4222.012001 81.397 152.0878
4252.606441 81.314 152.4284
4283.422580 81.229 152.8292
4314.462026 81.142 153.2919
4345.726396 81.052 153.8192
4377.217321 80.960 154.4134
4408.936442 80.866 155.0773
4440.885413 80.769 155.8137
4473.065899 80.672 156.6248
4505.479579 80.573 157.5132
4538.128141 80.474 158.4810
4571.013288 80.375 159.5298
4604.136735 80.279 160.6612
4637.500207 80.185 161.8762
4671.105446 80.096 163.1753
4704.954201 80.014 164.5579
4739.048239 79.939 166.0222
4773.389336 79.876 167.5654
4807.979283 79.825 169.1823
4842.819883 79.789 170.8663
4877.912952 79.771 172.6081
4913.260320 79.772 174.3964
4948.863830 79.795 176.2176
4984.725337 79.842 178.0561
5020.846712 79.914 179.8952
5057.229836 80.012 -178.2833
5093.876609 80.136 -176.4977
5130.788938 80.286 -174.7662
5167.968750 80.462 -173.1068
5205.417982 80.662 -171.5367
5243.138586 80.886 -170.0719
5281.132530 81.131 -168.7280
5319.401793 81.394 -167.5193
5357.948371 81.675 -166.4588
5396.774274 81.968 -165.5581
5435.881525 82.272 -164.8266
5475.272163 82.582 -164.2713
5514.948243 82.896 -163.8966
5554.911831 83.209 -163.7040
5595.165012 83.517 -163.6922
5635.709884 83.818 -163.8570
5676.548561 84.108 -164.1915
5717.683172 84.383 -164.6858
5759.115861 84.641 -165.3268
5800.848789 84.878 -166.0987
5842.884130 85.091 -166.9824
5885.224077 85.280 -167.9559
5927.870837 85.441 -168.9947
5970.826633 85.574 -170.0719
6014.093704 85.678 -171.1590
6057.674306 85.754 -172.2262
6101.570711 85.803 -173.2443
6145.785208 85.826 -174.1846
6190.320101 85.828 -175.0210
6235.177712 85.810 -175.7305
6280.360380 85.778 -176.2947
6325.870460 85.737 -176.7007
6371.710325 85.691 -176.9421
6417.882365 85.648 -177.0201
6464.388986 85.612 -176.9444
6511.232613 85.591 -176.7338
6558.415689 85.589 -176.4169
6605.940673 85.611 -176.0315
6653.810042 85.662 -175.6238
6702.026292 85.743 -175.2464
6750.591937 85.856 -174.9545
6799.509509 85.997 -174.8030
6848.781558 86.164 -174.8417
6898.410653 86.353 -175.1129
6948.399380 86.557 -175.6490
6998.750346 86.770 -176.4721
7049.466176 86.987 -177.5954
7100.549514 87.202 -179.0245
7152.003023 87.410 179.2395
7203.829385 87.605 177.1982
7256.031302 87.785 174.8549
7308.611496 87.943 172.2131
7361.572708 88.075 169.2775
7414.917698 88.177 166.0540
7468.649249 88.243 162.5510
7522.770160 88.268 158.7806
7577.283253 88.245 154.7589
7632.191371 88.171 150.5062
7687.497376 88.040 146.0469
7743.204151 87.849 141.4072
7799.314600 87.595 136.6127
7855.831649 87.279 131.6848
7912.758244 86.900 126.6365
7970.097352 86.462 121.4688
8027.851962 85.969 116.1661
8086.025087 85.425 110.6936
8144.619758 84.838 104.9930
8203.639030 84.216 98.9795
8263.085980 83.569 92.5381
8322.963708 82.910 85.5244
8383.275334 82.253 77.7684
8444.024002 81.616 69.0954
8505.212881 81.019 59.3698
8566.845160 80.483 48.5724
8628.924051 80.030 36.8904
8691.452792 79.679 24.7599
8754.434642 79.440 12.7747
8817.872884 79.319 1.4902
8881.770826 79.311 -8.7446
8946.131799 79.405 -17.8229
9010.959157 79.584 -25.8109
9076.256282 79.831 -32.8610
9142.026576 80.127 -39.1484
9208.273470 80.456 -44.8403
9275.000415 80.804 -50.0830
9342.210891 81.158 -54.9991
9409.908403 81.508 -59.6892
9478.096478 81.843 -64.2335
9546.778672 82.156 -68.6946
9615.958566 82.438 -73.1198
9685.639765 82.685 -77.5417
9755.825904 82.887 -81.9807
9826.520640 83.040 -86.4440
9897.727659 83.137 -90.9270
9969.450674 83.173 -95.4127
10041.693423 83.140 -99.8708
10114.459673 83.035 -104.2581
10187.753217 82.854 -108.5197
10261.577877 82.595 -112.5919
10335.937500 82.259 -116.4075
10410.835964 81.849 -119.9017
10486.277173 81.372 -123.0193
10562.265060 80.834 -125.7195
10638.803587 80.247 -127.9801
10715.896743 79.620 -129.8005
10793.548548 78.966 -131.2034
10871.763050 78.298 -132.2350
10950.544327 77.626 -132.9626
11029.896485 76.963 -133.4699
11109.823662 76.318 -133.8491
11190.330024 75.698 -134.1924
11271.419768 75.108 -134.5837
11353.097122 74.547 -135.0932
11435.366344 74.014 -135.7742
11518.231722 73.505 -136.6638
11601.697577 73.014 -137.7856
11685.768261 72.535 -139.1534
11770.448155 72.061 -140.7753
11855.741674 71.589 -142.6584
11941.653265 71.113 -144.8120
12028.187408 70.631 -147.2490
12115.348612 70.140 -149.9865
12203.141422 69.638 -153.0444
12291.570415 69.123 -156.4419
12380.640201 68.592 -160.1931
12470.355424 68.042 -164.3038
12560.720760 67.473 -168.7707
12651.740920 66.887 -173.5838
12743.420650 66.292 -178.7316
12835.764729 65.703 175.7949
12928.777972 65.144 170.0035
13022.465227 64.643 163.9088
13116.831378 64.228 157.5456
13211.881345 63.920 150.9815
13307.620084 63.729 144.3182
13404.052584 63.643 137.6811
13501.183875 63.641 131.2011
13599.019019 63.693 124.9999
13697.563116 63.771 119.1818
13796.821305 63.855 113.8323
13896.798760 63.934 109.0153
13997.500692 64.009 104.7698
14098.932352 64.088 101.1030
14201.099028 64.186 97.9832
14304.006046 64.319 95.3380
14407.658770 64.497 93.0598
14512.062604 64.727 91.0184
14617.222992 65.004 89.0804
14723.145416 65.321 87.1263
14829.835397 65.665 85.0634
14937.298497 66.024 82.8288
15045.540320 66.386 80.3865
15154.566507 66.743 77.7200
15264.382743 67.089 74.8237
15374.994752 67.420 71.6955
15486.408302 67.735 68.3304
15598.629201 68.029 64.7181
15711.663298 68.300 60.8441
15825.516487 68.541 56.6934
15940.194703 68.745 52.2569
16055.703925 68.905 47.5350
16172.050174 69.012 42.5406
16289.239516 69.059 37.2988
16407.278061 69.042 31.8447
16526.171961 68.957 26.2213
16645.927415 68.801 20.4772
16766.550667 68.574 14.6656
16888.048005 68.276 8.8438
17010.425762 67.909 3.0740
17133.690320 67.475 -2.5753
17257.848103 66.981 -8.0287
17382.905584 66.433 -13.2043
17508.869284 65.843 -18.0197
17635.745768 65.227 -22.4029
17763.541652 64.607 -26.3159
17892.263597 64.010 -29.7885
18021.918315 63.468 -32.9575
18152.512564 63.009 -36.0874
18284.053153 62.656 -39.5484
18416.546939 62.414 -43.7438
18550.000830 62.274 -49.0260
18684.421783 62.217 -55.6432
18819.816805 62.215 -63.7261
18956.192956 62.245 -73.2778
19093.557344 62.288 -84.1208
19231.917131 62.331 -95.8013
19371.279531 62.366 -107.5314
19511.651807 62.388 -118.2997
19653.041280 62.399 -127.1367
19795.455318 62.402 -133.3412
19938.901348 62.402 -136.5225
