* Measurement data measured by REW V5.31.3
* Source: EXCL: Headset (USB-C to 3.5mm Headphone Jack Adapter), MICROPHONE (Master Volume), 0, volume: 0.260
* Format: 256k Log Swept Sine, 1 sweep at -12.0 dBFS with no timing reference
* Dated: Feb 19, 2025 7:46:04 PM
* REW Settings:
*  C-weighting compensation: Off
*  Target level: 75.0 dB
* Note: ; 
* Measurement: Satyr 3 L7
* Smoothing: 1/6 octave
* Frequency Step: 96 ppo
* Start Frequency: 20.0 Hz
*
* Freq(Hz) SPL(dB) Phase(degrees)
20.141602 93.978 -29.1228
20.287556 93.991 -29.3172
20.434568 94.009 -29.5775
20.582645 94.031 -29.8967
20.731796 94.057 -30.2671
20.882027 94.086 -30.6812
21.033346 94.119 -31.1319
21.185763 94.155 -31.6131
21.339284 94.195 -32.1191
21.493917 94.237 -32.6455
21.649671 94.282 -33.1884
21.806553 94.330 -33.7451
21.964572 94.381 -34.3132
22.123737 94.435 -34.8913
22.284054 94.493 -35.4784
22.445534 94.553 -36.0740
22.608183 94.616 -36.6779
22.772012 94.681 -37.2901
22.937027 94.749 -37.9104
23.103238 94.818 -38.5385
23.270654 94.889 -39.1739
23.439282 94.961 -39.8155
23.609133 95.034 -40.4621
23.780215 95.107 -41.1120
23.952536 95.180 -41.7631
24.126106 95.253 -42.4137
24.300934 95.326 -43.0619
24.477028 95.399 -43.7062
24.654399 95.473 -44.3454
24.833055 95.547 -44.9791
25.013005 95.622 -45.6073
25.194260 95.698 -46.2303
25.376828 95.775 -46.8488
25.560719 95.853 -47.4640
25.745942 95.933 -48.0769
25.932508 96.014 -48.6884
26.120426 96.098 -49.2994
26.309705 96.183 -49.9109
26.500356 96.270 -50.5233
26.692388 96.360 -51.1375
26.885812 96.452 -51.7540
27.080638 96.547 -52.3735
27.276876 96.645 -52.9966
27.474535 96.746 -53.6240
27.673627 96.849 -54.2559
27.874161 96.953 -54.8923
28.076149 97.059 -55.5326
28.279600 97.164 -56.1757
28.484526 97.268 -56.8200
28.690937 97.370 -57.4635
28.898843 97.468 -58.1041
29.108256 97.562 -58.7400
29.319186 97.651 -59.3698
29.531645 97.735 -59.9928
29.745644 97.814 -60.6095
29.961193 97.888 -61.2210
30.178304 97.957 -61.8294
30.396989 98.022 -62.4375
30.617258 98.084 -63.0479
30.839123 98.144 -63.6634
31.062596 98.202 -64.2861
31.287688 98.261 -64.9172
31.514412 98.319 -65.5572
31.742778 98.380 -66.2054
31.972800 98.444 -66.8602
32.204488 98.511 -67.5192
32.437855 98.582 -68.1797
32.672913 98.658 -68.8388
32.909674 98.740 -69.4940
33.148151 98.826 -70.1431
33.388356 98.917 -70.7851
33.630302 99.012 -71.4197
33.874001 99.110 -72.0479
34.119466 99.211 -72.6714
34.366710 99.313 -73.2923
34.615745 99.414 -73.9130
34.866585 99.513 -74.5356
35.119243 99.609 -75.1616
35.373731 99.701 -75.7917
35.630064 99.787 -76.4256
35.888254 99.867 -77.0624
36.148315 99.940 -77.7010
36.410261 100.007 -78.3399
36.674104 100.067 -78.9781
36.939860 100.122 -79.6149
37.207542 100.171 -80.2503
37.477163 100.217 -80.8847
37.748738 100.260 -81.5188
38.022281 100.300 -82.1536
38.297806 100.339 -82.7903
38.575327 100.377 -83.4297
38.854860 100.414 -84.0727
39.136419 100.451 -84.7200
39.420017 100.488 -85.3716
39.705671 100.525 -86.0277
39.993395 100.561 -86.6877
40.283203 100.598 -87.3511
40.575112 100.634 -88.0173
40.869136 100.670 -88.6858
41.165290 100.706 -89.3563
41.463591 100.743 -90.0289
41.764053 100.780 -90.7039
42.066693 100.818 -91.3817
42.371525 100.858 -92.0628
42.678567 100.900 -92.7477
42.987834 100.943 -93.4370
43.299341 100.988 -94.1313
43.613106 101.036 -94.8314
43.929145 101.085 -95.5383
44.247473 101.137 -96.2532
44.568109 101.189 -96.9771
44.891068 101.243 -97.7106
45.216367 101.299 -98.4535
45.544023 101.355 -99.2050
45.874054 101.411 -99.9635
46.206476 101.469 -100.7271
46.541307 101.527 -101.4937
46.878565 101.586 -102.2611
47.218266 101.645 -103.0277
47.560429 101.705 -103.7921
47.905072 101.765 -104.5537
48.252212 101.825 -105.3123
48.601867 101.884 -106.0682
48.954056 101.942 -106.8223
49.308798 102.000 -107.5759
49.666109 102.056 -108.3304
50.026010 102.111 -109.0874
50.388520 102.165 -109.8483
50.753656 102.218 -110.6141
51.121437 102.270 -111.3858
51.491884 102.320 -112.1637
51.865016 102.369 -112.9477
52.240851 102.415 -113.7376
52.619410 102.460 -114.5323
53.000712 102.503 -115.3311
53.384777 102.542 -116.1326
53.771625 102.579 -116.9358
54.161276 102.612 -117.7399
54.553751 102.642 -118.5442
54.949070 102.669 -119.3482
55.347254 102.691 -120.1518
55.748323 102.710 -120.9547
56.152298 102.725 -121.7567
56.559201 102.737 -122.5579
56.969052 102.746 -123.3583
57.381873 102.753 -124.1579
57.797686 102.758 -124.9564
58.216512 102.762 -125.7532
58.638373 102.766 -126.5472
59.063291 102.771 -127.3364
59.491288 102.778 -128.1186
59.922386 102.788 -128.8919
60.356608 102.800 -129.6550
60.793977 102.815 -130.4075
61.234515 102.832 -131.1500
61.678246 102.850 -131.8841
62.125192 102.868 -132.6118
62.575377 102.885 -133.3350
63.028824 102.901 -134.0555
63.485557 102.913 -134.7747
63.945599 102.923 -135.4931
64.408975 102.930 -136.2109
64.875709 102.934 -136.9277
65.345825 102.934 -137.6429
65.819348 102.931 -138.3556
66.296302 102.926 -139.0653
66.776713 102.919 -139.7713
67.260604 102.909 -140.4731
67.748002 102.898 -141.1703
68.238932 102.886 -141.8622
68.733420 102.873 -142.5485
69.231490 102.859 -143.2288
69.733170 102.844 -143.9028
70.238485 102.828 -144.5705
70.747463 102.812 -145.2322
71.260128 102.796 -145.8879
71.776508 102.779 -146.5380
72.296630 102.761 -147.1828
72.820521 102.742 -147.8226
73.348209 102.723 -148.4576
73.879720 102.704 -149.0880
74.415083 102.684 -149.7141
74.954326 102.664 -150.3358
75.497475 102.643 -150.9531
76.044561 102.621 -151.5657
76.595612 102.600 -152.1732
77.150655 102.577 -152.7753
77.709720 102.555 -153.3714
78.272837 102.531 -153.9613
78.840034 102.507 -154.5445
79.411342 102.482 -155.1212
79.986789 102.457 -155.6913
80.566406 102.432 -156.2550
81.150224 102.405 -156.8124
81.738272 102.379 -157.3637
82.330581 102.351 -157.9089
82.927182 102.324 -158.4480
83.528107 102.295 -158.9812
84.133386 102.267 -159.5083
84.743051 102.237 -160.0290
85.357134 102.208 -160.5430
85.975667 102.178 -161.0499
86.598682 102.149 -161.5494
87.226212 102.119 -162.0415
87.858289 102.091 -162.5264
88.494946 102.063 -163.0043
89.136217 102.036 -163.4759
89.782135 102.010 -163.9416
90.432733 101.985 -164.4021
91.088046 101.962 -164.8576
91.748108 101.939 -165.3084
92.412952 101.917 -165.7546
93.082615 101.895 -166.1962
93.757130 101.872 -166.6329
94.436533 101.849 -167.0648
95.120859 101.825 -167.4914
95.810144 101.799 -167.9127
96.504423 101.772 -168.3286
97.203734 101.742 -168.7390
97.908112 101.709 -169.1438
98.617595 101.674 -169.5429
99.332219 101.636 -169.9362
100.052021 101.597 -170.3239
100.777039 101.556 -170.7062
101.507311 101.513 -171.0834
102.242875 101.469 -171.4561
102.983769 101.425 -171.8245
103.730032 101.381 -172.1890
104.481702 101.337 -172.5499
105.238820 101.294 -172.9071
106.001424 101.252 -173.2607
106.769554 101.211 -173.6106
107.543250 101.171 -173.9570
108.322553 101.133 -174.2997
109.107503 101.096 -174.6389
109.898141 101.061 -174.9747
110.694508 101.027 -175.3071
111.496646 100.994 -175.6358
112.304596 100.962 -175.9608
113.118402 100.931 -176.2817
113.938104 100.900 -176.5981
114.763747 100.869 -176.9095
115.595372 100.838 -177.2153
116.433024 100.806 -177.5153
117.276746 100.772 -177.8090
118.126581 100.738 -178.0961
118.982575 100.703 -178.3764
119.844772 100.667 -178.6499
120.713217 100.631 -178.9171
121.587954 100.593 -179.1788
122.469031 100.556 -179.4362
123.356492 100.519 -179.6905
124.250384 100.481 -179.9427
125.150753 100.445 179.8065
126.057647 100.409 179.5562
126.971113 100.375 179.3060
127.891198 100.342 179.0554
128.817950 100.310 178.8040
129.751418 100.280 178.5515
130.691651 100.250 178.2977
131.638696 100.222 178.0429
132.592604 100.194 177.7871
133.553425 100.166 177.5308
134.521208 100.137 177.2743
135.496004 100.108 177.0181
136.477864 100.076 176.7631
137.466839 100.042 176.5101
138.462981 100.006 176.2605
139.466340 99.965 176.0157
140.476971 99.921 175.7773
141.494925 99.873 175.5473
142.520256 99.821 175.3275
143.553016 99.765 175.1202
144.593260 99.706 174.9275
145.641043 99.644 174.7514
146.696418 99.580 174.5935
147.759441 99.514 174.4547
148.830166 99.449 174.3348
149.908651 99.384 174.2333
150.994951 99.320 174.1487
152.089123 99.258 174.0792
153.191223 99.199 174.0231
154.301310 99.142 173.9784
155.419441 99.088 173.9438
156.545674 99.035 173.9180
157.680069 98.984 173.9005
158.822683 98.935 173.8914
159.973578 98.886 173.8912
161.132813 98.838 173.9011
162.300447 98.790 173.9224
163.476543 98.742 173.9568
164.661162 98.694 174.0060
165.854364 98.646 174.0718
167.056213 98.599 174.1560
168.266772 98.552 174.2602
169.486102 98.505 174.3856
170.714268 98.460 174.5331
171.951334 98.417 174.7029
173.197364 98.376 174.8947
174.452424 98.339 175.1070
175.716578 98.304 175.3378
176.989893 98.274 175.5841
178.272434 98.247 175.8423
179.564270 98.226 176.1078
180.865467 98.208 176.3757
182.176092 98.195 176.6403
183.496216 98.187 176.8959
184.825905 98.182 177.1370
186.165229 98.181 177.3586
187.514259 98.182 177.5563
188.873065 98.186 177.7270
190.241717 98.190 177.8682
191.620287 98.195 177.9787
193.008847 98.199 178.0581
194.407468 98.201 178.1069
195.816225 98.202 178.1262
197.235190 98.201 178.1176
198.664438 98.197 178.0832
200.104042 98.190 178.0256
201.554078 98.180 177.9473
203.014622 98.167 177.8513
204.485750 98.152 177.7405
205.967538 98.135 177.6178
207.460064 98.117 177.4860
208.963405 98.098 177.3477
210.477640 98.080 177.2051
212.002848 98.062 177.0604
213.539108 98.047 176.9151
215.086500 98.033 176.7707
216.645105 98.023 176.6280
218.215005 98.016 176.4879
219.796281 98.013 176.3509
221.389015 98.013 176.2175
222.993292 98.016 176.0880
224.609193 98.023 175.9625
226.236804 98.033 175.8411
227.876209 98.045 175.7237
229.527494 98.059 175.6102
231.190745 98.075 175.5005
232.866048 98.093 175.3947
234.553491 98.112 175.2923
236.253163 98.131 175.1934
237.965150 98.151 175.0977
239.689544 98.171 175.0049
241.426433 98.191 174.9150
243.175909 98.210 174.8279
244.938062 98.228 174.7436
246.712984 98.246 174.6623
248.500768 98.262 174.5843
250.301507 98.276 174.5096
252.115295 98.290 174.4384
253.942226 98.302 174.3706
255.782396 98.313 174.3064
257.635901 98.323 174.2456
259.502837 98.332 174.1882
261.383301 98.340 174.1341
263.277392 98.346 174.0831
265.185209 98.352 174.0349
267.106850 98.356 173.9895
269.042417 98.359 173.9466
270.992009 98.360 173.9059
272.955729 98.359 173.8672
274.933678 98.355 173.8305
276.925961 98.348 173.7955
278.932681 98.337 173.7619
280.953942 98.322 173.7296
282.989850 98.304 173.6985
285.040511 98.281 173.6685
287.106032 98.254 173.6395
289.186521 98.222 173.6115
291.282086 98.187 173.5846
293.392836 98.147 173.5589
295.518881 98.105 173.5343
297.660333 98.059 173.5108
299.817302 98.011 173.4885
301.989902 97.961 173.4671
304.178245 97.911 173.4466
306.382446 97.859 173.4266
308.602620 97.809 173.4069
310.838882 97.759 173.3873
313.091348 97.710 173.3676
315.360137 97.664 173.3477
317.645367 97.621 173.3275
319.947156 97.580 173.3072
322.265625 97.543 173.2867
324.600895 97.511 173.2661
326.953086 97.482 173.2455
329.322323 97.458 173.2252
331.708729 97.440 173.2053
334.112427 97.426 173.1860
336.533543 97.417 173.1678
338.972204 97.414 173.1510
341.428536 97.416 173.1357
343.902668 97.423 173.1221
346.394729 97.434 173.1104
348.904848 97.449 173.1006
351.433156 97.467 173.0927
353.979786 97.488 173.0864
356.544869 97.510 173.0815
359.128540 97.533 173.0779
361.730934 97.556 173.0751
364.352185 97.577 173.0731
366.992431 97.597 173.0712
369.651810 97.613 173.0694
372.330459 97.626 173.0672
375.028519 97.634 173.0643
377.746130 97.638 173.0605
380.483434 97.636 173.0554
383.240574 97.630 173.0489
386.017693 97.618 173.0408
388.814937 97.602 173.0312
391.632450 97.582 173.0202
394.470380 97.558 173.0083
397.328875 97.532 172.9962
400.208084 97.504 172.9852
403.108157 97.476 172.9767
406.029245 97.448 172.9725
408.971500 97.422 172.9745
411.935076 97.399 172.9843
414.920127 97.379 173.0030
417.926810 97.364 173.0309
420.955280 97.354 173.0674
424.005695 97.349 173.1105
427.078215 97.350 173.1580
430.173000 97.356 173.2073
433.290211 97.365 173.2562
436.430010 97.378 173.3031
439.592562 97.392 173.3468
442.778031 97.406 173.3867
445.986583 97.420 173.4227
449.218386 97.433 173.4549
452.473607 97.443 173.4837
455.752418 97.451 173.5097
459.054987 97.456 173.5334
462.381489 97.459 173.5555
465.732096 97.459 173.5765
469.106983 97.456 173.5972
472.506325 97.452 173.6177
475.930301 97.447 173.6385
479.379088 97.440 173.6600
482.852867 97.433 173.6820
486.351817 97.425 173.7047
489.876123 97.417 173.7280
493.425968 97.410 173.7516
497.001536 97.404 173.7753
500.603014 97.399 173.7988
504.230589 97.398 173.8218
507.884452 97.400 173.8442
511.564792 97.406 173.8661
515.271802 97.417 173.8876
519.005673 97.434 173.9089
522.766602 97.457 173.9306
526.554785 97.487 173.9528
530.370418 97.522 173.9756
534.213700 97.564 173.9994
538.084833 97.610 174.0241
541.984018 97.660 174.0496
545.911457 97.712 174.0757
549.867357 97.766 174.1024
553.851922 97.819 174.1293
557.865362 97.870 174.1562
561.907884 97.918 174.1828
565.979700 97.960 174.2090
570.081022 97.997 174.2348
574.212064 98.027 174.2603
578.373042 98.048 174.2857
582.564171 98.061 174.3109
586.785671 98.065 174.3358
591.037762 98.059 174.3602
595.320665 98.043 174.3839
599.634604 98.018 174.4066
603.979804 97.983 174.4284
608.356491 97.939 174.4492
612.764893 97.888 174.4694
617.205240 97.830 174.4889
621.677763 97.767 174.5079
626.182696 97.701 174.5265
630.720274 97.634 174.5444
635.290733 97.568 174.5615
639.894312 97.504 174.5778
644.531250 97.444 174.5935
649.201789 97.389 174.6087
653.906173 97.341 174.6234
658.644647 97.301 174.6375
663.417457 97.270 174.6505
668.224854 97.247 174.6620
673.067086 97.234 174.6714
677.944408 97.230 174.6783
682.857073 97.235 174.6824
687.805336 97.249 174.6839
692.789457 97.272 174.6830
697.809695 97.302 174.6803
702.866312 97.340 174.6766
707.959571 97.383 174.6725
713.089738 97.432 174.6679
718.257080 97.483 174.6622
723.461867 97.537 174.6541
728.704370 97.591 174.6420
733.984862 97.645 174.6246
739.303619 97.696 174.6005
744.660918 97.744 174.5688
750.057038 97.789 174.5294
755.492260 97.829 174.4824
760.966869 97.865 174.4283
766.481148 97.898 174.3681
772.035387 97.926 174.3028
777.629873 97.952 174.2335
783.264900 97.974 174.1611
788.940760 97.992 174.0862
794.657750 98.007 174.0089
800.416168 98.018 173.9288
806.216313 98.024 173.8452
812.058489 98.024 173.7568
817.943000 98.018 173.6626
823.870152 98.004 173.5613
829.840255 97.983 173.4522
835.853619 97.955 173.3348
841.910559 97.921 173.2090
848.011390 97.881 173.0749
854.156430 97.839 172.9327
860.346000 97.795 172.7828
866.580422 97.753 172.6252
872.860020 97.715 172.4599
879.185124 97.683 172.2870
885.556062 97.659 172.1062
891.973166 97.644 171.9174
898.436771 97.639 171.7207
904.947215 97.644 171.5167
911.504835 97.659 171.3061
918.109975 97.683 171.0899
924.762978 97.715 170.8690
931.464192 97.752 170.6440
938.213966 97.794 170.4151
945.012651 97.838 170.1819
951.860602 97.884 169.9443
958.758176 97.928 169.7020
965.705733 97.970 169.4553
972.703635 98.009 169.2052
979.752246 98.045 168.9534
986.851935 98.076 168.7019
994.003071 98.103 168.4524
1001.206027 98.126 168.2058
1008.461179 98.148 167.9621
1015.768904 98.168 167.7206
1023.129584 98.188 167.4797
1030.543603 98.209 167.2380
1038.011347 98.233 166.9942
1045.533205 98.259 166.7473
1053.109569 98.289 166.4969
1060.740836 98.322 166.2429
1068.427401 98.360 165.9858
1076.169666 98.401 165.7263
1083.968035 98.444 165.4648
1091.822915 98.489 165.2011
1099.734713 98.533 164.9351
1107.703844 98.577 164.6663
1115.730723 98.617 164.3948
1123.815768 98.652 164.1208
1131.959400 98.681 163.8452
1140.162045 98.703 163.5690
1148.424129 98.718 163.2933
1156.746083 98.726 163.0192
1165.128342 98.726 162.7480
1173.571343 98.721 162.4808
1182.075524 98.711 162.2191
1190.641331 98.697 161.9642
1199.269209 98.681 161.7177
1207.959608 98.666 161.4811
1216.712981 98.651 161.2556
1225.529785 98.639 161.0417
1234.410479 98.630 160.8395
1243.355526 98.626 160.6486
1252.365393 98.627 160.4686
1261.440549 98.632 160.2991
1270.581467 98.642 160.1394
1279.788624 98.656 159.9890
1289.062500 98.673 159.8473
1298.403578 98.693 159.7135
1307.812346 98.714 159.5872
1317.289293 98.735 159.4686
1326.834914 98.755 159.3585
1336.449707 98.774 159.2581
1346.134173 98.791 159.1685
1355.888816 98.805 159.0902
1365.714145 98.815 159.0229
1375.610673 98.822 158.9658
1385.578915 98.825 158.9180
1395.619391 98.824 158.8789
1405.732624 98.819 158.8485
1415.919142 98.809 158.8270
1426.179476 98.795 158.8149
1436.514160 98.778 158.8130
1446.923734 98.757 158.8217
1457.408740 98.733 158.8413
1467.969724 98.706 158.8714
1478.607238 98.677 158.9116
1489.321836 98.645 158.9615
1500.114076 98.609 159.0212
1510.984521 98.571 159.0921
1521.933737 98.528 159.1765
1532.962297 98.481 159.2775
1544.070773 98.431 159.3985
1555.259747 98.377 159.5419
1566.529800 98.320 159.7090
1577.881521 98.260 159.8997
1589.315501 98.200 160.1125
1600.832336 98.139 160.3457
1612.432627 98.078 160.5972
1624.116978 98.019 160.8654
1635.886000 97.961 161.1497
1647.740304 97.905 161.4502
1659.680509 97.851 161.7672
1671.707238 97.800 162.1008
1683.821118 97.752 162.4506
1696.022780 97.707 162.8151
1708.312860 97.666 163.1918
1720.692000 97.629 163.5769
1733.160843 97.596 163.9662
1745.720041 97.568 164.3552
1758.370248 97.544 164.7402
1771.112124 97.525 165.1192
1783.946332 97.510 165.4922
1796.873543 97.500 165.8608
1809.894429 97.495 166.2275
1823.009670 97.494 166.5943
1836.219950 97.497 166.9628
1849.525956 97.504 167.3339
1862.928384 97.515 167.7080
1876.427931 97.529 168.0844
1890.025301 97.547 168.4601
1903.721204 97.568 168.8300
1917.516352 97.591 169.1875
1931.411466 97.616 169.5260
1945.407270 97.642 169.8398
1959.504493 97.668 170.1248
1973.703870 97.695 170.3782
1988.006142 97.721 170.5986
2002.412054 97.746 170.7860
2016.922357 97.771 170.9420
2031.537808 97.796 171.0693
2046.259169 97.821 171.1708
2061.087206 97.847 171.2486
2076.022694 97.876 171.3039
2091.066410 97.907 171.3374
2106.219139 97.941 171.3491
2121.481671 97.978 171.3386
2136.854802 98.020 171.3051
2152.339333 98.066 171.2472
2167.936071 98.116 171.1639
2183.645829 98.170 171.0552
2199.469427 98.228 170.9218
2215.407689 98.289 170.7658
2231.461446 98.353 170.5895
2247.631536 98.420 170.3959
2263.918800 98.491 170.1884
2280.324089 98.563 169.9709
2296.848258 98.639 169.7477
2313.492167 98.717 169.5225
2330.256685 98.797 169.2980
2347.142685 98.880 169.0757
2364.151049 98.966 168.8563
2381.282662 99.053 168.6401
2398.538418 99.140 168.4261
2415.919216 99.229 168.2131
2433.425962 99.316 167.9992
2451.059570 99.402 167.7827
2468.820958 99.486 167.5628
2486.711052 99.565 167.3391
2504.730786 99.640 167.1118
2522.881098 99.708 166.8815
2541.162934 99.770 166.6487
2559.577248 99.825 166.4136
2578.125000 99.871 166.1761
2596.807157 99.909 165.9356
2615.624692 99.938 165.6917
2634.578586 99.956 165.4446
2653.669829 99.963 165.1962
2672.899414 99.959 164.9489
2692.268345 99.943 164.7065
2711.777632 99.914 164.4745
2731.428290 99.872 164.2592
2751.221345 99.818 164.0682
2771.157829 99.751 163.9099
2791.238781 99.672 163.7926
2811.465248 99.583 163.7241
2831.838284 99.483 163.7115
2852.358952 99.375 163.7604
2873.028321 99.259 163.8750
2893.847468 99.138 164.0583
2914.817480 99.012 164.3126
2935.939449 98.884 164.6387
2957.214476 98.755 165.0372
2978.643672 98.626 165.5071
3000.228152 98.500 166.0460
3021.969041 98.378 166.6495
3043.867475 98.264 167.3110
3065.924593 98.157 168.0215
3088.141547 98.061 168.7696
3110.519493 97.976 169.5421
3133.059600 97.905 170.3241
3155.763041 97.847 171.0996
3178.631001 97.802 171.8525
3201.664672 97.770 172.5678
3224.865254 97.750 173.2322
3248.233957 97.741 173.8357
3271.771999 97.741 174.3718
3295.480608 97.747 174.8382
3319.361019 97.759 175.2371
3343.414477 97.774 175.5749
3367.642236 97.791 175.8621
3392.045560 97.810 176.1116
3416.625721 97.829 176.3381
3441.383999 97.851 176.5556
3466.321686 97.875 176.7760
3491.440082 97.905 177.0070
3516.740496 97.941 177.2508
3542.224247 97.986 177.5031
3567.892664 98.043 177.7538
3593.747085 98.110 177.9883
3619.788858 98.189 178.1891
3646.019340 98.278 178.3386
3672.439900 98.375 178.4208
3699.051913 98.478 178.4233
3725.856768 98.584 178.3388
3752.855862 98.689 178.1651
3780.050603 98.789 177.9054
3807.442408 98.884 177.5677
3835.032705 98.969 177.1640
3862.822933 99.043 176.7085
3890.814540 99.106 176.2167
3919.008986 99.156 175.7045
3947.407741 99.193 175.1868
3976.012284 99.218 174.6777
4004.824108 99.230 174.1897
4033.844715 99.231 173.7341
4063.075616 99.220 173.3207
4092.518337 99.199 172.9583
4122.174412 99.168 172.6542
4152.045387 99.129 172.4147
4182.132820 99.083 172.2448
4212.438278 99.030 172.1488
4242.963342 98.972 172.1299
4273.709604 98.911 172.1912
4304.678665 98.847 172.3351
4335.872141 98.782 172.5636
4367.291658 98.718 172.8780
4398.938854 98.656 173.2786
4430.815378 98.600 173.7642
4462.922893 98.549 174.3315
4495.263072 98.507 174.9753
4527.837601 98.475 175.6882
4560.648179 98.454 176.4612
4593.696515 98.445 177.2838
4626.984334 98.448 178.1447
4660.513370 98.465 179.0327
4694.285371 98.494 179.9362
4728.302098 98.534 -179.1555
4762.565324 98.586 -178.2520
4797.076835 98.648 -177.3618
4831.838432 98.719 -176.4912
4866.851925 98.797 -175.6450
4902.119140 98.880 -174.8260
4937.641916 98.969 -174.0354
4973.422105 99.061 -173.2728
5009.461572 99.156 -172.5363
5045.762195 99.253 -171.8231
5082.325868 99.350 -171.1291
5119.154496 99.448 -170.4498
5156.250000 99.546 -169.7799
5193.614313 99.643 -169.1140
5231.249383 99.740 -168.4466
5269.157173 99.837 -167.7729
5307.339658 99.934 -167.0892
5345.798829 100.032 -166.3930
5384.536691 100.132 -165.6837
5423.555263 100.236 -164.9632
5462.856580 100.344 -164.2359
5502.442691 100.459 -163.5091
5542.315659 100.582 -162.7931
5582.477563 100.716 -162.1010
5622.930497 100.861 -161.4485
5663.676569 101.020 -160.8537
5704.717904 101.194 -160.3363
5746.056642 101.383 -159.9169
5787.694937 101.586 -159.6156
5829.634960 101.803 -159.4514
5871.878898 102.032 -159.4410
5914.428953 102.269 -159.5983
5957.287343 102.511 -159.9336
6000.456303 102.755 -160.4531
6043.938083 102.996 -161.1584
6087.734950 103.229 -162.0467
6131.849187 103.450 -163.1105
6176.283094 103.655 -164.3380
6221.038987 103.839 -165.7133
6266.119200 104.000 -167.2166
6311.526083 104.136 -168.8253
6357.262002 104.244 -170.5144
6403.329344 104.324 -172.2578
6449.730508 104.377 -174.0295
6496.467914 104.404 -175.8047
6543.543998 104.408 -177.5616
6590.961215 104.394 -179.2823
6638.722037 104.366 179.0463
6686.828954 104.330 177.4303
6735.284473 104.292 175.8693
6784.091120 104.258 174.3550
6833.251441 104.233 172.8715
6882.767998 104.224 171.3964
6932.643372 104.232 169.9015
6982.880164 104.260 168.3552
7033.480992 104.308 166.7244
7084.448495 104.371 164.9772
7135.785329 104.447 163.0853
7187.494171 104.528 161.0258
7239.577717 104.606 158.7834
7292.038681 104.675 156.3507
7344.879799 104.725 153.7288
7398.103826 104.750 150.9269
7451.713536 104.742 147.9619
7505.711724 104.695 144.8566
7560.101205 104.605 141.6387
7614.884815 104.468 138.3383
7670.065409 104.283 134.9858
7725.645865 104.050 131.6096
7781.629080 103.771 128.2325
7838.017972 103.448 124.8697
7894.815481 103.086 121.5267
7952.024569 102.691 118.1979
8009.648217 102.268 114.8663
8067.689429 101.822 111.5042
8126.151233 101.358 108.0758
8185.036674 100.881 104.5383
8244.348824 100.394 100.8449
8304.090774 99.898 96.9456
8364.265639 99.394 92.7870
8424.876556 98.881 88.3108
8485.926684 98.358 83.4491
8547.419207 97.826 78.1176
8609.357330 97.284 72.2050
8671.744282 96.736 65.5582
8734.583316 96.187 57.9635
8797.877707 95.646 49.1294
8861.630756 95.127 38.6876
8925.845785 94.650 26.2661
8990.526143 94.237 11.7178
9055.675202 93.915 -4.4889
9121.296357 93.704 -21.0936
9187.393031 93.620 -36.5922
9253.968668 93.665 -50.0770
9321.026740 93.826 -61.4367
9388.570742 94.081 -71.0052
9456.604196 94.401 -79.2202
9525.130648 94.756 -86.4682
9594.153671 95.116 -93.0464
9663.676863 95.457 -99.1678
9733.703850 95.759 -104.9747
9804.238280 96.005 -110.5537
9875.283832 96.183 -115.9461
9946.844210 96.284 -121.1584
10018.923143 96.304 -126.1725
10091.524390 96.242 -130.9550
10164.651736 96.102 -135.4666
10238.308993 95.888 -139.6691
10312.500000 95.607 -143.5293
10387.228626 95.268 -147.0193
10462.498767 94.879 -150.1161
10538.314345 94.448 -152.7988
10614.679315 93.985 -155.0483
10691.597657 93.497 -156.8484
10769.073381 92.997 -158.1912
10847.110526 92.495 -159.0871
10925.713161 92.006 -159.5765
11004.885382 91.546 -159.7397
11084.631318 91.126 -159.6971
11164.955126 90.757 -159.5956
11245.860993 90.440 -159.5832
11327.353138 90.170 -159.7812
11409.435808 89.935 -160.2655
11492.113283 89.720 -161.0616
11575.389873 89.508 -162.1537
11659.269920 89.284 -163.4980
11743.757796 89.039 -165.0377
11828.857906 88.764 -166.7144
11914.574686 88.458 -168.4764
12000.912606 88.120 -170.2839
12087.876166 87.752 -172.1121
12175.469900 87.359 -173.9527
12263.698373 86.946 -175.8148
12352.566187 86.518 -177.7240
12442.077974 86.083 -179.7197
12532.238400 85.645 178.1478
12623.052165 85.209 175.8226
12714.524005 84.778 173.2458
12806.658687 84.352 170.3586
12899.461015 83.934 167.1019
12992.935827 83.525 163.4125
13087.087996 83.129 159.2159
13181.922430 82.756 154.4117
13277.444074 82.422 148.8515
13373.657907 82.148 142.3073
13470.568945 81.963 134.4301
13568.182241 81.892 124.7072
13666.502883 81.952 112.4581
13765.535996 82.147 97.0052
13865.286744 82.462 78.2727
13965.760328 82.870 57.6385
14066.961984 83.338 37.6034
14168.896989 83.833 19.9453
14271.570658 84.328 4.9196
14374.988342 84.801 -8.0156
14479.155433 85.237 -19.4935
14584.077362 85.624 -30.0018
14689.759598 85.956 -39.8704
14796.207652 86.228 -49.3135
14903.427072 86.438 -58.4688
15011.423448 86.583 -67.4250
15120.202410 86.657 -76.2361
15229.769630 86.658 -84.9304
15340.130819 86.581 -93.5135
15451.291730 86.420 -101.9717
15563.258160 86.172 -110.2750
15676.035944 85.834 -118.3820
15789.630962 85.407 -126.2440
15904.049137 84.891 -133.8104
16019.296433 84.290 -141.0310
16135.378859 83.606 -147.8566
16252.302465 82.845 -154.2390
16370.073348 82.012 -160.1293
16488.697648 81.111 -165.4756
16608.181548 80.147 -170.2224
16728.531278 79.127 -174.3093
16849.753112 78.053 -177.6727
16971.853368 76.933 179.7510
17094.838414 75.771 178.0167
17218.714660 74.573 177.1532
17343.488565 73.347 177.1320
17469.166632 72.102 177.8271
17595.755415 70.847 178.9868
17723.261512 69.595 -179.7516
17851.691571 68.363 -178.7844
17981.052287 67.167 -178.4331
18111.350404 66.023 -178.8652
18242.592715 64.943 179.9263
18374.786062 63.934 178.1011
18507.937336 62.997 175.9387
18642.053479 62.124 173.8176
18777.141484 61.305 172.2021
18913.208391 60.528 171.6173
19050.261296 59.787 172.5662
19188.307342 59.080 175.3306
19327.353727 58.412 179.6840
19467.407699 57.797 -175.2205
19608.476560 57.254 -170.4734
19750.567664 56.810 -166.8245
19893.688419 56.493 -164.4917
20037.846286 56.327 -163.3850
