* Measurement data measured by REW V5.31.3
* Source: EXCL: Headset (USB-C to 3.5mm Headphone Jack Adapter), MICROPHONE (Master Volume), 0, volume: 0.260
* Format: 256k Log Swept Sine, 1 sweep at -12.0 dBFS with no timing reference
* Dated: Feb 19, 2025 7:50:59 PM
* REW Settings:
*  C-weighting compensation: Off
*  Target level: 75.0 dB
* Note: ; 
* Measurement: Satyr 3 R10
* Smoothing: 1/6 octave
* Frequency Step: 96 ppo
* Start Frequency: 20.0 Hz
*
* Freq(Hz) SPL(dB) Phase(degrees)
20.141602 93.711 -31.9826
20.287556 93.720 -32.2026
20.434568 93.732 -32.4987
20.582645 93.748 -32.8643
20.731796 93.767 -33.2921
20.882027 93.791 -33.7747
21.033346 93.819 -34.3043
21.185763 93.851 -34.8732
21.339284 93.888 -35.4739
21.493917 93.929 -36.0986
21.649671 93.974 -36.7400
21.806553 94.023 -37.3910
21.964572 94.077 -38.0452
22.123737 94.135 -38.6968
22.284054 94.198 -39.3414
22.445534 94.264 -39.9760
22.608183 94.335 -40.5991
22.772012 94.409 -41.2108
22.937027 94.487 -41.8126
23.103238 94.567 -42.4070
23.270654 94.649 -42.9975
23.439282 94.732 -43.5877
23.609133 94.815 -44.1811
23.780215 94.897 -44.7805
23.952536 94.977 -45.3880
24.126106 95.054 -46.0044
24.300934 95.127 -46.6297
24.477028 95.197 -47.2632
24.654399 95.264 -47.9033
24.833055 95.327 -48.5483
25.013005 95.388 -49.1965
25.194260 95.447 -49.8466
25.376828 95.506 -50.4974
25.560719 95.565 -51.1484
25.745942 95.626 -51.7997
25.932508 95.689 -52.4513
26.120426 95.757 -53.1036
26.309705 95.828 -53.7568
26.500356 95.904 -54.4111
26.692388 95.986 -55.0663
26.885812 96.072 -55.7218
27.080638 96.163 -56.3769
27.276876 96.258 -57.0309
27.474535 96.356 -57.6829
27.673627 96.457 -58.3323
27.874161 96.559 -58.9785
28.076149 96.660 -59.6213
28.279600 96.760 -60.2604
28.484526 96.857 -60.8956
28.690937 96.949 -61.5268
28.898843 97.035 -62.1539
29.108256 97.115 -62.7766
29.319186 97.188 -63.3948
29.531645 97.254 -64.0084
29.745644 97.313 -64.6176
29.961193 97.365 -65.2229
30.178304 97.413 -65.8248
30.396989 97.456 -66.4244
30.617258 97.497 -67.0227
30.839123 97.538 -67.6208
31.062596 97.578 -68.2195
31.287688 97.622 -68.8196
31.514412 97.668 -69.4213
31.742778 97.719 -70.0246
31.972800 97.776 -70.6290
32.204488 97.838 -71.2339
32.437855 97.907 -71.8384
32.672913 97.981 -72.4414
32.909674 98.062 -73.0421
33.148151 98.148 -73.6394
33.388356 98.240 -74.2327
33.630302 98.335 -74.8215
33.874001 98.434 -75.4060
34.119466 98.536 -75.9865
34.366710 98.639 -76.5644
34.615745 98.744 -77.1411
34.866585 98.849 -77.7188
35.119243 98.952 -78.2994
35.373731 99.054 -78.8850
35.630064 99.152 -79.4766
35.888254 99.246 -80.0748
36.148315 99.335 -80.6791
36.410261 99.417 -81.2883
36.674104 99.494 -81.9007
36.939860 99.564 -82.5147
37.207542 99.628 -83.1289
37.477163 99.686 -83.7428
37.748738 99.739 -84.3569
38.022281 99.788 -84.9725
38.297806 99.833 -85.5914
38.575327 99.875 -86.2160
38.854860 99.915 -86.8484
39.136419 99.953 -87.4904
39.420017 99.989 -88.1429
39.705671 100.025 -88.8061
39.993395 100.060 -89.4796
40.283203 100.094 -90.1624
40.575112 100.128 -90.8531
40.869136 100.162 -91.5503
41.165290 100.196 -92.2527
41.463591 100.230 -92.9594
41.764053 100.265 -93.6698
42.066693 100.301 -94.3839
42.371525 100.339 -95.1021
42.678567 100.377 -95.8247
42.987834 100.417 -96.5524
43.299341 100.458 -97.2855
43.613106 100.501 -98.0245
43.929145 100.546 -98.7694
44.247473 100.593 -99.5204
44.568109 100.642 -100.2775
44.891068 100.693 -101.0409
45.216367 100.746 -101.8102
45.544023 100.800 -102.5853
45.874054 100.855 -103.3657
46.206476 100.911 -104.1505
46.541307 100.968 -104.9388
46.878565 101.025 -105.7298
47.218266 101.081 -106.5229
47.560429 101.137 -107.3176
47.905072 101.193 -108.1137
48.252212 101.248 -108.9114
48.601867 101.303 -109.7107
48.954056 101.357 -110.5115
49.308798 101.411 -111.3137
49.666109 101.464 -112.1173
50.026010 101.516 -112.9221
50.388520 101.568 -113.7284
50.753656 101.619 -114.5361
51.121437 101.669 -115.3454
51.491884 101.717 -116.1564
51.865016 101.763 -116.9687
52.240851 101.807 -117.7819
52.619410 101.849 -118.5951
53.000712 101.888 -119.4077
53.384777 101.924 -120.2189
53.771625 101.957 -121.0281
54.161276 101.987 -121.8348
54.553751 102.013 -122.6391
54.949070 102.036 -123.4407
55.347254 102.055 -124.2398
55.748323 102.070 -125.0364
56.152298 102.082 -125.8306
56.559201 102.091 -126.6225
56.969052 102.096 -127.4124
57.381873 102.099 -128.2004
57.797686 102.101 -128.9864
58.216512 102.102 -129.7703
58.638373 102.103 -130.5515
59.063291 102.105 -131.3295
59.491288 102.109 -132.1039
59.922386 102.116 -132.8745
60.356608 102.125 -133.6416
60.793977 102.136 -134.4056
61.234515 102.149 -135.1666
61.678246 102.162 -135.9247
62.125192 102.175 -136.6796
62.575377 102.186 -137.4312
63.028824 102.195 -138.1795
63.485557 102.202 -138.9243
63.945599 102.205 -139.6654
64.408975 102.205 -140.4027
64.875709 102.201 -141.1355
65.345825 102.195 -141.8635
65.819348 102.186 -142.5860
66.296302 102.174 -143.3029
66.776713 102.160 -144.0136
67.260604 102.144 -144.7182
67.748002 102.127 -145.4165
68.238932 102.109 -146.1085
68.733420 102.090 -146.7941
69.231490 102.071 -147.4734
69.733170 102.051 -148.1464
70.238485 102.031 -148.8133
70.747463 102.011 -149.4742
71.260128 101.991 -150.1294
71.776508 101.970 -150.7792
72.296630 101.949 -151.4239
72.820521 101.927 -152.0637
73.348209 101.905 -152.6987
73.879720 101.882 -153.3286
74.415083 101.858 -153.9534
74.954326 101.833 -154.5727
75.497475 101.808 -155.1860
76.044561 101.781 -155.7929
76.595612 101.753 -156.3933
77.150655 101.724 -156.9870
77.709720 101.694 -157.5739
78.272837 101.663 -158.1539
78.840034 101.631 -158.7269
79.411342 101.598 -159.2926
79.986789 101.565 -159.8508
80.566406 101.531 -160.4014
81.150224 101.496 -160.9443
81.738272 101.461 -161.4797
82.330581 101.426 -162.0078
82.927182 101.390 -162.5289
83.528107 101.354 -163.0435
84.133386 101.318 -163.5519
84.743051 101.282 -164.0545
85.357134 101.245 -164.5515
85.975667 101.209 -165.0428
86.598682 101.174 -165.5284
87.226212 101.139 -166.0081
87.858289 101.104 -166.4819
88.494946 101.071 -166.9499
89.136217 101.038 -167.4122
89.782135 101.007 -167.8688
90.432733 100.977 -168.3198
91.088046 100.948 -168.7651
91.748108 100.920 -169.2044
92.412952 100.892 -169.6374
93.082615 100.865 -170.0637
93.757130 100.838 -170.4831
94.436533 100.810 -170.8953
95.120859 100.781 -171.3002
95.810144 100.751 -171.6978
96.504423 100.718 -172.0881
97.203734 100.684 -172.4716
97.908112 100.647 -172.8487
98.617595 100.607 -173.2200
99.332219 100.565 -173.5859
100.052021 100.521 -173.9470
100.777039 100.476 -174.3037
101.507311 100.429 -174.6561
102.242875 100.381 -175.0045
102.983769 100.332 -175.3489
103.730032 100.284 -175.6891
104.481702 100.236 -176.0249
105.238820 100.188 -176.3562
106.001424 100.142 -176.6827
106.769554 100.096 -177.0042
107.543250 100.053 -177.3205
108.322553 100.010 -177.6317
109.107503 99.969 -177.9380
109.898141 99.930 -178.2397
110.694508 99.892 -178.5373
111.496646 99.855 -178.8312
112.304596 99.819 -179.1217
113.118402 99.783 -179.4090
113.938104 99.748 -179.6929
114.763747 99.712 -179.9730
115.595372 99.676 179.7512
116.433024 99.640 179.4806
117.276746 99.602 179.2158
118.126581 99.564 178.9576
118.982575 99.525 178.7064
119.844772 99.486 178.4623
120.713217 99.446 178.2254
121.587954 99.406 177.9949
122.469031 99.366 177.7699
123.356492 99.326 177.5493
124.250384 99.286 177.3322
125.150753 99.247 177.1179
126.057647 99.209 176.9059
126.971113 99.172 176.6960
127.891198 99.137 176.4884
128.817950 99.103 176.2831
129.751418 99.071 176.0802
130.691651 99.041 175.8797
131.638696 99.012 175.6816
132.592604 98.984 175.4860
133.553425 98.957 175.2927
134.521208 98.930 175.1018
135.496004 98.904 174.9132
136.477864 98.877 174.7269
137.466839 98.848 174.5426
138.462981 98.818 174.3601
139.466340 98.786 174.1792
140.476971 98.752 173.9998
141.494925 98.714 173.8217
142.520256 98.674 173.6451
143.553016 98.631 173.4702
144.593260 98.586 173.2978
145.641043 98.537 173.1285
146.696418 98.487 172.9632
147.759441 98.435 172.8028
148.830166 98.383 172.6480
149.908651 98.329 172.4994
150.994951 98.276 172.3575
152.089123 98.223 172.2228
153.191223 98.171 172.0954
154.301310 98.119 171.9755
155.419441 98.069 171.8631
156.545674 98.020 171.7583
157.680069 97.972 171.6614
158.822683 97.924 171.5726
159.973578 97.877 171.4920
161.132813 97.830 171.4200
162.300447 97.783 171.3569
163.476543 97.736 171.3030
164.661162 97.688 171.2590
165.854364 97.641 171.2255
167.056213 97.593 171.2032
168.266772 97.544 171.1926
169.486102 97.495 171.1945
170.714268 97.446 171.2094
171.951334 97.396 171.2378
173.197364 97.346 171.2802
174.452424 97.295 171.3372
175.716578 97.244 171.4091
176.989893 97.193 171.4964
178.272434 97.142 171.5999
179.564270 97.090 171.7200
180.865467 97.039 171.8573
182.176092 96.988 172.0122
183.496216 96.937 172.1850
184.825905 96.887 172.3756
186.165229 96.838 172.5837
187.514259 96.791 172.8087
188.873065 96.744 173.0494
190.241717 96.700 173.3044
191.620287 96.657 173.5718
193.008847 96.615 173.8492
194.407468 96.576 174.1339
195.816225 96.540 174.4227
197.235190 96.505 174.7119
198.664438 96.473 174.9980
200.104042 96.444 175.2772
201.554078 96.418 175.5457
203.014622 96.395 175.8002
204.485750 96.376 176.0377
205.967538 96.361 176.2554
207.460064 96.350 176.4512
208.963405 96.344 176.6234
210.477640 96.343 176.7706
212.002848 96.347 176.8919
213.539108 96.356 176.9868
215.086500 96.371 177.0554
216.645105 96.390 177.0980
218.215005 96.415 177.1158
219.796281 96.443 177.1100
221.389015 96.475 177.0825
222.993292 96.510 177.0354
224.609193 96.548 176.9708
226.236804 96.587 176.8910
227.876209 96.627 176.7981
229.527494 96.668 176.6943
231.190745 96.708 176.5815
232.866048 96.749 176.4614
234.553491 96.788 176.3358
236.253163 96.827 176.2062
237.965150 96.865 176.0740
239.689544 96.901 175.9402
241.426433 96.936 175.8061
243.175909 96.969 175.6722
244.938062 97.000 175.5392
246.712984 97.030 175.4073
248.500768 97.056 175.2771
250.301507 97.081 175.1488
252.115295 97.103 175.0227
253.942226 97.123 174.8992
255.782396 97.141 174.7784
257.635901 97.157 174.6610
259.502837 97.172 174.5471
261.383301 97.184 174.4371
263.277392 97.195 174.3312
265.185209 97.205 174.2297
267.106850 97.212 174.1326
269.042417 97.218 174.0398
270.992009 97.221 173.9512
272.955729 97.222 173.8666
274.933678 97.220 173.7861
276.925961 97.215 173.7097
278.932681 97.205 173.6376
280.953942 97.192 173.5696
282.989850 97.174 173.5059
285.040511 97.152 173.4460
287.106032 97.125 173.3900
289.186521 97.094 173.3372
291.282086 97.058 173.2875
293.392836 97.018 173.2402
295.518881 96.974 173.1950
297.660333 96.928 173.1515
299.817302 96.878 173.1093
301.989902 96.826 173.0682
304.178245 96.773 173.0283
306.382446 96.719 172.9895
308.602620 96.665 172.9521
310.838882 96.612 172.9163
313.091348 96.560 172.8820
315.360137 96.510 172.8493
317.645367 96.463 172.8181
319.947156 96.420 172.7883
322.265625 96.380 172.7598
324.600895 96.344 172.7327
326.953086 96.313 172.7072
329.322323 96.287 172.6835
331.708729 96.266 172.6616
334.112427 96.251 172.6414
336.533543 96.241 172.6226
338.972204 96.237 172.6049
341.428536 96.238 172.5878
343.902668 96.243 172.5713
346.394729 96.253 172.5553
348.904848 96.267 172.5399
351.433156 96.283 172.5255
353.979786 96.302 172.5125
356.544869 96.321 172.5013
359.128540 96.341 172.4926
361.730934 96.360 172.4871
364.352185 96.378 172.4853
366.992431 96.393 172.4877
369.651810 96.405 172.4948
372.330459 96.413 172.5066
375.028519 96.417 172.5231
377.746130 96.416 172.5441
380.483434 96.410 172.5691
383.240574 96.400 172.5973
386.017693 96.386 172.6280
388.814937 96.368 172.6600
391.632450 96.347 172.6923
394.470380 96.323 172.7239
397.328875 96.298 172.7540
400.208084 96.273 172.7820
403.108157 96.249 172.8074
406.029245 96.225 172.8301
408.971500 96.205 172.8505
411.935076 96.187 172.8688
414.920127 96.174 172.8857
417.926810 96.164 172.9017
420.955280 96.159 172.9175
424.005695 96.158 172.9336
427.078215 96.161 172.9507
430.173000 96.168 172.9690
433.290211 96.177 172.9889
436.430010 96.187 173.0104
439.592562 96.199 173.0334
442.778031 96.210 173.0579
445.986583 96.221 173.0839
449.218386 96.229 173.1114
452.473607 96.235 173.1406
455.752418 96.239 173.1718
459.054987 96.240 173.2049
462.381489 96.238 173.2403
465.732096 96.234 173.2778
469.106983 96.228 173.3171
472.506325 96.221 173.3577
475.930301 96.212 173.3990
479.379088 96.203 173.4404
482.852867 96.194 173.4813
486.351817 96.185 173.5216
489.876123 96.176 173.5610
493.425968 96.169 173.5995
497.001536 96.162 173.6372
500.603014 96.158 173.6741
504.230589 96.156 173.7100
507.884452 96.158 173.7448
511.564792 96.164 173.7783
515.271802 96.176 173.8105
519.005673 96.193 173.8414
522.766602 96.216 173.8711
526.554785 96.245 173.8999
530.370418 96.280 173.9282
534.213700 96.320 173.9565
538.084833 96.366 173.9848
541.984018 96.415 174.0135
545.911457 96.466 174.0427
549.867357 96.518 174.0719
553.851922 96.570 174.1010
557.865362 96.619 174.1291
561.907884 96.665 174.1559
565.979700 96.706 174.1807
570.081022 96.741 174.2034
574.212064 96.768 174.2242
578.373042 96.786 174.2439
582.564171 96.795 174.2639
586.785671 96.794 174.2865
591.037762 96.781 174.3144
595.320665 96.759 174.3506
599.634604 96.725 174.3981
603.979804 96.682 174.4587
608.356491 96.631 174.5328
612.764893 96.573 174.6188
617.205240 96.511 174.7136
621.677763 96.446 174.8126
626.182696 96.379 174.9114
630.720274 96.314 175.0060
635.290733 96.251 175.0934
639.894312 96.192 175.1716
644.531250 96.138 175.2398
649.201789 96.090 175.2976
653.906173 96.050 175.3454
658.644647 96.017 175.3835
663.417457 95.992 175.4127
668.224854 95.976 175.4337
673.067086 95.969 175.4471
677.944408 95.971 175.4538
682.857073 95.981 175.4545
687.805336 96.000 175.4499
692.789457 96.027 175.4403
697.809695 96.061 175.4262
702.866312 96.102 175.4077
707.959571 96.147 175.3848
713.089738 96.197 175.3578
718.257080 96.249 175.3268
723.461867 96.302 175.2924
728.704370 96.355 175.2549
733.984862 96.405 175.2153
739.303619 96.453 175.1741
744.660918 96.497 175.1315
750.057038 96.536 175.0875
755.492260 96.572 175.0418
760.966869 96.604 174.9941
766.481148 96.632 174.9440
772.035387 96.657 174.8912
777.629873 96.678 174.8356
783.264900 96.697 174.7768
788.940760 96.713 174.7147
794.657750 96.725 174.6490
800.416168 96.733 174.5793
806.216313 96.735 174.5055
812.058489 96.731 174.4272
817.943000 96.720 174.3445
823.870152 96.702 174.2570
829.840255 96.676 174.1649
835.853619 96.643 174.0676
841.910559 96.603 173.9652
848.011390 96.558 173.8574
854.156430 96.510 173.7440
860.346000 96.461 173.6253
866.580422 96.413 173.5014
872.860020 96.369 173.3729
879.185124 96.331 173.2400
885.556062 96.301 173.1029
891.973166 96.280 172.9614
898.436771 96.270 172.8152
904.947215 96.270 172.6642
911.504835 96.280 172.5084
918.109975 96.299 172.3481
924.762978 96.327 172.1837
931.464192 96.360 172.0160
938.213966 96.398 171.8455
945.012651 96.438 171.6727
951.860602 96.480 171.4979
958.758176 96.521 171.3217
965.705733 96.559 171.1449
972.703635 96.595 170.9688
979.752246 96.628 170.7948
986.851935 96.656 170.6245
994.003071 96.682 170.4589
1001.206027 96.704 170.2984
1008.461179 96.725 170.1426
1015.768904 96.746 169.9902
1023.129584 96.767 169.8393
1030.543603 96.789 169.6881
1038.011347 96.815 169.5350
1045.533205 96.844 169.3785
1053.109569 96.877 169.2181
1060.740836 96.914 169.0533
1068.427401 96.956 168.8836
1076.169666 97.002 168.7086
1083.968035 97.051 168.5274
1091.822915 97.100 168.3399
1099.734713 97.150 168.1466
1107.703844 97.197 167.9489
1115.730723 97.240 167.7490
1123.815768 97.278 167.5500
1131.959400 97.309 167.3547
1140.162045 97.333 167.1654
1148.424129 97.351 166.9840
1156.746083 97.361 166.8117
1165.128342 97.365 166.6497
1173.571343 97.364 166.4987
1182.075524 97.359 166.3593
1190.641331 97.353 166.2315
1199.269209 97.346 166.1149
1207.959608 97.341 166.0084
1216.712981 97.339 165.9108
1225.529785 97.341 165.8210
1234.410479 97.348 165.7375
1243.355526 97.360 165.6597
1252.365393 97.378 165.5874
1261.440549 97.400 165.5212
1270.581467 97.428 165.4618
1279.788624 97.460 165.4097
1289.062500 97.495 165.3651
1298.403578 97.533 165.3278
1307.812346 97.574 165.2978
1317.289293 97.615 165.2751
1326.834914 97.656 165.2599
1336.449707 97.696 165.2523
1346.134173 97.735 165.2524
1355.888816 97.772 165.2607
1365.714145 97.806 165.2775
1375.610673 97.837 165.3027
1385.578915 97.865 165.3362
1395.619391 97.890 165.3771
1405.732624 97.913 165.4237
1415.919142 97.933 165.4742
1426.179476 97.951 165.5266
1436.514160 97.966 165.5787
1446.923734 97.980 165.6287
1457.408740 97.992 165.6749
1467.969724 98.002 165.7161
1478.607238 98.010 165.7513
1489.321836 98.016 165.7803
1500.114076 98.018 165.8036
1510.984521 98.017 165.8224
1521.933737 98.013 165.8382
1532.962297 98.004 165.8521
1544.070773 97.991 165.8654
1555.259747 97.973 165.8794
1566.529800 97.950 165.8960
1577.881521 97.923 165.9176
1589.315501 97.891 165.9479
1600.832336 97.855 165.9910
1612.432627 97.817 166.0515
1624.116978 97.777 166.1331
1635.886000 97.736 166.2390
1647.740304 97.696 166.3706
1659.680509 97.657 166.5281
1671.707238 97.621 166.7095
1683.821118 97.588 166.9112
1696.022780 97.558 167.1274
1708.312860 97.533 167.3517
1720.692000 97.511 167.5775
1733.160843 97.494 167.7994
1745.720041 97.481 168.0136
1758.370248 97.471 168.2182
1771.112124 97.465 168.4124
1783.946332 97.462 168.5965
1796.873543 97.463 168.7712
1809.894429 97.467 168.9385
1823.009670 97.474 169.1006
1836.219950 97.484 169.2599
1849.525956 97.496 169.4182
1862.928384 97.510 169.5752
1876.427931 97.526 169.7294
1890.025301 97.543 169.8782
1903.721204 97.560 170.0187
1917.516352 97.577 170.1483
1931.411466 97.593 170.2648
1945.407270 97.606 170.3662
1959.504493 97.618 170.4514
1973.703870 97.628 170.5203
1988.006142 97.635 170.5745
2002.412054 97.640 170.6168
2016.922357 97.643 170.6505
2031.537808 97.646 170.6779
2046.259169 97.651 170.7005
2061.087206 97.657 170.7183
2076.022694 97.666 170.7300
2091.066410 97.680 170.7328
2106.219139 97.699 170.7230
2121.481671 97.724 170.6963
2136.854802 97.755 170.6483
2152.339333 97.791 170.5749
2167.936071 97.833 170.4738
2183.645829 97.880 170.3438
2199.469427 97.931 170.1860
2215.407689 97.986 170.0027
2231.461446 98.044 169.7971
2247.631536 98.106 169.5728
2263.918800 98.171 169.3339
2280.324089 98.240 169.0833
2296.848258 98.312 168.8235
2313.492167 98.386 168.5562
2330.256685 98.464 168.2831
2347.142685 98.543 168.0056
2364.151049 98.624 167.7249
2381.282662 98.706 167.4421
2398.538418 98.788 167.1585
2415.919216 98.868 166.8754
2433.425962 98.947 166.5942
2451.059570 99.023 166.3159
2468.820958 99.096 166.0412
2486.711052 99.165 165.7704
2504.730786 99.229 165.5030
2522.881098 99.288 165.2379
2541.162934 99.341 164.9735
2559.577248 99.387 164.7077
2578.125000 99.426 164.4385
2596.807157 99.455 164.1646
2615.624692 99.475 163.8859
2634.578586 99.484 163.6039
2653.669829 99.482 163.3219
2672.899414 99.467 163.0444
2692.268345 99.440 162.7769
2711.777632 99.400 162.5259
2731.428290 99.347 162.2979
2751.221345 99.282 162.0994
2771.157829 99.205 161.9367
2791.238781 99.117 161.8156
2811.465248 99.018 161.7410
2831.838284 98.910 161.7177
2852.358952 98.793 161.7496
2873.028321 98.669 161.8409
2893.847468 98.537 161.9956
2914.817480 98.400 162.2183
2935.939449 98.259 162.5131
2957.214476 98.114 162.8842
2978.643672 97.968 163.3345
3000.228152 97.822 163.8655
3021.969041 97.678 164.4770
3043.867475 97.539 165.1659
3065.924593 97.406 165.9271
3088.141547 97.283 166.7530
3110.519493 97.170 167.6340
3133.059600 97.070 168.5591
3155.763041 96.984 169.5161
3178.631001 96.914 170.4910
3201.664672 96.860 171.4677
3224.865254 96.824 172.4283
3248.233957 96.805 173.3536
3271.771999 96.803 174.2252
3295.480608 96.817 175.0268
3319.361019 96.844 175.7464
3343.414477 96.883 176.3772
3367.642236 96.931 176.9176
3392.045560 96.986 177.3712
3416.625721 97.046 177.7454
3441.383999 97.110 178.0507
3466.321686 97.176 178.2989
3491.440082 97.244 178.5015
3516.740496 97.314 178.6686
3542.224247 97.386 178.8074
3567.892664 97.462 178.9217
3593.747085 97.542 179.0116
3619.788858 97.625 179.0740
3646.019340 97.712 179.1035
3672.439900 97.801 179.0937
3699.051913 97.893 179.0390
3725.856768 97.984 178.9359
3752.855862 98.074 178.7838
3780.050603 98.160 178.5854
3807.442408 98.241 178.3467
3835.032705 98.315 178.0762
3862.822933 98.382 177.7844
3890.814540 98.441 177.4829
3919.008986 98.491 177.1835
3947.407741 98.534 176.8973
3976.012284 98.570 176.6341
4004.824108 98.599 176.4019
4033.844715 98.621 176.2068
4063.075616 98.639 176.0527
4092.518337 98.653 175.9418
4122.174412 98.664 175.8748
4152.045387 98.671 175.8510
4182.132820 98.677 175.8696
4212.438278 98.681 175.9290
4242.963342 98.683 176.0280
4273.709604 98.685 176.1654
4304.678665 98.686 176.3401
4335.872141 98.688 176.5510
4367.291658 98.691 176.7968
4398.938854 98.695 177.0766
4430.815378 98.701 177.3892
4462.922893 98.709 177.7338
4495.263072 98.721 178.1098
4527.837601 98.735 178.5171
4560.648179 98.754 178.9560
4593.696515 98.776 179.4274
4626.984334 98.802 179.9323
4660.513370 98.834 -179.5279
4694.285371 98.870 -178.9514
4728.302098 98.912 -178.3366
4762.565324 98.960 -177.6822
4797.076835 99.014 -176.9874
4831.838432 99.076 -176.2525
4866.851925 99.146 -175.4790
4902.119140 99.226 -174.6702
4937.641916 99.315 -173.8306
4973.422105 99.415 -172.9666
5009.461572 99.527 -172.0856
5045.762195 99.650 -171.1965
5082.325868 99.785 -170.3092
5119.154496 99.931 -169.4342
5156.250000 100.090 -168.5828
5193.614313 100.259 -167.7667
5231.249383 100.439 -166.9976
5269.157173 100.629 -166.2872
5307.339658 100.827 -165.6470
5345.798829 101.032 -165.0880
5384.536691 101.244 -164.6208
5423.555263 101.461 -164.2557
5462.856580 101.682 -164.0025
5502.442691 101.906 -163.8708
5542.315659 102.133 -163.8693
5582.477563 102.360 -164.0064
5622.930497 102.588 -164.2893
5663.676569 102.814 -164.7239
5704.717904 103.038 -165.3144
5746.056642 103.256 -166.0627
5787.694937 103.468 -166.9682
5829.634960 103.672 -168.0276
5871.878898 103.864 -169.2346
5914.428953 104.043 -170.5800
5957.287343 104.206 -172.0525
6000.456303 104.351 -173.6382
6043.938083 104.476 -175.3211
6087.734950 104.580 -177.0838
6131.849187 104.660 -178.9075
6176.283094 104.716 179.2273
6221.038987 104.747 177.3403
6266.119200 104.754 175.4504
6311.526083 104.737 173.5754
6357.262002 104.697 171.7311
6403.329344 104.636 169.9307
6449.730508 104.556 168.1843
6496.467914 104.462 166.4985
6543.543998 104.355 164.8760
6590.961215 104.240 163.3157
6638.722037 104.122 161.8121
6686.828954 104.003 160.3560
6735.284473 103.887 158.9344
6784.091120 103.779 157.5314
6833.251441 103.681 156.1288
6882.767998 103.594 154.7069
6932.643372 103.521 153.2458
6982.880164 103.460 151.7263
7033.480992 103.410 150.1301
7084.448495 103.370 148.4413
7135.785329 103.336 146.6463
7187.494171 103.305 144.7343
7239.577717 103.272 142.6971
7292.038681 103.234 140.5293
7344.879799 103.186 138.2272
7398.103826 103.125 135.7889
7451.713536 103.046 133.2130
7505.711724 102.947 130.4983
7560.101205 102.824 127.6436
7614.884815 102.676 124.6470
7670.065409 102.499 121.5064
7725.645865 102.292 118.2191
7781.629080 102.052 114.7822
7838.017972 101.778 111.1925
7894.815481 101.468 107.4463
7952.024569 101.120 103.5385
8009.648217 100.733 99.4613
8067.689429 100.307 95.2019
8126.151233 99.842 90.7391
8185.036674 99.341 86.0387
8244.348824 98.806 81.0474
8304.090774 98.242 75.6855
8364.265639 97.656 69.8367
8424.876556 97.059 63.3358
8485.926684 96.464 55.9546
8547.419207 95.887 47.3910
8609.357330 95.351 37.2817
8671.744282 94.882 25.2860
8734.583316 94.507 11.3089
8797.877707 94.252 -4.1599
8861.630756 94.137 -19.9402
8925.845785 94.169 -34.6760
8990.526143 94.340 -47.5487
9055.675202 94.631 -58.4383
9121.296357 95.018 -67.6279
9187.393031 95.471 -75.5073
9253.968668 95.965 -82.4329
9321.026740 96.475 -88.6896
9388.570742 96.982 -94.4942
9456.604196 97.470 -100.0077
9525.130648 97.926 -105.3465
9594.153671 98.336 -110.5915
9663.676863 98.690 -115.7935
9733.703850 98.979 -120.9760
9804.238280 99.194 -126.1389
9875.283832 99.330 -131.2604
9946.844210 99.381 -136.3005
10018.923143 99.348 -141.2075
10091.524390 99.230 -145.9240
10164.651736 99.033 -150.3939
10238.308993 98.764 -154.5699
10312.500000 98.433 -158.4170
10387.228626 98.049 -161.9159
10462.498767 97.627 -165.0656
10538.314345 97.178 -167.8834
10614.679315 96.718 -170.4059
10691.597657 96.258 -172.6868
10769.073381 95.810 -174.7939
10847.110526 95.384 -176.8050
10925.713161 94.986 -178.8003
11004.885382 94.615 179.1445
11084.631318 94.270 176.9656
11164.955126 93.940 174.6171
11245.860993 93.614 172.0756
11327.353138 93.279 169.3404
11409.435808 92.920 166.4337
11492.113283 92.524 163.3950
11575.389873 92.081 160.2748
11659.269920 91.585 157.1239
11743.757796 91.035 153.9833
11828.857906 90.432 150.8728
11914.574686 89.784 147.7823
12000.912606 89.100 144.6656
12087.876166 88.393 141.4355
12175.469900 87.679 137.9595
12263.698373 86.978 134.0493
12352.566187 86.308 129.4280
12442.077974 85.692 123.6362
12532.238400 85.149 115.7525
12623.052165 84.697 103.4695
12714.524005 84.348 79.7294
12806.658687 84.106 30.8948
12899.461015 83.965 -13.8844
12992.935827 83.914 -35.2631
13087.087996 83.934 -47.2958
13181.922430 84.004 -55.7558
13277.444074 84.107 -62.5350
13373.657907 84.228 -68.3736
13470.568945 84.357 -73.6132
13568.182241 84.486 -78.4370
13666.502883 84.611 -82.9597
13765.535996 84.731 -87.2644
13865.286744 84.844 -91.4188
13965.760328 84.945 -95.4813
14066.961984 85.034 -99.5029
14168.896989 85.104 -103.5269
14271.570658 85.151 -107.5862
14374.988342 85.169 -111.7031
14479.155433 85.152 -115.8879
14584.077362 85.097 -120.1414
14689.759598 84.998 -124.4575
14796.207652 84.854 -128.8257
14903.427072 84.663 -133.2332
15011.423448 84.422 -137.6637
15120.202410 84.130 -142.0977
15229.769630 83.785 -146.5115
15340.130819 83.385 -150.8766
15451.291730 82.930 -155.1616
15563.258160 82.417 -159.3323
15676.035944 81.849 -163.3530
15789.630962 81.225 -167.1892
15904.049137 80.548 -170.8076
16019.296433 79.821 -174.1763
16135.378859 79.049 -177.2611
16252.302465 78.236 179.9803
16370.073348 77.391 177.6121
16488.697648 76.521 175.7400
16608.181548 75.639 174.5442
16728.531278 74.763 174.3259
16849.753112 73.919 175.5737
16971.853368 73.145 179.0197
17094.838414 72.487 -174.4478
17218.714660 71.996 -164.4253
17343.488565 71.716 -152.3579
17469.166632 71.662 -141.5835
17595.755415 71.813 -134.5814
17723.261512 72.122 -131.5969
17851.691571 72.532 -131.8210
17981.052287 72.989 -134.4097
18111.350404 73.448 -138.7485
18242.592715 73.880 -144.4304
18374.786062 74.263 -151.1882
18507.937336 74.582 -158.8427
18642.053479 74.828 -167.2634
18777.141484 74.996 -176.3398
18913.208391 75.084 174.0463
19050.261296 75.093 164.0518
19188.307342 75.030 153.9033
19327.353727 74.906 143.9246
19467.407699 74.739 134.5405
19608.476560 74.552 126.2426
19750.567664 74.373 119.5222
19893.688419 74.233 114.7974
20037.846286 74.155 112.3612
