* Measurement data measured by REW V5.31.3
* Source: EXCL: Headset (USB-C to 3.5mm Headphone Jack Adapter), MICROPHONE (Master Volume), 0, volume: 0.750
* Format: 256k Log Swept Sine, 1 sweep at -12.0 dBFS with no timing reference
* Dated: Apr 7, 2025 4:49:17 PM
* REW Settings:
*  C-weighting compensation: Off
*  Target level: 75.0 dB
* Note: ; 
* Measurement: Satyr 3 (Forward) R5
* Smoothing: 1/6 octave
* Frequency Step: 96 ppo
* Start Frequency: 20.0 Hz
*
* Freq(Hz) SPL(dB) Phase(degrees)
20.187378 80.206 -97.9187
20.333664 80.238 -98.0415
20.481010 80.282 -98.2060
20.629424 80.337 -98.4074
20.778913 80.403 -98.6406
20.929486 80.480 -98.9009
21.081150 80.566 -99.1840
21.233912 80.662 -99.4859
21.387782 80.765 -99.8032
21.542767 80.873 -100.1326
21.698874 80.986 -100.4706
21.856113 81.102 -100.8139
22.014492 81.218 -101.1589
22.174018 81.334 -101.5021
22.334700 81.448 -101.8405
22.496546 81.557 -102.1714
22.659566 81.663 -102.4934
22.823766 81.763 -102.8064
22.989157 81.857 -103.1115
23.155745 81.945 -103.4117
23.323542 82.027 -103.7113
23.492554 82.102 -104.0159
23.662790 82.171 -104.3312
23.834261 82.234 -104.6633
24.006973 82.290 -105.0171
24.180938 82.339 -105.3965
24.356163 82.383 -105.8031
24.532658 82.421 -106.2368
24.710431 82.453 -106.6954
24.889493 82.481 -107.1750
25.069853 82.505 -107.6707
25.251519 82.527 -108.1775
25.434502 82.548 -108.6908
25.618811 82.569 -109.2069
25.804456 82.593 -109.7241
25.991445 82.620 -110.2419
26.179790 82.650 -110.7615
26.369500 82.685 -111.2849
26.560584 82.724 -111.8143
26.753053 82.766 -112.3513
26.946917 82.810 -112.8959
27.142185 82.856 -113.4468
27.338869 82.902 -114.0008
27.536977 82.947 -114.5534
27.736522 82.991 -115.0992
27.937512 83.034 -115.6330
28.139959 83.075 -116.1507
28.343872 83.114 -116.6494
28.549264 83.152 -117.1285
28.756143 83.190 -117.5893
28.964522 83.228 -118.0347
29.174411 83.265 -118.4684
29.385821 83.302 -118.8944
29.598763 83.339 -119.3155
29.813248 83.376 -119.7336
30.029287 83.411 -120.1487
30.246891 83.447 -120.5594
30.466073 83.482 -120.9636
30.686842 83.519 -121.3589
30.909212 83.557 -121.7436
31.133193 83.599 -122.1174
31.358797 83.644 -122.4815
31.586035 83.695 -122.8385
31.814921 83.751 -123.1918
32.045465 83.813 -123.5452
32.277680 83.880 -123.9015
32.511577 83.950 -124.2625
32.747169 84.024 -124.6283
32.984469 84.100 -124.9978
33.223488 84.177 -125.3687
33.464239 84.254 -125.7385
33.706735 84.332 -126.1055
33.950987 84.410 -126.4686
34.197010 84.489 -126.8281
34.444816 84.568 -127.1855
34.694417 84.647 -127.5427
34.945827 84.727 -127.9019
35.199059 84.807 -128.2647
35.454126 84.888 -128.6317
35.711041 84.968 -129.0022
35.969818 85.049 -129.3746
36.230470 85.130 -129.7466
36.493011 85.211 -130.1158
36.757455 85.292 -130.4800
37.023814 85.373 -130.8382
37.292104 85.453 -131.1903
37.562338 85.532 -131.5374
37.834530 85.610 -131.8813
38.108695 85.686 -132.2246
38.384846 85.761 -132.5695
38.662999 85.833 -132.9181
38.943167 85.904 -133.2722
39.225365 85.972 -133.6329
39.509608 86.039 -134.0011
39.795911 86.104 -134.3779
40.084289 86.169 -134.7639
40.374756 86.233 -135.1599
40.667328 86.297 -135.5665
40.962020 86.360 -135.9835
41.258848 86.422 -136.4099
41.557827 86.483 -136.8442
41.858972 86.542 -137.2842
42.162299 86.598 -137.7278
42.467824 86.653 -138.1732
42.775564 86.705 -138.6195
43.085533 86.754 -139.0662
43.397749 86.801 -139.5133
43.712227 86.846 -139.9607
44.028983 86.890 -140.4081
44.348036 86.931 -140.8544
44.669400 86.971 -141.2981
44.993093 87.010 -141.7377
45.319131 87.049 -142.1716
45.647532 87.087 -142.5989
45.978313 87.125 -143.0196
46.311491 87.164 -143.4340
46.647083 87.202 -143.8432
46.985107 87.240 -144.2487
47.325581 87.276 -144.6518
47.668521 87.312 -145.0535
48.013947 87.345 -145.4542
48.361876 87.376 -145.8541
48.712326 87.404 -146.2529
49.065315 87.430 -146.6508
49.420863 87.452 -147.0480
49.778987 87.473 -147.4456
50.139706 87.490 -147.8451
50.503039 87.506 -148.2486
50.869005 87.519 -148.6581
51.237623 87.530 -149.0754
51.608912 87.538 -149.5022
51.982891 87.545 -149.9392
52.359580 87.551 -150.3859
52.739000 87.554 -150.8398
53.121168 87.556 -151.2966
53.506106 87.555 -151.7506
53.893833 87.554 -152.1954
54.284370 87.550 -152.6255
54.677737 87.546 -153.0364
55.073955 87.541 -153.4248
55.473043 87.536 -153.7878
55.875024 87.531 -154.1224
56.279917 87.525 -154.4254
56.687745 87.520 -154.6945
57.098527 87.514 -154.9294
57.512287 87.507 -155.1335
57.929045 87.501 -155.3161
58.348822 87.496 -155.4930
58.771642 87.493 -155.6869
59.197525 87.493 -155.9249
59.626495 87.498 -156.2333
60.058573 87.508 -156.6307
60.493782 87.523 -157.1225
60.932145 87.542 -157.6984
61.373685 87.563 -158.3358
61.818424 87.586 -159.0062
62.266386 87.611 -159.6823
62.717593 87.636 -160.3436
63.172071 87.661 -160.9774
63.629842 87.687 -161.5787
64.090930 87.712 -162.1467
64.555359 87.738 -162.6839
65.023154 87.763 -163.1935
65.494339 87.789 -163.6787
65.968938 87.815 -164.1425
66.446976 87.840 -164.5876
66.928478 87.865 -165.0165
67.413469 87.890 -165.4315
67.901975 87.913 -165.8345
68.394021 87.935 -166.2271
68.889632 87.956 -166.6104
69.388835 87.975 -166.9853
69.891655 87.992 -167.3527
70.398118 88.007 -167.7138
70.908252 88.019 -168.0702
71.422083 88.029 -168.4236
71.939636 88.036 -168.7758
72.460941 88.039 -169.1282
72.986023 88.040 -169.4819
73.514909 88.037 -169.8373
74.047629 88.030 -170.1944
74.584208 88.021 -170.5526
75.124676 88.008 -170.9109
75.669061 87.993 -171.2679
76.217390 87.975 -171.6224
76.769692 87.955 -171.9731
77.325997 87.932 -172.3192
77.886333 87.909 -172.6602
78.450730 87.884 -172.9958
79.019216 87.859 -173.3259
79.591822 87.834 -173.6507
80.168577 87.808 -173.9704
80.749512 87.782 -174.2853
81.334656 87.756 -174.5959
81.924040 87.730 -174.9026
82.517696 87.703 -175.2059
83.115653 87.677 -175.5060
83.717943 87.651 -175.8030
84.324598 87.624 -176.0968
84.935649 87.597 -176.3873
85.551128 87.570 -176.6743
86.171066 87.542 -176.9574
86.795497 87.514 -177.2364
87.424453 87.486 -177.5110
88.057967 87.458 -177.7811
88.696071 87.429 -178.0466
89.338800 87.399 -178.3080
89.986185 87.370 -178.5658
90.638262 87.339 -178.8208
91.295065 87.308 -179.0738
91.956626 87.277 -179.3254
92.622982 87.245 -179.5759
93.294166 87.213 -179.8255
93.970214 87.181 179.9258
94.651161 87.149 179.6783
95.337042 87.117 179.4322
96.027894 87.085 179.1877
96.723752 87.053 178.9456
97.424652 87.022 178.7062
98.130631 86.990 178.4704
98.841726 86.959 178.2388
99.557974 86.929 178.0120
100.279412 86.900 177.7906
101.006078 86.872 177.5750
101.738010 86.845 177.3654
102.475245 86.820 177.1619
103.217823 86.796 176.9641
103.965782 86.774 176.7711
104.719161 86.752 176.5814
105.477999 86.731 176.3933
106.242336 86.710 176.2051
107.012212 86.690 176.0155
107.787666 86.669 175.8240
108.568740 86.649 175.6306
109.355474 86.630 175.4356
110.147909 86.611 175.2395
110.946086 86.592 175.0429
111.750047 86.575 174.8467
112.559834 86.558 174.6520
113.375489 86.543 174.4602
114.197055 86.528 174.2725
115.024574 86.513 174.0901
115.858089 86.499 173.9139
116.697645 86.486 173.7446
117.543284 86.472 173.5822
118.395051 86.457 173.4263
119.252990 86.442 173.2759
120.117147 86.427 173.1297
120.987565 86.410 172.9863
121.864291 86.393 172.8444
122.747370 86.375 172.7029
123.636848 86.358 172.5612
124.532771 86.339 172.4195
125.435187 86.321 172.2781
126.344142 86.301 172.1379
127.259684 86.281 171.9999
128.181860 86.260 171.8652
129.110718 86.238 171.7347
130.046308 86.214 171.6092
130.988677 86.188 171.4890
131.937875 86.161 171.3744
132.893951 86.131 171.2651
133.856956 86.100 171.1609
134.826938 86.067 171.0612
135.803950 86.033 170.9657
136.788041 85.997 170.8740
137.779264 85.960 170.7857
138.777669 85.921 170.7008
139.783309 85.881 170.6193
140.796237 85.840 170.5416
141.816504 85.798 170.4681
142.844165 85.755 170.3995
143.879273 85.710 170.3365
144.921881 85.665 170.2801
145.972045 85.618 170.2311
147.029819 85.570 170.1906
148.095257 85.522 170.1597
149.168417 85.473 170.1396
150.249353 85.423 170.1312
151.338121 85.372 170.1351
152.434780 85.322 170.1522
153.539385 85.272 170.1826
154.651995 85.222 170.2262
155.772667 85.173 170.2826
156.901460 85.125 170.3506
158.038432 85.079 170.4291
159.183644 85.034 170.5169
160.337154 84.990 170.6135
161.499023 84.949 170.7189
162.669312 84.909 170.8339
163.848081 84.872 170.9589
165.035392 84.837 171.0943
166.231306 84.804 171.2394
167.435887 84.775 171.3934
168.649196 84.748 171.5544
169.871298 84.725 171.7206
171.102255 84.705 171.8900
172.342133 84.688 172.0610
173.590995 84.674 172.2327
174.848907 84.664 172.4048
176.115934 84.656 172.5779
177.392143 84.651 172.7532
178.677599 84.648 172.9320
179.972371 84.647 173.1152
181.276525 84.647 173.3019
182.590129 84.648 173.4887
183.913252 84.650 173.6703
185.245964 84.653 173.8408
186.588332 84.656 173.9945
187.940428 84.661 174.1274
189.302322 84.666 174.2372
190.674085 84.673 174.3231
192.055788 84.680 174.3856
193.447503 84.688 174.4260
194.849303 84.696 174.4462
196.261262 84.704 174.4482
197.683452 84.711 174.4341
199.115948 84.718 174.4057
200.558824 84.724 174.3646
202.012156 84.729 174.3123
203.476019 84.733 174.2507
204.950490 84.737 174.1814
206.435646 84.739 174.1057
207.931564 84.742 174.0245
209.438322 84.743 173.9379
210.955998 84.744 173.8455
212.484672 84.745 173.7471
214.024424 84.744 173.6427
215.575333 84.743 173.5333
217.137481 84.741 173.4200
218.710948 84.739 173.3050
220.295818 84.736 173.1907
221.892172 84.733 173.0800
223.500094 84.730 172.9755
225.119668 84.727 172.8789
226.750978 84.725 172.7908
228.394109 84.723 172.7108
230.049147 84.721 172.6375
231.716178 84.720 172.5690
233.395289 84.719 172.5036
235.086567 84.718 172.4395
236.790102 84.717 172.3759
238.505980 84.716 172.3121
240.234293 84.715 172.2483
241.975130 84.714 172.1847
243.728581 84.714 172.1216
245.494739 84.715 172.0591
247.273695 84.715 171.9975
249.065542 84.717 171.9366
250.870374 84.718 171.8762
252.688284 84.720 171.8159
254.519367 84.721 171.7558
256.363720 84.723 171.6956
258.221437 84.725 171.6349
260.092616 84.726 171.5739
261.977354 84.727 171.5124
263.875750 84.729 171.4508
265.787903 84.730 171.3895
267.713911 84.732 171.3287
269.653877 84.734 171.2686
271.607900 84.736 171.2090
273.576083 84.738 171.1498
275.558528 84.741 171.0910
277.555338 84.744 171.0330
279.566619 84.747 170.9763
281.592474 84.750 170.9216
283.633009 84.753 170.8696
285.688331 84.756 170.8208
287.758546 84.759 170.7753
289.843763 84.763 170.7330
291.944090 84.766 170.6936
294.059638 84.770 170.6567
296.190515 84.774 170.6217
298.336833 84.779 170.5885
300.498705 84.783 170.5570
302.676243 84.787 170.5273
304.869559 84.792 170.4996
307.078770 84.796 170.4737
309.303989 84.801 170.4492
311.545334 84.806 170.4257
313.802919 84.812 170.4025
316.076865 84.819 170.3792
318.367288 84.826 170.3557
320.674309 84.833 170.3320
322.998047 84.841 170.3083
325.338624 84.849 170.2846
327.696162 84.857 170.2613
330.070783 84.865 170.2383
332.462612 84.873 170.2157
334.871773 84.881 170.1935
337.298392 84.888 170.1720
339.742595 84.893 170.1514
342.204510 84.898 170.1317
344.684265 84.902 170.1130
347.181989 84.904 170.0955
349.697813 84.905 170.0792
352.231868 84.905 170.0642
354.784285 84.904 170.0504
357.355198 84.901 170.0374
359.944741 84.898 170.0243
362.553049 84.893 170.0098
365.180258 84.887 169.9929
367.826505 84.880 169.9728
370.491927 84.872 169.9493
373.176665 84.863 169.9228
375.880856 84.853 169.8941
378.604644 84.843 169.8641
381.348169 84.832 169.8337
384.111575 84.820 169.8030
386.895006 84.808 169.7722
389.698607 84.795 169.7405
392.522524 84.782 169.7072
395.366904 84.769 169.6714
398.231895 84.755 169.6326
401.117648 84.740 169.5905
404.024312 84.725 169.5457
406.952038 84.709 169.4987
409.900981 84.691 169.4507
412.871292 84.671 169.4032
415.863128 84.649 169.3582
418.876643 84.625 169.3184
421.911996 84.598 169.2874
424.969344 84.568 169.2689
428.048847 84.535 169.2669
431.150666 84.499 169.2849
434.274961 84.462 169.3246
437.421897 84.424 169.3859
440.591636 84.386 169.4653
443.784345 84.348 169.5574
447.000189 84.312 169.6559
450.239337 84.278 169.7552
453.501956 84.246 169.8506
456.788219 84.215 169.9395
460.098294 84.185 170.0204
463.432356 84.157 170.0933
466.790578 84.129 170.1588
470.173135 84.103 170.2177
473.580203 84.076 170.2712
477.011961 84.051 170.3202
480.468586 84.026 170.3656
483.950259 84.002 170.4084
487.457163 83.978 170.4494
490.989478 83.955 170.4897
494.547390 83.934 170.5304
498.131084 83.913 170.5723
501.740748 83.893 170.6161
505.376568 83.875 170.6620
509.038735 83.859 170.7102
512.727439 83.844 170.7606
516.442874 83.832 170.8129
520.185232 83.821 170.8667
523.954708 83.813 170.9214
527.751500 83.807 170.9765
531.575805 83.803 171.0312
535.427822 83.801 171.0848
539.307753 83.802 171.1361
543.215800 83.804 171.1841
547.152165 83.808 171.2277
551.117055 83.815 171.2660
555.110677 83.823 171.2983
559.133237 83.833 171.3245
563.184947 83.845 171.3448
567.266018 83.858 171.3600
571.376661 83.874 171.3711
575.517092 83.890 171.3792
579.687526 83.908 171.3851
583.888181 83.927 171.3900
588.119275 83.946 171.3949
592.381030 83.965 171.4010
596.673667 83.985 171.4094
600.997410 84.004 171.4206
605.352485 84.022 171.4345
609.739119 84.040 171.4506
614.157540 84.058 171.4678
618.607979 84.074 171.4848
623.090667 84.090 171.5002
627.605839 84.105 171.5126
632.153730 84.119 171.5208
636.734576 84.132 171.5237
641.348617 84.145 171.5205
645.996094 84.156 171.5103
650.677248 84.168 171.4927
655.392323 84.178 171.4677
660.141566 84.187 171.4357
664.925224 84.194 171.3977
669.743546 84.199 171.3553
674.596784 84.202 171.3106
679.485191 84.203 171.2662
684.409020 84.201 171.2247
689.368530 84.198 171.1880
694.363979 84.193 171.1572
699.395626 84.186 171.1317
704.463736 84.179 171.1096
709.568570 84.172 171.0878
714.710396 84.165 171.0629
719.889483 84.157 171.0322
725.106099 84.149 170.9937
730.360516 84.140 170.9464
735.653010 84.130 170.8897
740.983855 84.119 170.8237
746.353329 84.106 170.7489
751.761713 84.091 170.6657
757.209288 84.075 170.5750
762.696339 84.056 170.4782
768.223151 84.035 170.3770
773.790013 84.011 170.2734
779.397214 83.986 170.1697
785.045047 83.959 170.0679
790.733808 83.930 169.9698
796.463791 83.900 169.8767
802.235296 83.870 169.7891
808.048623 83.839 169.7067
813.904077 83.808 169.6290
819.801961 83.777 169.5546
825.742584 83.747 169.4821
831.726255 83.718 169.4098
837.753287 83.690 169.3357
843.823992 83.664 169.2580
849.938689 83.639 169.1749
856.097695 83.614 169.0850
862.301332 83.591 168.9874
868.549922 83.569 168.8818
874.843793 83.547 168.7685
881.183272 83.526 168.6483
887.568689 83.504 168.5224
894.000378 83.483 168.3924
900.478673 83.462 168.2596
907.003913 83.441 168.1255
913.576437 83.421 167.9910
920.196588 83.400 167.8567
926.864712 83.381 167.7229
933.581156 83.362 167.5896
940.346270 83.344 167.4570
947.160407 83.327 167.3253
954.023921 83.312 167.1947
960.937172 83.298 167.0656
967.900519 83.286 166.9381
974.914325 83.276 166.8120
981.978956 83.268 166.6866
989.094780 83.262 166.5606
996.262169 83.259 166.4326
1003.481495 83.257 166.3007
1010.753136 83.258 166.1636
1018.077470 83.260 166.0201
1025.454879 83.263 165.8698
1032.885748 83.267 165.7129
1040.370463 83.272 165.5501
1047.909417 83.276 165.3824
1055.503000 83.280 165.2111
1063.151610 83.284 165.0377
1070.855645 83.287 164.8642
1078.615506 83.289 164.6930
1086.431599 83.291 164.5264
1094.304330 83.290 164.3668
1102.234110 83.289 164.2164
1110.221353 83.287 164.0767
1118.266475 83.283 163.9489
1126.369895 83.278 163.8335
1134.532035 83.273 163.7310
1142.753322 83.267 163.6413
1151.034184 83.260 163.5642
1159.375052 83.253 163.4993
1167.776361 83.245 163.4456
1176.238550 83.237 163.4023
1184.762060 83.229 163.3685
1193.347334 83.221 163.3431
1201.994821 83.214 163.3256
1210.704971 83.206 163.3153
1219.478238 83.198 163.3120
1228.315080 83.191 163.3157
1237.215957 83.183 163.3268
1246.181334 83.176 163.3459
1255.211678 83.168 163.3734
1264.307459 83.161 163.4100
1273.469152 83.154 163.4562
1282.697235 83.148 163.5129
1291.992188 83.142 163.5804
1301.354495 83.136 163.6588
1310.784647 83.132 163.7472
1320.283132 83.128 163.8447
1329.850448 83.125 163.9502
1339.487093 83.124 164.0633
1349.193569 83.123 164.1840
1358.970381 83.124 164.3122
1368.818041 83.127 164.4481
1378.737061 83.131 164.5910
1388.727958 83.137 164.7399
1398.791253 83.146 164.8927
1408.927471 83.158 165.0468
1419.137140 83.172 165.1992
1429.420793 83.189 165.3477
1439.778965 83.209 165.4907
1450.212197 83.230 165.6281
1460.721033 83.252 165.7603
1471.306019 83.275 165.8883
1481.967709 83.299 166.0143
1492.706658 83.323 166.1410
1503.523426 83.346 166.2713
1514.418576 83.369 166.4079
1525.392678 83.390 166.5534
1536.446302 83.411 166.7100
1547.580025 83.430 166.8793
1558.794428 83.447 167.0626
1570.090095 83.463 167.2604
1581.467615 83.477 167.4728
1592.927581 83.489 167.6999
1604.470591 83.499 167.9419
1616.097246 83.506 168.1990
1627.808153 83.512 168.4717
1639.603922 83.516 168.7599
1651.485168 83.518 169.0637
1663.452510 83.520 169.3819
1675.506573 83.521 169.7133
1687.647984 83.522 170.0561
1699.877377 83.523 170.4084
1712.195390 83.524 170.7685
1724.602663 83.527 171.1341
1737.099845 83.531 171.5028
1749.687587 83.536 171.8715
1762.366544 83.543 172.2364
1775.137379 83.553 172.5935
1788.000756 83.563 172.9390
1800.957346 83.575 173.2697
1814.007826 83.588 173.5836
1827.152874 83.601 173.8800
1840.393177 83.613 174.1592
1853.729425 83.625 174.4226
1867.162312 83.634 174.6723
1880.692540 83.642 174.9107
1894.320813 83.648 175.1402
1908.047843 83.652 175.3628
1921.874344 83.654 175.5792
1935.801038 83.655 175.7887
1949.828650 83.654 175.9896
1963.957912 83.653 176.1791
1978.189561 83.650 176.3540
1992.524338 83.646 176.5109
2006.962991 83.640 176.6473
2021.506272 83.633 176.7618
2036.154940 83.623 176.8546
2050.909758 83.611 176.9272
2065.771495 83.596 176.9820
2080.740927 83.578 177.0221
2095.818833 83.558 177.0506
2111.006001 83.536 177.0699
2126.303220 83.512 177.0812
2141.711290 83.488 177.0847
2157.231013 83.463 177.0797
2172.863198 83.437 177.0649
2188.608660 83.412 177.0388
2204.468221 83.387 177.0005
2220.442706 83.361 176.9491
2236.532950 83.336 176.8844
2252.739789 83.311 176.8065
2269.064070 83.285 176.7160
2285.506644 83.259 176.6138
2302.068367 83.234 176.5010
2318.750104 83.208 176.3785
2335.552723 83.182 176.2468
2352.477101 83.157 176.1053
2369.524119 83.133 175.9525
2386.694668 83.110 175.7858
2403.989641 83.088 175.6025
2421.409941 83.067 175.4003
2438.956476 83.046 175.1776
2456.630160 83.025 174.9345
2474.431915 83.002 174.6729
2492.362668 82.978 174.3962
2510.423356 82.951 174.1092
2528.614918 82.922 173.8178
2546.938304 82.890 173.5283
2565.394469 82.855 173.2471
2583.984375 82.817 172.9800
2602.708991 82.778 172.7321
2621.569293 82.737 172.5070
2640.566265 82.696 172.3071
2659.700897 82.655 172.1335
2678.974186 82.614 171.9860
2698.387137 82.574 171.8640
2717.940763 82.534 171.7666
2737.636082 82.496 171.6936
2757.474121 82.459 171.6450
2777.455915 82.422 171.6218
2797.582506 82.385 171.6251
2817.854942 82.349 171.6570
2838.274281 82.313 171.7195
2858.841586 82.276 171.8159
2879.557931 82.240 171.9496
2900.424394 82.203 172.1250
2921.442065 82.166 172.3466
2942.612039 82.130 172.6189
2963.935418 82.094 172.9457
2985.413316 82.059 173.3295
3007.046852 82.027 173.7712
3028.837153 81.998 174.2695
3050.785356 81.973 174.8208
3072.892604 81.953 175.4193
3095.160050 81.937 176.0572
3117.588856 81.928 176.7255
3140.180190 81.924 177.4138
3162.935230 81.926 178.1115
3185.855163 81.933 178.8074
3208.941182 81.945 179.4905
3232.194493 81.961 -179.8496
3255.616307 81.980 -179.2224
3279.207844 82.002 -178.6356
3302.970336 82.024 -178.0949
3326.905021 82.046 -177.6034
3351.013146 82.068 -177.1614
3375.295969 82.087 -176.7669
3399.754755 82.104 -176.4162
3424.390779 82.119 -176.1055
3449.205326 82.132 -175.8324
3474.199690 82.144 -175.5972
3499.375173 82.157 -175.4030
3524.733088 82.171 -175.2559
3550.274757 82.186 -175.1638
3576.001511 82.202 -175.1349
3601.914692 82.219 -175.1765
3628.015651 82.235 -175.2934
3654.305748 82.249 -175.4870
3680.786354 82.260 -175.7550
3707.458849 82.265 -176.0913
3734.324624 82.263 -176.4864
3761.385080 82.253 -176.9286
3788.641627 82.235 -177.4044
3816.095686 82.207 -177.8999
3843.748688 82.171 -178.4012
3871.602076 82.126 -178.8954
3899.657300 82.074 -179.3705
3927.915825 82.014 -179.8162
3956.379122 81.949 179.7761
3985.048676 81.879 179.4130
4013.925981 81.805 179.0995
4043.012544 81.729 178.8386
4072.309879 81.651 178.6316
4101.819515 81.572 178.4785
4131.542990 81.493 178.3783
4161.481854 81.413 178.3296
4191.637667 81.332 178.3310
4222.012001 81.251 178.3819
4252.606441 81.168 178.4822
4283.422580 81.084 178.6331
4314.462026 80.998 178.8357
4345.726396 80.910 179.0919
4377.217321 80.820 179.4034
4408.936442 80.727 179.7719
4440.885413 80.633 -179.8014
4473.065899 80.536 -179.3147
4505.479579 80.437 -178.7663
4538.128141 80.337 -178.1544
4571.013288 80.236 -177.4769
4604.136735 80.135 -176.7313
4637.500207 80.035 -175.9153
4671.105446 79.938 -175.0268
4704.954201 79.843 -174.0639
4739.048239 79.755 -173.0253
4773.389336 79.673 -171.9107
4807.979283 79.601 -170.7212
4842.819883 79.541 -169.4594
4877.912952 79.495 -168.1304
4913.260320 79.465 -166.7409
4948.863830 79.455 -165.3002
4984.725337 79.467 -163.8198
5020.846712 79.502 -162.3131
5057.229836 79.562 -160.7952
5093.876609 79.649 -159.2821
5130.788938 79.763 -157.7906
5167.968750 79.905 -156.3374
5205.417982 80.075 -154.9392
5243.138586 80.271 -153.6122
5281.132530 80.493 -152.3721
5319.401793 80.740 -151.2345
5357.948371 81.010 -150.2142
5396.774274 81.300 -149.3251
5435.881525 81.609 -148.5800
5475.272163 81.932 -147.9897
5514.948243 82.268 -147.5631
5554.911831 82.612 -147.3073
5595.165012 82.963 -147.2271
5635.709884 83.316 -147.3258
5676.548561 83.669 -147.6045
5717.683172 84.018 -148.0629
5759.115861 84.359 -148.6986
5800.848789 84.691 -149.5071
5842.884130 85.010 -150.4817
5885.224077 85.314 -151.6136
5927.870837 85.598 -152.8914
5970.826633 85.862 -154.3014
6014.093704 86.102 -155.8274
6057.674306 86.318 -157.4512
6101.570711 86.508 -159.1525
6145.785208 86.672 -160.9099
6190.320101 86.808 -162.7012
6235.177712 86.919 -164.5042
6280.360380 87.005 -166.2973
6325.870460 87.068 -168.0608
6371.710325 87.111 -169.7774
6417.882365 87.138 -171.4334
6464.388986 87.153 -173.0201
6511.232613 87.160 -174.5345
6558.415689 87.164 -175.9806
6605.940673 87.171 -177.3704
6653.810042 87.185 -178.7234
6702.026292 87.210 179.9333
6750.591937 87.249 178.5673
6799.509509 87.302 177.1429
6848.781558 87.371 175.6242
6898.410653 87.452 173.9779
6948.399380 87.543 172.1752
6998.750346 87.641 170.1937
7049.466176 87.740 168.0168
7100.549514 87.839 165.6333
7152.003023 87.932 163.0359
7203.829385 88.017 160.2195
7256.031302 88.091 157.1808
7308.611496 88.149 153.9170
7361.572708 88.188 150.4264
7414.917698 88.204 146.7093
7468.649249 88.193 142.7680
7522.770160 88.149 138.6086
7577.283253 88.070 134.2407
7632.191371 87.949 129.6776
7687.497376 87.784 124.9357
7743.204151 87.571 120.0334
7799.314600 87.309 114.9880
7855.831649 86.996 109.8143
7912.758244 86.634 104.5212
7970.097352 86.224 99.1094
8027.851962 85.769 93.5688
8086.025087 85.274 87.8771
8144.619758 84.743 81.9970
8203.639030 84.183 75.8756
8263.085980 83.602 69.4425
8322.963708 83.008 62.6101
8383.275334 82.412 55.2751
8444.024002 81.826 47.3267
8505.212881 81.262 38.6606
8566.845160 80.736 29.2067
8628.924051 80.261 18.9675
8691.452792 79.851 8.0610
8754.434642 79.520 -3.2620
8817.872884 79.277 -14.6464
8881.770826 79.126 -25.7172
8946.131799 79.069 -36.1741
9010.959157 79.101 -45.8458
9076.256282 79.215 -54.6887
9142.026576 79.401 -62.7509
9208.273470 79.645 -70.1310
9275.000415 79.935 -76.9480
9342.210891 80.258 -83.3208
9409.908403 80.601 -89.3596
9478.096478 80.952 -95.1611
9546.778672 81.302 -100.8077
9615.958566 81.639 -106.3672
9685.639765 81.955 -111.8925
9755.825904 82.239 -117.4228
9826.520640 82.483 -122.9831
9897.727659 82.679 -128.5844
9969.450674 82.818 -134.2231
10041.693423 82.893 -139.8817
10114.459673 82.898 -145.5278
10187.753217 82.826 -151.1165
10261.577877 82.674 -156.5919
10335.937500 82.442 -161.8928
10410.835964 82.132 -166.9586
10486.277173 81.749 -171.7373
10562.265060 81.301 -176.1918
10638.803587 80.798 179.6965
10715.896743 80.252 175.9252
10793.548548 79.675 172.4715
10871.763050 79.081 169.2930
10950.544327 78.483 166.3320
11029.896485 77.892 163.5196
11109.823662 77.318 160.7825
11190.330024 76.769 158.0477
11271.419768 76.249 155.2483
11353.097122 75.758 152.3270
11435.366344 75.296 149.2371
11518.231722 74.856 145.9431
11601.697577 74.434 142.4183
11685.768261 74.023 138.6436
11770.448155 73.616 134.6037
11855.741674 73.208 130.2855
11941.653265 72.794 125.6752
12028.187408 72.370 120.7565
12115.348612 71.934 115.5099
12203.141422 71.482 109.9125
12291.570415 71.014 103.9386
12380.640201 70.527 97.5626
12470.355424 70.020 90.7616
12560.720760 69.493 83.5187
12651.740920 68.947 75.8269
12743.420650 68.386 67.6948
12835.764729 67.819 59.1547
12928.777972 67.256 50.2715
13022.465227 66.714 41.1511
13116.831378 66.208 31.9378
13211.881345 65.755 22.8016
13307.620084 65.366 13.9141
13404.052584 65.047 5.4247
13501.183875 64.800 -2.5551
13599.019019 64.619 -9.9553
13697.563116 64.502 -16.7432
13796.821305 64.445 -22.9184
13896.798760 64.452 -28.5101
13997.500692 64.526 -33.5773
14098.932352 64.672 -38.2083
14201.099028 64.889 -42.5161
14304.006046 65.173 -46.6292
14407.658770 65.509 -50.6764
14512.062604 65.880 -54.7720
14617.222992 66.268 -59.0031
14723.145416 66.655 -63.4236
14829.835397 67.028 -68.0564
14937.298497 67.379 -72.9000
15045.540320 67.704 -77.9393
15154.566507 68.004 -83.1552
15264.382743 68.284 -88.5339
15374.994752 68.546 -94.0720
15486.408302 68.795 -99.7782
15598.629201 69.030 -105.6719
15711.663298 69.250 -111.7786
15825.516487 69.449 -118.1225
15940.194703 69.618 -124.7207
16055.703925 69.749 -131.5791
16172.050174 69.834 -138.6904
16289.239516 69.866 -146.0364
16407.278061 69.838 -153.5896
16526.171961 69.747 -161.3171
16645.927415 69.591 -169.1812
16766.550667 69.368 -177.1420
16888.048005 69.078 174.8431
17010.425762 68.720 166.8185
17133.690320 68.298 158.8293
17257.848103 67.813 150.9199
17382.905584 67.271 143.1323
17508.869284 66.681 135.5012
17635.745768 66.052 128.0493
17763.541652 65.402 120.7784
17892.263597 64.753 113.6571
18021.918315 64.132 106.6079
18152.512564 63.571 99.4939
18284.053153 63.101 92.1165
18416.546939 62.744 84.2222
18550.000830 62.509 75.5154
18684.421783 62.385 65.6675
18819.816805 62.350 54.3214
18956.192956 62.377 41.1289
19093.557344 62.439 25.9185
19231.917131 62.514 9.0834
19371.279531 62.587 -8.0356
19511.651807 62.649 -23.4689
19653.041280 62.694 -35.6180
19795.455318 62.723 -43.7751
19938.901348 62.737 -47.8280
