* Measurement data measured by REW V5.31.3
* Source: EXCL: Headset (USB-C to 3.5mm Headphone Jack Adapter), MICROPHONE (Master Volume), 0, volume: 0.750
* Format: 256k Log Swept Sine, 1 sweep at -12.0 dBFS with no timing reference
* Dated: Apr 7, 2025 4:49:01 PM
* REW Settings:
*  C-weighting compensation: Off
*  Target level: 75.0 dB
* Note: ; 
* Measurement: Satyr 3 (Forward) R4
* Smoothing: 1/6 octave
* Frequency Step: 96 ppo
* Start Frequency: 20.0 Hz
*
* Freq(Hz) SPL(dB) Phase(degrees)
20.187378 81.032 -97.4294
20.333664 81.070 -97.5794
20.481010 81.122 -97.7795
20.629424 81.185 -98.0232
20.778913 81.257 -98.3038
20.929486 81.336 -98.6151
21.081150 81.421 -98.9518
21.233912 81.509 -99.3099
21.387782 81.601 -99.6868
21.542767 81.693 -100.0809
21.698874 81.786 -100.4912
21.856113 81.879 -100.9175
22.014492 81.970 -101.3595
22.174018 82.058 -101.8167
22.334700 82.144 -102.2881
22.496546 82.226 -102.7716
22.659566 82.304 -103.2648
22.823766 82.378 -103.7639
22.989157 82.448 -104.2650
23.155745 82.513 -104.7635
23.323542 82.574 -105.2553
23.492554 82.631 -105.7364
23.662790 82.685 -106.2041
23.834261 82.736 -106.6568
24.006973 82.785 -107.0943
24.180938 82.832 -107.5181
24.356163 82.878 -107.9306
24.532658 82.922 -108.3355
24.710431 82.964 -108.7366
24.889493 83.005 -109.1377
25.069853 83.043 -109.5419
25.251519 83.079 -109.9510
25.434502 83.112 -110.3655
25.618811 83.142 -110.7847
25.804456 83.168 -111.2063
25.991445 83.192 -111.6272
26.179790 83.213 -112.0439
26.369500 83.233 -112.4528
26.560584 83.252 -112.8512
26.753053 83.272 -113.2372
26.946917 83.294 -113.6102
27.142185 83.318 -113.9707
27.338869 83.345 -114.3205
27.536977 83.376 -114.6622
27.736522 83.411 -114.9984
27.937512 83.448 -115.3319
28.139959 83.488 -115.6653
28.343872 83.529 -116.0001
28.549264 83.571 -116.3380
28.756143 83.612 -116.6797
28.964522 83.653 -117.0261
29.174411 83.692 -117.3782
29.385821 83.730 -117.7371
29.598763 83.767 -118.1045
29.813248 83.802 -118.4821
30.029287 83.837 -118.8718
30.246891 83.871 -119.2752
30.466073 83.905 -119.6936
30.686842 83.940 -120.1271
30.909212 83.976 -120.5752
31.133193 84.015 -121.0363
31.358797 84.055 -121.5080
31.586035 84.098 -121.9873
31.814921 84.145 -122.4708
32.045465 84.194 -122.9551
32.277680 84.248 -123.4371
32.511577 84.305 -123.9139
32.747169 84.366 -124.3834
32.984469 84.431 -124.8441
33.223488 84.501 -125.2953
33.464239 84.574 -125.7369
33.706735 84.652 -126.1696
33.950987 84.733 -126.5943
34.197010 84.818 -127.0125
34.444816 84.905 -127.4250
34.694417 84.995 -127.8325
34.945827 85.086 -128.2348
35.199059 85.177 -128.6307
35.454126 85.268 -129.0184
35.711041 85.357 -129.3956
35.969818 85.444 -129.7599
36.230470 85.528 -130.1092
36.493011 85.609 -130.4427
36.757455 85.687 -130.7608
37.023814 85.762 -131.0652
37.292104 85.835 -131.3589
37.562338 85.906 -131.6456
37.834530 85.975 -131.9296
38.108695 86.042 -132.2147
38.384846 86.109 -132.5046
38.662999 86.175 -132.8021
38.943167 86.241 -133.1093
39.225365 86.308 -133.4278
39.509608 86.374 -133.7583
39.795911 86.440 -134.1012
40.084289 86.506 -134.4560
40.374756 86.571 -134.8223
40.667328 86.634 -135.1991
40.962020 86.695 -135.5856
41.258848 86.754 -135.9810
41.557827 86.811 -136.3855
41.858972 86.864 -136.7994
42.162299 86.915 -137.2236
42.467824 86.964 -137.6589
42.775564 87.011 -138.1056
43.085533 87.055 -138.5630
43.397749 87.098 -139.0291
43.712227 87.140 -139.5009
44.028983 87.181 -139.9742
44.348036 87.221 -140.4449
44.669400 87.262 -140.9097
44.993093 87.303 -141.3663
45.319131 87.345 -141.8141
45.647532 87.388 -142.2540
45.978313 87.432 -142.6876
46.311491 87.476 -143.1167
46.647083 87.521 -143.5425
46.985107 87.564 -143.9648
47.325581 87.606 -144.3824
47.668521 87.644 -144.7932
48.013947 87.680 -145.1951
48.361876 87.712 -145.5867
48.712326 87.740 -145.9681
49.065315 87.764 -146.3405
49.420863 87.784 -146.7062
49.778987 87.801 -147.0682
50.139706 87.814 -147.4293
50.503039 87.826 -147.7918
50.869005 87.835 -148.1576
51.237623 87.842 -148.5285
51.608912 87.849 -148.9065
51.982891 87.855 -149.2938
52.359580 87.862 -149.6933
52.739000 87.869 -150.1075
53.121168 87.876 -150.5385
53.506106 87.884 -150.9874
53.893833 87.893 -151.4537
54.284370 87.904 -151.9359
54.677737 87.915 -152.4320
55.073955 87.928 -152.9402
55.473043 87.943 -153.4599
55.875024 87.961 -153.9917
56.279917 87.981 -154.5371
56.687745 88.006 -155.0972
57.098527 88.034 -155.6713
57.512287 88.066 -156.2561
57.929045 88.101 -156.8449
58.348822 88.137 -157.4281
58.771642 88.171 -157.9935
59.197525 88.200 -158.5273
59.626495 88.220 -159.0157
60.058573 88.231 -159.4477
60.493782 88.231 -159.8185
60.932145 88.222 -160.1315
61.373685 88.207 -160.3984
61.818424 88.190 -160.6359
62.266386 88.173 -160.8617
62.717593 88.158 -161.0903
63.172071 88.149 -161.3310
63.629842 88.144 -161.5879
64.090930 88.145 -161.8619
64.555359 88.151 -162.1521
65.023154 88.162 -162.4568
65.494339 88.175 -162.7740
65.968938 88.192 -163.1019
66.446976 88.210 -163.4384
66.928478 88.230 -163.7813
67.413469 88.251 -164.1285
67.901975 88.272 -164.4783
68.394021 88.294 -164.8294
68.889632 88.314 -165.1814
69.388835 88.333 -165.5343
69.891655 88.351 -165.8889
70.398118 88.367 -166.2455
70.908252 88.380 -166.6045
71.422083 88.390 -166.9655
71.939636 88.398 -167.3278
72.460941 88.402 -167.6902
72.986023 88.403 -168.0514
73.514909 88.400 -168.4104
74.047629 88.395 -168.7662
74.584208 88.386 -169.1181
75.124676 88.375 -169.4658
75.669061 88.361 -169.8091
76.217390 88.345 -170.1481
76.769692 88.327 -170.4832
77.325997 88.307 -170.8145
77.886333 88.285 -171.1419
78.450730 88.263 -171.4651
79.019216 88.239 -171.7837
79.591822 88.214 -172.0972
80.168577 88.188 -172.4051
80.749512 88.162 -172.7071
81.334656 88.135 -173.0031
81.924040 88.107 -173.2933
82.517696 88.079 -173.5779
83.115653 88.051 -173.8575
83.717943 88.022 -174.1328
84.324598 87.993 -174.4050
84.935649 87.964 -174.6752
85.551128 87.935 -174.9444
86.171066 87.905 -175.2130
86.795497 87.876 -175.4813
87.424453 87.847 -175.7487
88.057967 87.817 -176.0144
88.696071 87.787 -176.2775
89.338800 87.757 -176.5369
89.986185 87.726 -176.7918
90.638262 87.695 -177.0417
91.295065 87.664 -177.2864
91.956626 87.633 -177.5263
92.622982 87.601 -177.7620
93.294166 87.570 -177.9945
93.970214 87.538 -178.2249
94.651161 87.507 -178.4542
95.337042 87.475 -178.6832
96.027894 87.443 -178.9121
96.723752 87.410 -179.1410
97.424652 87.378 -179.3695
98.130631 87.346 -179.5965
98.841726 87.313 -179.8209
99.557974 87.281 179.9586
100.279412 87.249 179.7433
101.006078 87.217 179.5341
101.738010 87.187 179.3314
102.475245 87.158 179.1350
103.217823 87.129 178.9444
103.965782 87.103 178.7586
104.719161 87.078 178.5768
105.477999 87.054 178.3981
106.242336 87.033 178.2220
107.012212 87.013 178.0481
107.787666 86.994 177.8762
108.568740 86.977 177.7061
109.355474 86.961 177.5380
110.147909 86.946 177.3718
110.946086 86.932 177.2078
111.750047 86.919 177.0459
112.559834 86.906 176.8861
113.375489 86.894 176.7282
114.197055 86.882 176.5721
115.024574 86.869 176.4176
115.858089 86.856 176.2643
116.697645 86.843 176.1120
117.543284 86.829 175.9608
118.395051 86.815 175.8106
119.252990 86.799 175.6615
120.117147 86.783 175.5135
120.987565 86.766 175.3665
121.864291 86.748 175.2207
122.747370 86.730 175.0762
123.636848 86.710 174.9333
124.532771 86.690 174.7924
125.435187 86.669 174.6537
126.344142 86.648 174.5180
127.259684 86.626 174.3859
128.181860 86.604 174.2582
129.110718 86.581 174.1357
130.046308 86.557 174.0186
130.988677 86.532 173.9069
131.937875 86.505 173.8004
132.893951 86.478 173.6985
133.856956 86.448 173.6010
134.826938 86.418 173.5079
135.803950 86.386 173.4193
136.788041 86.353 173.3354
137.779264 86.318 173.2567
138.777669 86.282 173.1835
139.783309 86.245 173.1162
140.796237 86.207 173.0554
141.816504 86.167 173.0015
142.844165 86.126 172.9550
143.879273 86.084 172.9161
144.921881 86.041 172.8851
145.972045 85.997 172.8623
147.029819 85.953 172.8478
148.095257 85.907 172.8419
149.168417 85.860 172.8452
150.249353 85.813 172.8578
151.338121 85.765 172.8807
152.434780 85.717 172.9144
153.539385 85.669 172.9597
154.651995 85.621 173.0173
155.772667 85.573 173.0876
156.901460 85.525 173.1707
158.038432 85.479 173.2668
159.183644 85.433 173.3756
160.337154 85.389 173.4968
161.499023 85.345 173.6299
162.669312 85.304 173.7741
163.848081 85.264 173.9286
165.035392 85.227 174.0926
166.231306 85.192 174.2646
167.435887 85.160 174.4433
168.649196 85.130 174.6272
169.871298 85.104 174.8148
171.102255 85.080 175.0043
172.342133 85.060 175.1942
173.590995 85.043 175.3830
174.848907 85.028 175.5692
176.115934 85.017 175.7517
177.392143 85.009 175.9303
178.677599 85.005 176.1055
179.972371 85.003 176.2781
181.276525 85.004 176.4484
182.590129 85.008 176.6153
183.913252 85.013 176.7767
185.245964 85.020 176.9298
186.588332 85.028 177.0718
187.940428 85.036 177.2004
189.302322 85.044 177.3135
190.674085 85.053 177.4099
192.055788 85.061 177.4884
193.447503 85.070 177.5488
194.849303 85.079 177.5906
196.261262 85.088 177.6142
197.683452 85.096 177.6202
199.115948 85.104 177.6096
200.558824 85.111 177.5838
202.012156 85.117 177.5450
203.476019 85.121 177.4957
204.950490 85.124 177.4384
206.435646 85.125 177.3755
207.931564 85.124 177.3087
209.438322 85.122 177.2389
210.955998 85.118 177.1666
212.484672 85.114 177.0924
214.024424 85.110 177.0173
215.575333 85.105 176.9426
217.137481 85.101 176.8695
218.710948 85.097 176.7986
220.295818 85.093 176.7300
221.892172 85.090 176.6633
223.500094 85.087 176.5976
225.119668 85.084 176.5319
226.750978 85.081 176.4655
228.394109 85.078 176.3976
230.049147 85.076 176.3276
231.716178 85.073 176.2548
233.395289 85.072 176.1790
235.086567 85.070 176.1002
236.790102 85.070 176.0189
238.505980 85.071 175.9362
240.234293 85.073 175.8538
241.975130 85.075 175.7730
243.728581 85.077 175.6955
245.494739 85.080 175.6220
247.273695 85.083 175.5533
249.065542 85.085 175.4896
250.870374 85.086 175.4308
252.688284 85.086 175.3769
254.519367 85.086 175.3277
256.363720 85.085 175.2830
258.221437 85.084 175.2429
260.092616 85.082 175.2071
261.977354 85.081 175.1752
263.875750 85.081 175.1467
265.787903 85.082 175.1212
267.713911 85.084 175.0982
269.653877 85.088 175.0774
271.607900 85.093 175.0582
273.576083 85.098 175.0401
275.558528 85.104 175.0228
277.555338 85.111 175.0062
279.566619 85.118 174.9905
281.592474 85.125 174.9763
283.633009 85.131 174.9638
285.688331 85.138 174.9529
287.758546 85.144 174.9432
289.843763 85.149 174.9340
291.944090 85.154 174.9248
294.059638 85.159 174.9150
296.190515 85.163 174.9042
298.336833 85.168 174.8926
300.498705 85.172 174.8800
302.676243 85.177 174.8667
304.869559 85.182 174.8528
307.078770 85.187 174.8386
309.303989 85.193 174.8242
311.545334 85.199 174.8100
313.802919 85.205 174.7960
316.076865 85.212 174.7826
318.367288 85.219 174.7698
320.674309 85.226 174.7580
322.998047 85.233 174.7469
325.338624 85.239 174.7368
327.696162 85.245 174.7276
330.070783 85.250 174.7191
332.462612 85.255 174.7117
334.871773 85.259 174.7056
337.298392 85.262 174.7016
339.742595 85.264 174.7005
342.204510 85.266 174.7031
344.684265 85.267 174.7094
347.181989 85.268 174.7191
349.697813 85.267 174.7314
352.231868 85.266 174.7456
354.784285 85.263 174.7607
357.355198 85.259 174.7763
359.944741 85.255 174.7922
362.553049 85.249 174.8085
365.180258 85.242 174.8253
367.826505 85.234 174.8427
370.491927 85.226 174.8606
373.176665 85.218 174.8785
375.880856 85.209 174.8960
378.604644 85.202 174.9124
381.348169 85.194 174.9269
384.111575 85.188 174.9388
386.895006 85.182 174.9475
389.698607 85.176 174.9522
392.522524 85.170 174.9523
395.366904 85.164 174.9474
398.231895 85.157 174.9372
401.117648 85.149 174.9218
404.024312 85.140 174.9009
406.952038 85.129 174.8750
409.900981 85.115 174.8441
412.871292 85.098 174.8093
415.863128 85.079 174.7723
418.876643 85.055 174.7359
421.911996 85.028 174.7039
424.969344 84.997 174.6810
428.048847 84.963 174.6722
431.150666 84.925 174.6823
434.274961 84.886 174.7144
437.421897 84.845 174.7693
440.591636 84.806 174.8443
443.784345 84.767 174.9341
447.000189 84.730 175.0321
450.239337 84.696 175.1316
453.501956 84.663 175.2275
456.788219 84.632 175.3164
460.098294 84.602 175.3968
463.432356 84.573 175.4686
466.790578 84.544 175.5327
470.173135 84.516 175.5906
473.580203 84.488 175.6442
477.011961 84.461 175.6948
480.468586 84.433 175.7438
483.950259 84.407 175.7923
487.457163 84.380 175.8412
490.989478 84.355 175.8911
494.547390 84.330 175.9430
498.131084 84.306 175.9975
501.740748 84.284 176.0551
505.376568 84.263 176.1157
509.038735 84.243 176.1791
512.727439 84.226 176.2443
516.442874 84.210 176.3105
520.185232 84.197 176.3767
523.954708 84.186 176.4421
527.751500 84.178 176.5066
531.575805 84.173 176.5704
535.427822 84.170 176.6343
539.307753 84.170 176.6988
543.215800 84.174 176.7641
547.152165 84.179 176.8299
551.117055 84.188 176.8956
555.110677 84.199 176.9603
559.133237 84.212 177.0235
563.184947 84.227 177.0847
567.266018 84.244 177.1436
571.376661 84.262 177.2000
575.517092 84.281 177.2540
579.687526 84.301 177.3056
583.888181 84.321 177.3547
588.119275 84.341 177.4010
592.381030 84.361 177.4442
596.673667 84.380 177.4839
600.997410 84.399 177.5201
605.352485 84.416 177.5530
609.739119 84.433 177.5832
614.157540 84.449 177.6116
618.607979 84.464 177.6387
623.090667 84.478 177.6652
627.605839 84.491 177.6911
632.153730 84.503 177.7163
636.734576 84.514 177.7403
641.348617 84.525 177.7618
645.996094 84.535 177.7796
650.677248 84.545 177.7922
655.392323 84.554 177.7983
660.141566 84.562 177.7974
664.925224 84.568 177.7892
669.743546 84.573 177.7745
674.596784 84.576 177.7552
679.485191 84.577 177.7334
684.409020 84.577 177.7119
689.368530 84.574 177.6934
694.363979 84.570 177.6795
699.395626 84.565 177.6707
704.463736 84.559 177.6658
709.568570 84.553 177.6622
714.710396 84.547 177.6570
719.889483 84.541 177.6472
725.106099 84.534 177.6304
730.360516 84.526 177.6049
735.653010 84.517 177.5698
740.983855 84.506 177.5248
746.353329 84.494 177.4703
751.761713 84.480 177.4070
757.209288 84.464 177.3362
762.696339 84.445 177.2596
768.223151 84.425 177.1790
773.790013 84.402 177.0966
779.397214 84.377 177.0145
785.045047 84.350 176.9340
790.733808 84.322 176.8561
796.463791 84.293 176.7815
802.235296 84.262 176.7100
808.048623 84.232 176.6412
813.904077 84.201 176.5745
819.801961 84.170 176.5089
825.742584 84.140 176.4433
831.726255 84.111 176.3763
837.753287 84.083 176.3063
843.823992 84.056 176.2320
849.938689 84.030 176.1520
856.097695 84.005 176.0653
862.301332 83.981 175.9714
868.549922 83.957 175.8701
874.843793 83.934 175.7620
881.183272 83.911 175.6481
887.568689 83.887 175.5297
894.000378 83.864 175.4083
900.478673 83.840 175.2852
907.003913 83.817 175.1614
913.576437 83.793 175.0380
920.196588 83.770 174.9152
926.864712 83.747 174.7936
933.581156 83.725 174.6732
940.346270 83.704 174.5543
947.160407 83.684 174.4371
954.023921 83.665 174.3217
960.937172 83.648 174.2084
967.900519 83.633 174.0970
974.914325 83.620 173.9871
981.978956 83.609 173.8777
989.094780 83.600 173.7680
996.262169 83.594 173.6565
1003.481495 83.590 173.5418
1010.753136 83.587 173.4229
1018.077470 83.587 173.2989
1025.454879 83.587 173.1697
1032.885748 83.589 173.0354
1040.370463 83.592 172.8964
1047.909417 83.594 172.7534
1055.503000 83.597 172.6072
1063.151610 83.599 172.4588
1070.855645 83.601 172.3096
1078.615506 83.601 172.1613
1086.431599 83.601 172.0159
1094.304330 83.598 171.8754
1102.234110 83.594 171.7420
1110.221353 83.589 171.6174
1118.266475 83.581 171.5032
1126.369895 83.573 171.4008
1134.532035 83.562 171.3112
1142.753322 83.551 171.2352
1151.034184 83.538 171.1732
1159.375052 83.525 171.1252
1167.776361 83.511 171.0909
1176.238550 83.497 171.0694
1184.762060 83.483 171.0600
1193.347334 83.469 171.0622
1201.994821 83.454 171.0753
1210.704971 83.440 171.0991
1219.478238 83.426 171.1332
1228.315080 83.412 171.1774
1237.215957 83.399 171.2316
1246.181334 83.386 171.2957
1255.211678 83.374 171.3695
1264.307459 83.362 171.4528
1273.469152 83.351 171.5458
1282.697235 83.341 171.6487
1291.992188 83.331 171.7620
1301.354495 83.323 171.8853
1310.784647 83.315 172.0181
1320.283132 83.308 172.1591
1329.850448 83.303 172.3076
1339.487093 83.298 172.4627
1349.193569 83.295 172.6245
1358.970381 83.293 172.7928
1368.818041 83.292 172.9679
1378.737061 83.292 173.1498
1388.727958 83.295 173.3381
1398.791253 83.300 173.5316
1408.927471 83.307 173.7285
1419.137140 83.318 173.9261
1429.420793 83.330 174.1223
1439.778965 83.346 174.3147
1450.212197 83.363 174.5024
1460.721033 83.383 174.6848
1471.306019 83.403 174.8624
1481.967709 83.424 175.0372
1492.706658 83.446 175.2115
1503.523426 83.467 175.3887
1514.418576 83.487 175.5716
1525.392678 83.507 175.7631
1536.446302 83.526 175.9656
1547.580025 83.543 176.1812
1558.794428 83.559 176.4113
1570.090095 83.573 176.6567
1581.467615 83.585 176.9178
1592.927581 83.596 177.1948
1604.470591 83.604 177.4879
1616.097246 83.611 177.7969
1627.808153 83.616 178.1214
1639.603922 83.620 178.4604
1651.485168 83.623 178.8126
1663.452510 83.624 179.1759
1675.506573 83.626 179.5482
1687.647984 83.627 179.9272
1699.877377 83.629 -179.6887
1712.195390 83.631 -179.3009
1724.602663 83.633 -178.9103
1737.099845 83.636 -178.5179
1749.687587 83.641 -178.1253
1762.366544 83.646 -177.7344
1775.137379 83.654 -177.3483
1788.000756 83.662 -176.9703
1800.957346 83.672 -176.6033
1814.007826 83.683 -176.2502
1827.152874 83.694 -175.9127
1840.393177 83.705 -175.5916
1853.729425 83.716 -175.2867
1867.162312 83.724 -174.9966
1880.692540 83.731 -174.7193
1894.320813 83.736 -174.4521
1908.047843 83.739 -174.1925
1921.874344 83.740 -173.9387
1935.801038 83.739 -173.6902
1949.828650 83.737 -173.4481
1963.957912 83.734 -173.2144
1978.189561 83.730 -172.9927
1992.524338 83.725 -172.7866
2006.962991 83.720 -172.5995
2021.506272 83.713 -172.4339
2036.154940 83.704 -172.2907
2050.909758 83.693 -172.1695
2065.771495 83.680 -172.0686
2080.740927 83.665 -171.9855
2095.818833 83.648 -171.9176
2111.006001 83.628 -171.8626
2126.303220 83.607 -171.8186
2141.711290 83.585 -171.7849
2157.231013 83.563 -171.7615
2172.863198 83.539 -171.7489
2188.608660 83.516 -171.7481
2204.468221 83.493 -171.7601
2220.442706 83.470 -171.7858
2236.532950 83.448 -171.8261
2252.739789 83.425 -171.8819
2269.064070 83.403 -171.9535
2285.506644 83.381 -172.0407
2302.068367 83.359 -172.1429
2318.750104 83.336 -172.2588
2335.552723 83.314 -172.3878
2352.477101 83.291 -172.5294
2369.524119 83.270 -172.6846
2386.694668 83.248 -172.8552
2403.989641 83.227 -173.0433
2421.409941 83.207 -173.2513
2438.956476 83.186 -173.4803
2456.630160 83.164 -173.7299
2474.431915 83.140 -173.9980
2492.362668 83.115 -174.2807
2510.423356 83.087 -174.5730
2528.614918 83.055 -174.8687
2546.938304 83.021 -175.1614
2565.394469 82.984 -175.4446
2583.984375 82.944 -175.7124
2602.708991 82.902 -175.9597
2621.569293 82.859 -176.1830
2640.566265 82.816 -176.3798
2659.700897 82.772 -176.5494
2678.974186 82.729 -176.6923
2698.387137 82.686 -176.8094
2717.940763 82.645 -176.9018
2737.636082 82.604 -176.9701
2757.474121 82.565 -177.0142
2777.455915 82.525 -177.0330
2797.582506 82.486 -177.0245
2817.854942 82.448 -176.9863
2838.274281 82.409 -176.9157
2858.841586 82.370 -176.8097
2879.557931 82.331 -176.6650
2900.424394 82.292 -176.4782
2921.442065 82.253 -176.2455
2942.612039 82.215 -175.9628
2963.935418 82.177 -175.6265
2985.413316 82.140 -175.2336
3007.046852 82.106 -174.7824
3028.837153 82.075 -174.2737
3050.785356 82.047 -173.7104
3072.892604 82.024 -173.0982
3095.160050 82.007 -172.4448
3117.588856 81.995 -171.7595
3140.180190 81.990 -171.0530
3162.935230 81.990 -170.3364
3185.855163 81.995 -169.6212
3208.941182 82.006 -168.9185
3232.194493 82.021 -168.2390
3255.616307 82.039 -167.5919
3279.207844 82.060 -166.9848
3302.970336 82.081 -166.4231
3326.905021 82.103 -165.9097
3351.013146 82.123 -165.4449
3375.295969 82.142 -165.0263
3399.754755 82.159 -164.6504
3424.390779 82.173 -164.3134
3449.205326 82.187 -164.0131
3474.199690 82.201 -163.7500
3499.375173 82.215 -163.5283
3524.733088 82.232 -163.3552
3550.274757 82.250 -163.2399
3576.001511 82.270 -163.1921
3601.914692 82.292 -163.2199
3628.015651 82.313 -163.3288
3654.305748 82.333 -163.5203
3680.786354 82.349 -163.7921
3707.458849 82.360 -164.1377
3734.324624 82.364 -164.5474
3761.385080 82.360 -165.0090
3788.641627 82.347 -165.5089
3816.095686 82.325 -166.0329
3843.748688 82.293 -166.5670
3871.602076 82.253 -167.0979
3899.657300 82.205 -167.6135
3927.915825 82.149 -168.1031
3956.379122 82.087 -168.5577
3985.048676 82.019 -168.9702
4013.925981 81.948 -169.3352
4043.012544 81.873 -169.6493
4072.309879 81.797 -169.9105
4101.819515 81.719 -170.1183
4131.542990 81.640 -170.2730
4161.481854 81.560 -170.3752
4191.637667 81.479 -170.4259
4222.012001 81.398 -170.4253
4252.606441 81.315 -170.3731
4283.422580 81.231 -170.2680
4314.462026 81.144 -170.1083
4345.726396 81.056 -169.8918
4377.217321 80.965 -169.6163
4408.936442 80.872 -169.2797
4440.885413 80.777 -168.8800
4473.065899 80.680 -168.4152
4505.479579 80.583 -167.8835
4538.128141 80.484 -167.2833
4571.013288 80.386 -166.6129
4604.136735 80.290 -165.8710
4637.500207 80.196 -165.0566
4671.105446 80.106 -164.1692
4704.954201 80.022 -163.2093
4739.048239 79.945 -162.1784
4773.389336 79.878 -161.0793
4807.979283 79.823 -159.9162
4842.819883 79.782 -158.6956
4877.912952 79.758 -157.4257
4913.260320 79.752 -156.1171
4948.863830 79.768 -154.7822
4984.725337 79.806 -153.4353
5020.846712 79.868 -152.0919
5057.229836 79.955 -150.7688
5093.876609 80.068 -149.4832
5130.788938 80.207 -148.2522
5167.968750 80.372 -147.0926
5205.417982 80.561 -146.0206
5243.138586 80.773 -145.0517
5281.132530 81.006 -144.2004
5319.401793 81.259 -143.4802
5357.948371 81.529 -142.9038
5396.774274 81.813 -142.4822
5435.881525 82.107 -142.2247
5475.272163 82.410 -142.1382
5514.948243 82.716 -142.2272
5554.911831 83.023 -142.4937
5595.165012 83.327 -142.9371
5635.709884 83.625 -143.5540
5676.548561 83.913 -144.3386
5717.683172 84.187 -145.2823
5759.115861 84.446 -146.3738
5800.848789 84.685 -147.5991
5842.884130 84.902 -148.9414
5885.224077 85.095 -150.3811
5927.870837 85.263 -151.8965
5970.826633 85.403 -153.4637
6014.093704 85.516 -155.0571
6057.674306 85.602 -156.6502
6101.570711 85.661 -158.2166
6145.785208 85.695 -159.7304
6190.320101 85.708 -161.1679
6235.177712 85.701 -162.5080
6280.360380 85.681 -163.7339
6325.870460 85.651 -164.8334
6371.710325 85.616 -165.8006
6417.882365 85.583 -166.6362
6464.388986 85.558 -167.3489
6511.232613 85.547 -167.9552
6558.415689 85.555 -168.4809
6605.940673 85.587 -168.9600
6653.810042 85.646 -169.4341
6702.026292 85.737 -169.9507
6750.591937 85.857 -170.5601
6799.509509 86.007 -171.3120
6848.781558 86.181 -172.2522
6898.410653 86.376 -173.4196
6948.399380 86.586 -174.8443
6998.750346 86.804 -176.5471
7049.466176 87.025 -178.5403
7100.549514 87.242 179.1708
7152.003023 87.452 176.5855
7203.829385 87.649 173.7058
7256.031302 87.828 170.5353
7308.611496 87.987 167.0779
7361.572708 88.120 163.3386
7414.917698 88.222 159.3234
7468.649249 88.290 155.0403
7522.770160 88.317 150.5007
7577.283253 88.298 145.7196
7632.191371 88.229 140.7165
7687.497376 88.103 135.5147
7743.204151 87.919 130.1404
7799.314600 87.672 124.6195
7855.831649 87.363 118.9752
7912.758244 86.991 113.2236
7970.097352 86.558 107.3702
8027.851962 86.069 101.4055
8086.025087 85.527 95.3014
8144.619758 84.940 89.0067
8203.639030 84.314 82.4424
8263.085980 83.658 75.4954
8322.963708 82.985 68.0117
8383.275334 82.307 59.7903
8444.024002 81.642 50.5851
8505.212881 81.007 40.1266
8566.845160 80.425 28.1929
8628.924051 79.918 14.7534
8691.452792 79.507 0.1544
8754.434642 79.207 -14.8291
8817.872884 79.028 -29.2489
8881.770826 78.968 -42.3962
8946.131799 79.021 -53.9994
9010.959157 79.171 -64.1294
9076.256282 79.400 -73.0167
9142.026576 79.689 -80.9235
9208.273470 80.019 -88.0864
9275.000415 80.375 -94.7020
9342.210891 80.742 -100.9268
9409.908403 81.110 -106.8835
9478.096478 81.466 -112.6681
9546.778672 81.802 -118.3536
9615.958566 82.110 -123.9947
9685.639765 82.383 -129.6298
9755.825904 82.614 -135.2830
9826.520640 82.795 -140.9656
9897.727659 82.922 -146.6764
9969.450674 82.987 -152.4025
10041.693423 82.986 -158.1194
10114.459673 82.915 -163.7908
10187.753217 82.768 -169.3704
10261.577877 82.545 -174.8036
10335.937500 82.245 179.9675
10410.835964 81.871 174.9984
10486.277173 81.429 170.3360
10562.265060 80.925 166.0130
10638.803587 80.369 162.0446
10715.896743 79.773 158.4266
10793.548548 79.147 155.1350
10871.763050 78.505 152.1276
10950.544327 77.857 149.3469
11029.896485 77.216 146.7249
11109.823662 76.590 144.1892
11190.330024 75.988 141.6686
11271.419768 75.411 139.0989
11353.097122 74.863 136.4257
11435.366344 74.340 133.6065
11518.231722 73.839 130.6104
11601.697577 73.355 127.4155
11685.768261 72.880 124.0072
11770.448155 72.411 120.3741
11855.741674 71.941 116.5046
11941.653265 71.467 112.3838
12028.187408 70.988 107.9905
12115.348612 70.502 103.2959
12203.141422 70.008 98.2628
12291.570415 69.505 92.8474
12380.640201 68.991 87.0013
12470.355424 68.465 80.6733
12560.720760 67.926 73.8095
12651.740920 67.376 66.3507
12743.420650 66.824 58.2321
12835.764729 66.285 49.3900
12928.777972 65.778 39.7847
13022.465227 65.329 29.4406
13116.831378 64.965 18.4880
13211.881345 64.701 7.1779
13307.620084 64.543 -4.1611
13404.052584 64.479 -15.2070
13501.183875 64.484 -25.7205
13599.019019 64.530 -35.5691
13697.563116 64.588 -44.7064
13796.821305 64.638 -53.1346
13896.798760 64.669 -60.8771
13997.500692 64.679 -67.9653
14098.932352 64.677 -74.4399
14201.099028 64.678 -80.3564
14304.006046 64.701 -85.7902
14407.658770 64.764 -90.8381
14512.062604 64.881 -95.6133
14617.222992 65.056 -100.2351
14723.145416 65.286 -104.8165
14829.835397 65.562 -109.4545
14937.298497 65.872 -114.2237
15045.540320 66.202 -119.1762
15154.566507 66.541 -124.3450
15264.382743 66.881 -129.7488
15374.994752 67.213 -135.3994
15486.408302 67.535 -141.3066
15598.629201 67.840 -147.4817
15711.663298 68.123 -153.9380
15825.516487 68.378 -160.6881
15940.194703 68.596 -167.7391
16055.703925 68.769 -175.0894
16172.050174 68.888 177.2749
16289.239516 68.946 169.3783
16407.278061 68.939 161.2550
16526.171961 68.861 152.9467
16645.927415 68.712 144.5006
16766.550667 68.491 135.9673
16888.048005 68.198 127.4005
17010.425762 67.836 118.8577
17133.690320 67.409 110.3994
17257.848103 66.921 102.0886
17382.905584 66.383 93.9900
17508.869284 65.805 86.1626
17635.745768 65.206 78.6499
17763.541652 64.609 71.4624
17892.263597 64.043 64.5525
18021.918315 63.540 57.7917
18152.512564 63.130 50.9575
18284.053153 62.833 43.7488
18416.546939 62.652 35.8213
18550.000830 62.573 26.8198
18684.421783 62.570 16.3826
18819.816805 62.614 4.1156
18956.192956 62.678 -10.4027
19093.557344 62.745 -27.4292
19231.917131 62.800 -46.4958
19371.279531 62.839 -65.8213
19511.651807 62.861 -82.8877
19653.041280 62.869 -95.9557
19795.455318 62.869 -104.5308
19938.901348 62.867 -108.7336
