* Measurement data measured by REW V5.31.3
* Source: EXCL: Headset (USB-C to 3.5mm Headphone Jack Adapter), MICROPHONE (Master Volume), 0, volume: 0.260
* Format: 256k Log Swept Sine, 1 sweep at -12.0 dBFS with no timing reference
* Dated: Feb 14, 2025 8:25:14 PM
* REW Settings:
*  C-weighting compensation: Off
*  Target level: 75.0 dB
* Note: ; 
* Measurement: Satyr 3 L8
* Smoothing: 1/6 octave
* Frequency Step: 96 ppo
* Start Frequency: 20.0 Hz
*
* Freq(Hz) SPL(dB) Phase(degrees)
20.141602 91.303 -24.4737
20.287556 91.323 -24.7112
20.434568 91.348 -25.0287
20.582645 91.375 -25.4168
20.731796 91.402 -25.8652
20.882027 91.425 -26.3634
21.033346 91.443 -26.9016
21.185763 91.454 -27.4707
21.339284 91.458 -28.0624
21.493917 91.454 -28.6698
21.649671 91.443 -29.2867
21.806553 91.425 -29.9082
21.964572 91.404 -30.5303
22.123737 91.379 -31.1503
22.284054 91.353 -31.7661
22.445534 91.329 -32.3769
22.608183 91.306 -32.9826
22.772012 91.289 -33.5840
22.937027 91.278 -34.1823
23.103238 91.274 -34.7794
23.270654 91.280 -35.3772
23.439282 91.295 -35.9777
23.609133 91.322 -36.5828
23.780215 91.360 -37.1938
23.952536 91.410 -37.8118
24.126106 91.471 -38.4372
24.300934 91.544 -39.0697
24.477028 91.628 -39.7087
24.654399 91.721 -40.3532
24.833055 91.821 -41.0018
25.013005 91.928 -41.6531
25.194260 92.040 -42.3057
25.376828 92.153 -42.9583
25.560719 92.266 -43.6100
25.745942 92.379 -44.2604
25.932508 92.488 -44.9092
26.120426 92.592 -45.5566
26.309705 92.691 -46.2034
26.500356 92.784 -46.8504
26.692388 92.870 -47.4987
26.885812 92.949 -48.1493
27.080638 93.022 -48.8034
27.276876 93.089 -49.4621
27.474535 93.151 -50.1260
27.673627 93.210 -50.7959
27.874161 93.268 -51.4718
28.076149 93.327 -52.1538
28.279600 93.391 -52.8416
28.484526 93.462 -53.5345
28.690937 93.543 -54.2317
28.898843 93.638 -54.9321
29.108256 93.748 -55.6348
29.319186 93.875 -56.3385
29.531645 94.019 -57.0422
29.745644 94.179 -57.7447
29.961193 94.352 -58.4450
30.178304 94.534 -59.1422
30.396989 94.723 -59.8352
30.617258 94.912 -60.5233
30.839123 95.096 -61.2059
31.062596 95.271 -61.8823
31.287688 95.430 -62.5522
31.514412 95.570 -63.2154
31.742778 95.688 -63.8718
31.972800 95.779 -64.5216
32.204488 95.842 -65.1652
32.437855 95.877 -65.8029
32.672913 95.882 -66.4353
32.909674 95.858 -67.0628
33.148151 95.808 -67.6858
33.388356 95.734 -68.3046
33.630302 95.639 -68.9193
33.874001 95.526 -69.5299
34.119466 95.401 -70.1365
34.366710 95.267 -70.7388
34.615745 95.129 -71.3367
34.866585 94.992 -71.9301
35.119243 94.860 -72.5189
35.373731 94.736 -73.1032
35.630064 94.624 -73.6831
35.888254 94.528 -74.2589
36.148315 94.450 -74.8312
36.410261 94.392 -75.4009
36.674104 94.357 -75.9689
36.939860 94.344 -76.5366
37.207542 94.355 -77.1053
37.477163 94.391 -77.6765
37.748738 94.450 -78.2514
38.022281 94.533 -78.8313
38.297806 94.639 -79.4168
38.575327 94.767 -80.0087
38.854860 94.915 -80.6071
39.136419 95.083 -81.2121
39.420017 95.269 -81.8235
39.705671 95.471 -82.4413
39.993395 95.689 -83.0652
40.283203 95.921 -83.6951
40.575112 96.166 -84.3307
40.869136 96.421 -84.9718
41.165290 96.686 -85.6184
41.463591 96.959 -86.2704
41.764053 97.237 -86.9277
42.066693 97.519 -87.5905
42.371525 97.803 -88.2589
42.678567 98.086 -88.9333
42.987834 98.365 -89.6138
43.299341 98.639 -90.3004
43.613106 98.905 -90.9932
43.929145 99.161 -91.6917
44.247473 99.405 -92.3954
44.568109 99.636 -93.1037
44.891068 99.851 -93.8158
45.216367 100.051 -94.5310
45.544023 100.233 -95.2490
45.874054 100.398 -95.9696
46.206476 100.545 -96.6928
46.541307 100.675 -97.4190
46.878565 100.786 -98.1482
47.218266 100.880 -98.8807
47.560429 100.958 -99.6163
47.905072 101.020 -100.3547
48.252212 101.068 -101.0953
48.601867 101.102 -101.8373
48.954056 101.126 -102.5798
49.308798 101.139 -103.3222
49.666109 101.145 -104.0639
50.026010 101.144 -104.8046
50.388520 101.139 -105.5446
50.753656 101.131 -106.2844
51.121437 101.122 -107.0246
51.491884 101.114 -107.7660
51.865016 101.106 -108.5088
52.240851 101.101 -109.2532
52.619410 101.098 -109.9991
53.000712 101.098 -110.7463
53.384777 101.101 -111.4945
53.771625 101.105 -112.2436
54.161276 101.111 -112.9939
54.553751 101.117 -113.7453
54.949070 101.123 -114.4981
55.347254 101.128 -115.2520
55.748323 101.131 -116.0070
56.152298 101.131 -116.7628
56.559201 101.127 -117.5192
56.969052 101.119 -118.2761
57.381873 101.107 -119.0333
57.797686 101.092 -119.7907
58.216512 101.072 -120.5484
58.638373 101.049 -121.3060
59.063291 101.024 -122.0632
59.491288 100.996 -122.8200
59.922386 100.966 -123.5761
60.356608 100.936 -124.3315
60.793977 100.904 -125.0861
61.234515 100.871 -125.8397
61.678246 100.838 -126.5920
62.125192 100.805 -127.3428
62.575377 100.771 -128.0917
63.028824 100.737 -128.8385
63.485557 100.703 -129.5830
63.945599 100.670 -130.3252
64.408975 100.637 -131.0648
64.875709 100.606 -131.8015
65.345825 100.576 -132.5351
65.819348 100.548 -133.2653
66.296302 100.521 -133.9917
66.776713 100.496 -134.7140
67.260604 100.473 -135.4317
67.748002 100.452 -136.1447
68.238932 100.432 -136.8526
68.733420 100.414 -137.5551
69.231490 100.397 -138.2520
69.733170 100.382 -138.9430
70.238485 100.367 -139.6279
70.747463 100.354 -140.3066
71.260128 100.341 -140.9789
71.776508 100.329 -141.6449
72.296630 100.318 -142.3049
72.820521 100.307 -142.9591
73.348209 100.296 -143.6079
73.879720 100.286 -144.2514
74.415083 100.275 -144.8901
74.954326 100.265 -145.5240
75.497475 100.254 -146.1532
76.044561 100.242 -146.7779
76.595612 100.229 -147.3981
77.150655 100.214 -148.0137
77.709720 100.197 -148.6245
78.272837 100.177 -149.2303
78.840034 100.154 -149.8306
79.411342 100.128 -150.4249
79.986789 100.098 -151.0126
80.566406 100.064 -151.5937
81.150224 100.026 -152.1678
81.738272 99.984 -152.7347
82.330581 99.939 -153.2946
82.927182 99.892 -153.8473
83.528107 99.843 -154.3929
84.133386 99.796 -154.9315
84.743051 99.752 -155.4632
85.357134 99.713 -155.9885
85.975667 99.682 -156.5076
86.598682 99.664 -157.0211
87.226212 99.662 -157.5293
87.858289 99.678 -158.0329
88.494946 99.715 -158.5320
89.136217 99.776 -159.0269
89.782135 99.862 -159.5177
90.432733 99.971 -160.0042
91.088046 100.102 -160.4860
91.748108 100.251 -160.9628
92.412952 100.414 -161.4338
93.082615 100.585 -161.8987
93.757130 100.759 -162.3569
94.436533 100.931 -162.8080
95.120859 101.095 -163.2518
95.810144 101.248 -163.6882
96.504423 101.386 -164.1171
97.203734 101.507 -164.5387
97.908112 101.611 -164.9532
98.617595 101.697 -165.3607
99.332219 101.767 -165.7614
100.052021 101.822 -166.1556
100.777039 101.864 -166.5435
101.507311 101.895 -166.9252
102.242875 101.917 -167.3012
102.983769 101.933 -167.6715
103.730032 101.943 -168.0365
104.481702 101.949 -168.3964
105.238820 101.949 -168.7514
106.001424 101.945 -169.1018
106.769554 101.934 -169.4478
107.543250 101.915 -169.7897
108.322553 101.886 -170.1280
109.107503 101.846 -170.4628
109.898141 101.794 -170.7944
110.694508 101.729 -171.1230
111.496646 101.649 -171.4487
112.304596 101.557 -171.7714
113.118402 101.453 -172.0911
113.938104 101.337 -172.4077
114.763747 101.214 -172.7210
115.595372 101.083 -173.0311
116.433024 100.949 -173.3378
117.276746 100.812 -173.6412
118.126581 100.676 -173.9412
118.982575 100.541 -174.2379
119.844772 100.409 -174.5314
120.713217 100.279 -174.8220
121.587954 100.153 -175.1100
122.469031 100.029 -175.3958
123.356492 99.906 -175.6797
124.250384 99.783 -175.9621
125.150753 99.658 -176.2431
126.057647 99.530 -176.5227
126.971113 99.397 -176.8006
127.891198 99.258 -177.0764
128.817950 99.113 -177.3496
129.751418 98.960 -177.6198
130.691651 98.801 -177.8865
131.638696 98.636 -178.1488
132.592604 98.466 -178.4062
133.553425 98.293 -178.6576
134.521208 98.121 -178.9022
135.496004 97.951 -179.1387
136.477864 97.787 -179.3661
137.466839 97.633 -179.5831
138.462981 97.491 -179.7889
139.466340 97.365 -179.9825
140.476971 97.257 179.8370
141.494925 97.167 179.6698
142.520256 97.095 179.5162
143.553016 97.040 179.3759
144.593260 97.000 179.2482
145.641043 96.971 179.1323
146.696418 96.949 179.0269
147.759441 96.930 178.9308
148.830166 96.911 178.8432
149.908651 96.889 178.7632
150.994951 96.861 178.6907
152.089123 96.826 178.6258
153.191223 96.784 178.5691
154.301310 96.735 178.5214
155.419441 96.680 178.4841
156.545674 96.622 178.4585
157.680069 96.561 178.4461
158.822683 96.500 178.4484
159.973578 96.440 178.4664
161.132813 96.384 178.5013
162.300447 96.331 178.5536
163.476543 96.283 178.6235
164.661162 96.241 178.7109
165.854364 96.206 178.8149
167.056213 96.177 178.9342
168.266772 96.157 179.0666
169.486102 96.144 179.2092
170.714268 96.140 179.3588
171.951334 96.145 179.5114
173.197364 96.160 179.6630
174.452424 96.183 179.8093
175.716578 96.214 179.9464
176.989893 96.253 -179.9294
178.272434 96.297 -179.8210
179.564270 96.346 -179.7309
180.865467 96.397 -179.6609
182.176092 96.449 -179.6121
183.496216 96.501 -179.5851
184.825905 96.550 -179.5798
186.165229 96.596 -179.5957
187.514259 96.639 -179.6317
188.873065 96.679 -179.6867
190.241717 96.715 -179.7591
191.620287 96.747 -179.8470
193.008847 96.777 -179.9485
194.407468 96.805 179.9387
195.816225 96.831 179.8165
197.235190 96.855 179.6871
198.664438 96.877 179.5523
200.104042 96.897 179.4136
201.554078 96.915 179.2723
203.014622 96.929 179.1293
204.485750 96.940 178.9856
205.967538 96.947 178.8419
207.460064 96.950 178.6990
208.963405 96.949 178.5576
210.477640 96.943 178.4183
212.002848 96.934 178.2814
213.539108 96.920 178.1474
215.086500 96.904 178.0166
216.645105 96.885 177.8893
218.215005 96.863 177.7658
219.796281 96.839 177.6461
221.389015 96.813 177.5305
222.993292 96.783 177.4189
224.609193 96.751 177.3112
226.236804 96.714 177.2071
227.876209 96.673 177.1065
229.527494 96.626 177.0090
231.190745 96.574 176.9144
232.866048 96.517 176.8224
234.553491 96.454 176.7328
236.253163 96.387 176.6456
237.965150 96.317 176.5607
239.689544 96.243 176.4783
241.426433 96.167 176.3985
243.175909 96.090 176.3210
244.938062 96.013 176.2460
246.712984 95.937 176.1732
248.500768 95.863 176.1025
250.301507 95.791 176.0338
252.115295 95.723 175.9669
253.942226 95.659 175.9018
255.782396 95.600 175.8383
257.635901 95.545 175.7762
259.502837 95.497 175.7157
261.383301 95.455 175.6569
263.277392 95.419 175.5998
265.185209 95.389 175.5448
267.106850 95.367 175.4922
269.042417 95.350 175.4425
270.992009 95.339 175.3957
272.955729 95.334 175.3519
274.933678 95.333 175.3110
276.925961 95.336 175.2729
278.932681 95.342 175.2372
280.953942 95.352 175.2034
282.989850 95.363 175.1712
285.040511 95.378 175.1404
287.106032 95.395 175.1107
289.186521 95.416 175.0821
291.282086 95.441 175.0547
293.392836 95.471 175.0284
295.518881 95.507 175.0034
297.660333 95.549 174.9799
299.817302 95.596 174.9579
301.989902 95.648 174.9374
304.178245 95.705 174.9185
306.382446 95.763 174.9011
308.602620 95.822 174.8852
310.838882 95.879 174.8707
313.091348 95.934 174.8576
315.360137 95.983 174.8460
317.645367 96.027 174.8358
319.947156 96.063 174.8269
322.265625 96.092 174.8192
324.600895 96.111 174.8124
326.953086 96.121 174.8063
329.322323 96.121 174.8010
331.708729 96.111 174.7962
334.112427 96.090 174.7919
336.533543 96.060 174.7883
338.972204 96.019 174.7854
341.428536 95.969 174.7833
343.902668 95.911 174.7822
346.394729 95.846 174.7821
348.904848 95.775 174.7833
351.433156 95.701 174.7859
353.979786 95.626 174.7902
356.544869 95.551 174.7962
359.128540 95.481 174.8042
361.730934 95.418 174.8142
364.352185 95.365 174.8260
366.992431 95.324 174.8392
369.651810 95.298 174.8535
372.330459 95.289 174.8683
375.028519 95.298 174.8832
377.746130 95.325 174.8979
380.483434 95.370 174.9123
383.240574 95.430 174.9261
386.017693 95.504 174.9391
388.814937 95.590 174.9514
391.632450 95.683 174.9627
394.470380 95.782 174.9730
397.328875 95.885 174.9824
400.208084 95.987 174.9907
403.108157 96.089 174.9980
406.029245 96.188 175.0045
408.971500 96.284 175.0105
411.935076 96.377 175.0166
414.920127 96.466 175.0233
417.926810 96.553 175.0311
420.955280 96.637 175.0409
424.005695 96.720 175.0530
427.078215 96.803 175.0678
430.173000 96.886 175.0854
433.290211 96.970 175.1057
436.430010 97.054 175.1287
439.592562 97.138 175.1538
442.778031 97.220 175.1808
445.986583 97.300 175.2094
449.218386 97.377 175.2392
452.473607 97.447 175.2700
455.752418 97.511 175.3018
459.054987 97.566 175.3347
462.381489 97.611 175.3687
465.732096 97.647 175.4041
469.106983 97.671 175.4410
472.506325 97.686 175.4798
475.930301 97.692 175.5205
479.379088 97.688 175.5632
482.852867 97.677 175.6081
486.351817 97.659 175.6552
489.876123 97.636 175.7044
493.425968 97.609 175.7558
497.001536 97.578 175.8091
500.603014 97.544 175.8641
504.230589 97.508 175.9204
507.884452 97.469 175.9773
511.564792 97.428 176.0344
515.271802 97.385 176.0911
519.005673 97.341 176.1472
522.766602 97.296 176.2024
526.554785 97.252 176.2565
530.370418 97.210 176.3093
534.213700 97.172 176.3606
538.084833 97.140 176.4102
541.984018 97.115 176.4579
545.911457 97.100 176.5034
549.867357 97.095 176.5466
553.851922 97.099 176.5873
557.865362 97.112 176.6252
561.907884 97.133 176.6600
565.979700 97.161 176.6916
570.081022 97.192 176.7197
574.212064 97.225 176.7445
578.373042 97.257 176.7659
582.564171 97.287 176.7837
586.785671 97.313 176.7979
591.037762 97.334 176.8083
595.320665 97.349 176.8150
599.634604 97.357 176.8182
603.979804 97.358 176.8188
608.356491 97.351 176.8175
612.764893 97.339 176.8152
617.205240 97.320 176.8128
621.677763 97.298 176.8107
626.182696 97.273 176.8087
630.720274 97.247 176.8062
635.290733 97.222 176.8019
639.894312 97.200 176.7944
644.531250 97.183 176.7825
649.201789 97.172 176.7651
653.906173 97.168 176.7415
658.644647 97.172 176.7114
663.417457 97.184 176.6750
668.224854 97.202 176.6328
673.067086 97.225 176.5851
677.944408 97.253 176.5322
682.857073 97.283 176.4744
687.805336 97.314 176.4116
692.789457 97.345 176.3434
697.809695 97.373 176.2697
702.866312 97.398 176.1904
707.959571 97.418 176.1057
713.089738 97.434 176.0159
718.257080 97.445 175.9216
723.461867 97.451 175.8235
728.704370 97.452 175.7220
733.984862 97.449 175.6175
739.303619 97.444 175.5102
744.660918 97.435 175.4001
750.057038 97.425 175.2872
755.492260 97.413 175.1711
760.966869 97.401 175.0518
766.481148 97.387 174.9287
772.035387 97.372 174.8015
777.629873 97.356 174.6696
783.264900 97.336 174.5330
788.940760 97.313 174.3917
794.657750 97.286 174.2458
800.416168 97.254 174.0958
806.216313 97.215 173.9413
812.058489 97.170 173.7825
817.943000 97.119 173.6189
823.870152 97.061 173.4501
829.840255 96.997 173.2759
835.853619 96.927 173.0962
841.910559 96.852 172.9108
848.011390 96.773 172.7195
854.156430 96.692 172.5222
860.346000 96.609 172.3188
866.580422 96.525 172.1091
872.860020 96.442 171.8929
879.185124 96.361 171.6703
885.556062 96.282 171.4415
891.973166 96.208 171.2065
898.436771 96.138 170.9654
904.947215 96.075 170.7184
911.504835 96.018 170.4654
918.109975 95.968 170.2069
924.762978 95.927 169.9434
931.464192 95.894 169.6760
938.213966 95.869 169.4056
945.012651 95.853 169.1331
951.860602 95.845 168.8591
958.758176 95.844 168.5839
965.705733 95.850 168.3078
972.703635 95.862 168.0314
979.752246 95.879 167.7559
986.851935 95.900 167.4828
994.003071 95.924 167.2138
1001.206027 95.953 166.9503
1008.461179 95.985 166.6925
1015.768904 96.022 166.4394
1023.129584 96.064 166.1889
1030.543603 96.112 165.9380
1038.011347 96.166 165.6837
1045.533205 96.227 165.4239
1053.109569 96.294 165.1573
1060.740836 96.368 164.8840
1068.427401 96.447 164.6048
1076.169666 96.531 164.3209
1083.968035 96.619 164.0335
1091.822915 96.710 163.7433
1099.734713 96.801 163.4502
1107.703844 96.891 163.1539
1115.730723 96.978 162.8538
1123.815768 97.060 162.5498
1131.959400 97.135 162.2426
1140.162045 97.203 161.9334
1148.424129 97.261 161.6245
1156.746083 97.311 161.3184
1165.128342 97.353 161.0176
1173.571343 97.387 160.7242
1182.075524 97.415 160.4395
1190.641331 97.439 160.1644
1199.269209 97.459 159.8994
1207.959608 97.478 159.6449
1216.712981 97.495 159.4011
1225.529785 97.511 159.1682
1234.410479 97.526 158.9463
1243.355526 97.541 158.7358
1252.365393 97.554 158.5374
1261.440549 97.566 158.3514
1270.581467 97.575 158.1783
1279.788624 97.581 158.0181
1289.062500 97.585 157.8698
1298.403578 97.585 157.7316
1307.812346 97.582 157.6020
1317.289293 97.576 157.4792
1326.834914 97.566 157.3624
1336.449707 97.554 157.2510
1346.134173 97.538 157.1450
1355.888816 97.520 157.0441
1365.714145 97.499 156.9476
1375.610673 97.475 156.8549
1385.578915 97.447 156.7662
1395.619391 97.417 156.6827
1405.732624 97.382 156.6066
1415.919142 97.345 156.5407
1426.179476 97.304 156.4875
1436.514160 97.260 156.4494
1446.923734 97.215 156.4280
1457.408740 97.169 156.4242
1467.969724 97.125 156.4384
1478.607238 97.082 156.4701
1489.321836 97.041 156.5184
1500.114076 97.005 156.5817
1510.984521 96.972 156.6581
1521.933737 96.944 156.7459
1532.962297 96.921 156.8432
1544.070773 96.901 156.9485
1555.259747 96.885 157.0602
1566.529800 96.871 157.1769
1577.881521 96.859 157.2981
1589.315501 96.848 157.4253
1600.832336 96.836 157.5617
1612.432627 96.823 157.7119
1624.116978 96.809 157.8805
1635.886000 96.795 158.0715
1647.740304 96.780 158.2872
1659.680509 96.766 158.5282
1671.707238 96.754 158.7930
1683.821118 96.745 159.0785
1696.022780 96.739 159.3802
1708.312860 96.736 159.6932
1720.692000 96.738 160.0128
1733.160843 96.743 160.3351
1745.720041 96.751 160.6576
1758.370248 96.761 160.9787
1771.112124 96.773 161.2988
1783.946332 96.785 161.6204
1796.873543 96.798 161.9484
1809.894429 96.810 162.2880
1823.009670 96.821 162.6437
1836.219950 96.832 163.0178
1849.525956 96.844 163.4103
1862.928384 96.858 163.8200
1876.427931 96.873 164.2446
1890.025301 96.891 164.6812
1903.721204 96.912 165.1260
1917.516352 96.936 165.5742
1931.411466 96.964 166.0209
1945.407270 96.994 166.4621
1959.504493 97.027 166.8954
1973.703870 97.061 167.3187
1988.006142 97.096 167.7291
2002.412054 97.130 168.1228
2016.922357 97.163 168.4956
2031.537808 97.192 168.8438
2046.259169 97.217 169.1647
2061.087206 97.237 169.4568
2076.022694 97.251 169.7191
2091.066410 97.259 169.9521
2106.219139 97.260 170.1566
2121.481671 97.256 170.3340
2136.854802 97.247 170.4853
2152.339333 97.234 170.6104
2167.936071 97.218 170.7081
2183.645829 97.201 170.7766
2199.469427 97.184 170.8140
2215.407689 97.167 170.8194
2231.461446 97.150 170.7930
2247.631536 97.135 170.7365
2263.918800 97.119 170.6527
2280.324089 97.104 170.5455
2296.848258 97.088 170.4197
2313.492167 97.073 170.2797
2330.256685 97.057 170.1297
2347.142685 97.041 169.9725
2364.151049 97.024 169.8098
2381.282662 97.008 169.6420
2398.538418 96.991 169.4684
2415.919216 96.975 169.2875
2433.425962 96.959 169.0975
2451.059570 96.944 168.8964
2468.820958 96.928 168.6827
2486.711052 96.913 168.4554
2504.730786 96.898 168.2137
2522.881098 96.884 167.9570
2541.162934 96.869 167.6851
2559.577248 96.856 167.3983
2578.125000 96.843 167.0977
2596.807157 96.831 166.7856
2615.624692 96.820 166.4651
2634.578586 96.809 166.1407
2653.669829 96.801 165.8180
2672.899414 96.794 165.5038
2692.268345 96.789 165.2054
2711.777632 96.786 164.9308
2731.428290 96.785 164.6876
2751.221345 96.787 164.4834
2771.157829 96.790 164.3250
2791.238781 96.796 164.2185
2811.465248 96.802 164.1689
2831.838284 96.809 164.1805
2852.358952 96.816 164.2567
2873.028321 96.821 164.3997
2893.847468 96.825 164.6106
2914.817480 96.826 164.8897
2935.939449 96.825 165.2360
2957.214476 96.821 165.6474
2978.643672 96.813 166.1209
3000.228152 96.803 166.6523
3021.969041 96.791 167.2362
3043.867475 96.778 167.8659
3065.924593 96.765 168.5325
3088.141547 96.754 169.2254
3110.519493 96.745 169.9320
3133.059600 96.739 170.6382
3155.763041 96.738 171.3294
3178.631001 96.741 171.9917
3201.664672 96.748 172.6136
3224.865254 96.757 173.1874
3248.233957 96.768 173.7106
3271.771999 96.779 174.1864
3295.480608 96.789 174.6230
3319.361019 96.797 175.0332
3343.414477 96.802 175.4323
3367.642236 96.806 175.8362
3392.045560 96.810 176.2598
3416.625721 96.816 176.7137
3441.383999 96.828 177.2028
3466.321686 96.850 177.7249
3491.440082 96.884 178.2700
3516.740496 96.933 178.8206
3542.224247 97.000 179.3539
3567.892664 97.086 179.8431
3593.747085 97.189 -179.7389
3619.788858 97.309 -179.4173
3646.019340 97.443 -179.2124
3672.439900 97.586 -179.1383
3699.051913 97.734 -179.2017
3725.856768 97.883 -179.4020
3752.855862 98.029 -179.7321
3780.050603 98.168 179.8204
3807.442408 98.296 179.2717
3835.032705 98.412 178.6401
3862.822933 98.514 177.9453
3890.814540 98.600 177.2066
3919.008986 98.670 176.4433
3947.407741 98.724 175.6733
3976.012284 98.761 174.9132
4004.824108 98.783 174.1781
4033.844715 98.789 173.4812
4063.075616 98.782 172.8340
4092.518337 98.761 172.2462
4122.174412 98.728 171.7261
4152.045387 98.683 171.2807
4182.132820 98.629 170.9158
4212.438278 98.567 170.6363
4242.963342 98.497 170.4459
4273.709604 98.421 170.3475
4304.678665 98.340 170.3431
4335.872141 98.256 170.4337
4367.291658 98.169 170.6192
4398.938854 98.081 170.8979
4430.815378 97.993 171.2664
4462.922893 97.905 171.7197
4495.263072 97.818 172.2511
4527.837601 97.733 172.8529
4560.648179 97.649 173.5168
4593.696515 97.567 174.2348
4626.984334 97.486 174.9994
4660.513370 97.407 175.8047
4694.285371 97.329 176.6464
4728.302098 97.252 177.5222
4762.565324 97.178 178.4318
4797.076835 97.106 179.3761
4831.838432 97.037 -179.6423
4866.851925 96.974 -178.6205
4902.119140 96.918 -177.5553
4937.641916 96.871 -176.4436
4973.422105 96.834 -175.2837
5009.461572 96.811 -174.0747
5045.762195 96.803 -172.8175
5082.325868 96.813 -171.5151
5119.154496 96.842 -170.1727
5156.250000 96.894 -168.7982
5193.614313 96.968 -167.4022
5231.249383 97.067 -165.9980
5269.157173 97.192 -164.6011
5307.339658 97.342 -163.2290
5345.798829 97.519 -161.9006
5384.536691 97.721 -160.6357
5423.555263 97.947 -159.4541
5462.856580 98.197 -158.3754
5502.442691 98.470 -157.4183
5542.315659 98.763 -156.6000
5582.477563 99.075 -155.9364
5622.930497 99.404 -155.4414
5663.676569 99.748 -155.1271
5704.717904 100.104 -155.0033
5746.056642 100.469 -155.0774
5787.694937 100.841 -155.3544
5829.634960 101.216 -155.8369
5871.878898 101.590 -156.5252
5914.428953 101.959 -157.4168
5957.287343 102.319 -158.5070
6000.456303 102.666 -159.7879
6043.938083 102.996 -161.2488
6087.734950 103.304 -162.8755
6131.849187 103.587 -164.6508
6176.283094 103.840 -166.5544
6221.038987 104.061 -168.5627
6266.119200 104.247 -170.6500
6311.526083 104.397 -172.7887
6357.262002 104.510 -174.9504
6403.329344 104.587 -177.1070
6449.730508 104.628 -179.2319
6496.467914 104.636 178.6989
6543.543998 104.615 176.7058
6590.961215 104.567 174.8044
6638.722037 104.500 173.0053
6686.828954 104.417 171.3127
6735.284473 104.325 169.7240
6784.091120 104.230 168.2300
6833.251441 104.138 166.8146
6882.767998 104.055 165.4561
6932.643372 103.985 164.1284
6982.880164 103.932 162.8029
7033.480992 103.897 161.4504
7084.448495 103.882 160.0432
7135.785329 103.884 158.5554
7187.494171 103.904 156.9643
7239.577717 103.937 155.2503
7292.038681 103.980 153.3966
7344.879799 104.029 151.3889
7398.103826 104.080 149.2152
7451.713536 104.127 146.8661
7505.711724 104.163 144.3347
7560.101205 104.184 141.6175
7614.884815 104.182 138.7154
7670.065409 104.152 135.6339
7725.645865 104.087 132.3839
7781.629080 103.982 128.9815
7838.017972 103.831 125.4467
7894.815481 103.632 121.8022
7952.024569 103.382 118.0709
8009.648217 103.080 114.2735
8067.689429 102.727 110.4268
8126.151233 102.323 106.5409
8185.036674 101.871 102.6179
8244.348824 101.374 98.6502
8304.090774 100.835 94.6190
8364.265639 100.260 90.4919
8424.876556 99.652 86.2209
8485.926684 99.019 81.7395
8547.419207 98.367 76.9578
8609.357330 97.705 71.7575
8671.744282 97.043 65.9842
8734.583316 96.392 59.4364
8797.877707 95.767 51.8553
8861.630756 95.186 42.9221
8925.845785 94.670 32.2906
8990.526143 94.240 19.7076
9055.675202 93.919 5.2727
9121.296357 93.724 -10.2847
9187.393031 93.667 -25.7012
9253.968668 93.745 -39.7996
9321.026740 93.946 -52.0206
9388.570742 94.248 -62.3955
9456.604196 94.625 -71.2414
9525.130648 95.048 -78.9294
9594.153671 95.492 -85.7861
9663.676863 95.933 -92.0698
9733.703850 96.351 -97.9734
9804.238280 96.729 -103.6349
9875.283832 97.053 -109.1455
9946.844210 97.310 -114.5565
10018.923143 97.492 -119.8850
10091.524390 97.592 -125.1195
10164.651736 97.606 -130.2267
10238.308993 97.533 -135.1591
10312.500000 97.376 -139.8627
10387.228626 97.141 -144.2837
10462.498767 96.834 -148.3733
10538.314345 96.464 -152.0911
10614.679315 96.041 -155.4071
10691.597657 95.577 -158.3040
10769.073381 95.085 -160.7786
10847.110526 94.575 -162.8442
10925.713161 94.063 -164.5341
11004.885382 93.559 -165.9018
11084.631318 93.076 -167.0216
11164.955126 92.622 -167.9833
11245.860993 92.201 -168.8832
11327.353138 91.812 -169.8125
11409.435808 91.449 -170.8440
11492.113283 91.102 -172.0234
11575.389873 90.759 -173.3658
11659.269920 90.405 -174.8574
11743.757796 90.031 -176.4634
11828.857906 89.628 -178.1357
11914.574686 89.190 -179.8204
12000.912606 88.714 178.5381
12087.876166 88.199 176.9972
12175.469900 87.646 175.6187
12263.698373 87.054 174.4748
12352.566187 86.426 173.6542
12442.077974 85.764 173.2654
12532.238400 85.074 173.4341
12623.052165 84.364 174.2863
12714.524005 83.644 175.9126
12806.658687 82.934 178.3159
12899.461015 82.252 -178.6387
12992.935827 81.621 -175.2306
13087.087996 81.059 -171.8168
13181.922430 80.582 -168.7185
13277.444074 80.199 -166.1241
13373.657907 79.913 -164.0485
13470.568945 79.726 -162.3298
13568.182241 79.638 -160.6192
13666.502883 79.654 -158.3063
13765.535996 79.775 -154.3134
13865.286744 80.004 -146.6678
13965.760328 80.337 -132.2208
14066.961984 80.762 -109.9291
14168.896989 81.257 -88.4086
14271.570658 81.795 -75.7423
14374.988342 82.348 -70.5449
14479.155433 82.888 -69.7452
14584.077362 83.392 -71.4804
14689.759598 83.841 -74.7551
14796.207652 84.221 -79.0131
14903.427072 84.521 -83.9176
15011.423448 84.733 -89.2451
15120.202410 84.850 -94.8328
15229.769630 84.871 -100.5513
15340.130819 84.792 -106.2910
15451.291730 84.616 -111.9567
15563.258160 84.346 -117.4664
15676.035944 83.986 -122.7514
15789.630962 83.542 -127.7557
15904.049137 83.023 -132.4349
16019.296433 82.435 -136.7549
16135.378859 81.785 -140.6916
16252.302465 81.082 -144.2313
16370.073348 80.334 -147.3704
16488.697648 79.550 -150.1118
16608.181548 78.736 -152.4596
16728.531278 77.901 -154.4130
16849.753112 77.052 -155.9639
16971.853368 76.198 -157.1040
17094.838414 75.351 -157.8403
17218.714660 74.526 -158.2167
17343.488565 73.743 -158.3330
17469.166632 73.023 -158.3495
17595.755415 72.384 -158.4700
17723.261512 71.842 -158.9048
17851.691571 71.399 -159.8311
17981.052287 71.044 -161.3635
18111.350404 70.758 -163.5464
18242.592715 70.514 -166.3622
18374.786062 70.287 -169.7466
18507.937336 70.055 -173.6044
18642.053479 69.800 -177.8207
18777.141484 69.513 177.7310
18913.208391 69.194 173.1826
19050.261296 68.847 168.6681
19188.307342 68.484 164.3170
19327.353727 68.124 160.2505
19467.407699 67.788 156.5812
19608.476560 67.495 153.4202
19750.567664 67.263 150.8867
19893.688419 67.102 149.1044
20037.846286 67.021 148.1812
