* Measurement data measured by REW V5.31.3
* Source: EXCL: Headset (USB-C to 3.5mm Headphone Jack Adapter), MICROPHONE (Master Volume), 0, volume: 0.260
* Format: 256k Log Swept Sine, 1 sweep at -12.0 dBFS with no timing reference
* Dated: Mar 7, 2025 11:54:44 AM
* REW Settings:
*  C-weighting compensation: Off
*  Target level: 75.0 dB
* Note: ; 
* Measurement: Massive Mod V1 L9
* Smoothing: 1/6 octave
* Frequency Step: 96 ppo
* Start Frequency: 20.0 Hz
*
* Freq(Hz) SPL(dB) Phase(degrees)
20.141602 96.233 -46.7061
20.287556 96.235 -46.9915
20.434568 96.238 -47.3691
20.582645 96.242 -47.8224
20.731796 96.249 -48.3343
20.882027 96.258 -48.8884
21.033346 96.270 -49.4706
21.185763 96.286 -50.0697
21.339284 96.305 -50.6779
21.493917 96.329 -51.2903
21.649671 96.358 -51.9049
21.806553 96.391 -52.5218
21.964572 96.429 -53.1424
22.123737 96.469 -53.7691
22.284054 96.513 -54.4042
22.445534 96.558 -55.0495
22.608183 96.604 -55.7060
22.772012 96.650 -56.3739
22.937027 96.695 -57.0521
23.103238 96.738 -57.7385
23.270654 96.780 -58.4306
23.439282 96.820 -59.1253
23.609133 96.858 -59.8196
23.780215 96.895 -60.5111
23.952536 96.931 -61.1979
24.126106 96.967 -61.8792
24.300934 97.005 -62.5550
24.477028 97.043 -63.2266
24.654399 97.083 -63.8959
24.833055 97.126 -64.5654
25.013005 97.171 -65.2376
25.194260 97.218 -65.9147
25.376828 97.267 -66.5982
25.560719 97.318 -67.2889
25.745942 97.371 -67.9862
25.932508 97.424 -68.6888
26.120426 97.478 -69.3942
26.309705 97.532 -70.0998
26.500356 97.586 -70.8026
26.692388 97.641 -71.5000
26.885812 97.697 -72.1900
27.080638 97.753 -72.8717
27.276876 97.811 -73.5451
27.474535 97.869 -74.2111
27.673627 97.929 -74.8715
27.874161 97.988 -75.5282
28.076149 98.047 -76.1832
28.279600 98.106 -76.8381
28.484526 98.163 -77.4939
28.690937 98.218 -78.1507
28.898843 98.271 -78.8086
29.108256 98.322 -79.4670
29.319186 98.371 -80.1256
29.531645 98.419 -80.7845
29.745644 98.465 -81.4441
29.961193 98.510 -82.1052
30.178304 98.555 -82.7687
30.396989 98.600 -83.4351
30.617258 98.644 -84.1040
30.839123 98.687 -84.7741
31.062596 98.730 -85.4432
31.287688 98.772 -86.1082
31.514412 98.812 -86.7659
31.742778 98.852 -87.4139
31.972800 98.892 -88.0507
32.204488 98.932 -88.6768
32.437855 98.974 -89.2941
32.672913 99.018 -89.9059
32.909674 99.064 -90.5160
33.148151 99.113 -91.1281
33.388356 99.166 -91.7445
33.630302 99.220 -92.3655
33.874001 99.278 -92.9899
34.119466 99.337 -93.6145
34.366710 99.397 -94.2355
34.615745 99.459 -94.8490
34.866585 99.521 -95.4521
35.119243 99.583 -96.0433
35.373731 99.644 -96.6226
35.630064 99.704 -97.1911
35.888254 99.760 -97.7506
36.148315 99.813 -98.3030
36.410261 99.860 -98.8495
36.674104 99.903 -99.3910
36.939860 99.940 -99.9276
37.207542 99.972 -100.4596
37.477163 100.000 -100.9874
37.748738 100.024 -101.5119
38.022281 100.046 -102.0347
38.297806 100.066 -102.5579
38.575327 100.086 -103.0837
38.854860 100.104 -103.6145
39.136419 100.123 -104.1524
39.420017 100.142 -104.6993
39.705671 100.162 -105.2571
39.993395 100.183 -105.8275
40.283203 100.204 -106.4116
40.575112 100.226 -107.0104
40.869136 100.249 -107.6237
41.165290 100.274 -108.2506
41.463591 100.299 -108.8893
41.764053 100.326 -109.5369
42.066693 100.355 -110.1904
42.371525 100.384 -110.8472
42.678567 100.415 -111.5049
42.987834 100.447 -112.1625
43.299341 100.479 -112.8197
43.613106 100.513 -113.4772
43.929145 100.547 -114.1367
44.247473 100.581 -114.8003
44.568109 100.615 -115.4704
44.891068 100.649 -116.1497
45.216367 100.684 -116.8407
45.544023 100.719 -117.5453
45.874054 100.754 -118.2646
46.206476 100.790 -118.9982
46.541307 100.826 -119.7447
46.878565 100.862 -120.5014
47.218266 100.898 -121.2650
47.560429 100.934 -122.0322
47.905072 100.971 -122.8000
48.252212 101.008 -123.5664
48.601867 101.045 -124.3296
48.954056 101.083 -125.0887
49.308798 101.120 -125.8428
49.666109 101.157 -126.5910
50.026010 101.193 -127.3327
50.388520 101.227 -128.0673
50.753656 101.260 -128.7943
51.121437 101.291 -129.5138
51.491884 101.320 -130.2261
51.865016 101.346 -130.9322
52.240851 101.370 -131.6331
52.619410 101.392 -132.3302
53.000712 101.411 -133.0250
53.384777 101.427 -133.7188
53.771625 101.440 -134.4119
54.161276 101.451 -135.1042
54.553751 101.458 -135.7947
54.949070 101.461 -136.4814
55.347254 101.461 -137.1621
55.748323 101.458 -137.8346
56.152298 101.452 -138.4971
56.559201 101.442 -139.1483
56.969052 101.431 -139.7881
57.381873 101.417 -140.4176
57.797686 101.403 -141.0392
58.216512 101.388 -141.6562
58.638373 101.374 -142.2732
59.063291 101.361 -142.8945
59.491288 101.352 -143.5242
59.922386 101.346 -144.1651
60.356608 101.344 -144.8178
60.793977 101.346 -145.4805
61.234515 101.350 -146.1498
61.678246 101.356 -146.8212
62.125192 101.363 -147.4904
62.575377 101.369 -148.1541
63.028824 101.373 -148.8101
63.485557 101.374 -149.4574
63.945599 101.373 -150.0961
64.408975 101.368 -150.7265
64.875709 101.361 -151.3493
65.345825 101.350 -151.9652
65.819348 101.338 -152.5748
66.296302 101.322 -153.1785
66.776713 101.305 -153.7767
67.260604 101.287 -154.3699
67.748002 101.267 -154.9583
68.238932 101.246 -155.5419
68.733420 101.224 -156.1209
69.231490 101.202 -156.6951
69.733170 101.179 -157.2645
70.238485 101.156 -157.8291
70.747463 101.132 -158.3890
71.260128 101.107 -158.9443
71.776508 101.082 -159.4951
72.296630 101.056 -160.0412
72.820521 101.030 -160.5822
73.348209 101.004 -161.1176
73.879720 100.977 -161.6472
74.415083 100.951 -162.1707
74.954326 100.925 -162.6882
75.497475 100.898 -163.1999
76.044561 100.872 -163.7064
76.595612 100.845 -164.2081
77.150655 100.819 -164.7054
77.709720 100.792 -165.1983
78.272837 100.764 -165.6865
78.840034 100.736 -166.1697
79.411342 100.708 -166.6473
79.986789 100.678 -167.1189
80.566406 100.648 -167.5841
81.150224 100.617 -168.0423
81.738272 100.585 -168.4930
82.330581 100.553 -168.9360
82.927182 100.519 -169.3714
83.528107 100.486 -169.7994
84.133386 100.452 -170.2210
84.743051 100.418 -170.6372
85.357134 100.384 -171.0490
85.975667 100.350 -171.4569
86.598682 100.316 -171.8613
87.226212 100.284 -172.2621
87.858289 100.251 -172.6590
88.494946 100.220 -173.0515
89.136217 100.190 -173.4390
89.782135 100.161 -173.8210
90.432733 100.133 -174.1970
91.088046 100.106 -174.5666
91.748108 100.079 -174.9300
92.412952 100.053 -175.2875
93.082615 100.027 -175.6395
93.757130 100.001 -175.9866
94.436533 99.973 -176.3292
95.120859 99.945 -176.6676
95.810144 99.914 -177.0023
96.504423 99.883 -177.3334
97.203734 99.849 -177.6612
97.908112 99.814 -177.9855
98.617595 99.776 -178.3060
99.332219 99.737 -178.6223
100.052021 99.696 -178.9342
100.777039 99.654 -179.2421
101.507311 99.612 -179.5465
102.242875 99.569 -179.8481
102.983769 99.527 179.8528
103.730032 99.485 179.5563
104.481702 99.445 179.2628
105.238820 99.405 178.9729
106.001424 99.365 178.6875
106.769554 99.327 178.4070
107.543250 99.290 178.1318
108.322553 99.253 177.8620
109.107503 99.218 177.5973
109.898141 99.183 177.3373
110.694508 99.150 177.0816
111.496646 99.117 176.8294
112.304596 99.084 176.5803
113.118402 99.052 176.3343
113.938104 99.020 176.0912
114.763747 98.987 175.8512
115.595372 98.955 175.6143
116.433024 98.922 175.3799
117.276746 98.888 175.1473
118.126581 98.853 174.9152
118.982575 98.817 174.6822
119.844772 98.780 174.4469
120.713217 98.742 174.2086
121.587954 98.703 173.9673
122.469031 98.663 173.7243
123.356492 98.623 173.4807
124.250384 98.584 173.2379
125.150753 98.544 172.9964
126.057647 98.506 172.7567
126.971113 98.469 172.5189
127.891198 98.432 172.2834
128.817950 98.397 172.0511
129.751418 98.362 171.8232
130.691651 98.328 171.6010
131.638696 98.295 171.3856
132.592604 98.262 171.1782
133.553425 98.228 170.9797
134.521208 98.194 170.7910
135.496004 98.159 170.6129
136.477864 98.123 170.4464
137.466839 98.085 170.2922
138.462981 98.047 170.1511
139.466340 98.008 170.0234
140.476971 97.967 169.9085
141.494925 97.925 169.8050
142.520256 97.881 169.7106
143.553016 97.836 169.6231
144.593260 97.791 169.5400
145.641043 97.744 169.4591
146.696418 97.697 169.3784
147.759441 97.649 169.2966
148.830166 97.601 169.2126
149.908651 97.553 169.1264
150.994951 97.505 169.0385
152.089123 97.457 168.9499
153.191223 97.410 168.8624
154.301310 97.363 168.7782
155.419441 97.317 168.6999
156.545674 97.271 168.6304
157.680069 97.227 168.5728
158.822683 97.184 168.5295
159.973578 97.142 168.5027
161.132813 97.102 168.4941
162.300447 97.063 168.5046
163.476543 97.026 168.5344
164.661162 96.992 168.5825
165.854364 96.959 168.6473
167.056213 96.929 168.7263
168.266772 96.901 168.8159
169.486102 96.875 168.9125
170.714268 96.851 169.0120
171.951334 96.830 169.1107
173.197364 96.811 169.2055
174.452424 96.794 169.2938
175.716578 96.779 169.3732
176.989893 96.765 169.4423
178.272434 96.753 169.4998
179.564270 96.742 169.5453
180.865467 96.731 169.5784
182.176092 96.720 169.5995
183.496216 96.709 169.6090
184.825905 96.697 169.6075
186.165229 96.683 169.5960
187.514259 96.668 169.5753
188.873065 96.650 169.5466
190.241717 96.630 169.5105
191.620287 96.607 169.4677
193.008847 96.581 169.4179
194.407468 96.553 169.3608
195.816225 96.522 169.2957
197.235190 96.488 169.2219
198.664438 96.451 169.1394
200.104042 96.413 169.0487
201.554078 96.373 168.9508
203.014622 96.332 168.8477
204.485750 96.291 168.7412
205.967538 96.249 168.6335
207.460064 96.209 168.5261
208.963405 96.170 168.4203
210.477640 96.133 168.3166
212.002848 96.099 168.2151
213.539108 96.068 168.1158
215.086500 96.040 168.0182
216.645105 96.016 167.9223
218.215005 95.997 167.8279
219.796281 95.981 167.7350
221.389015 95.970 167.6434
222.993292 95.962 167.5532
224.609193 95.959 167.4644
226.236804 95.958 167.3773
227.876209 95.960 167.2922
229.527494 95.965 167.2092
231.190745 95.972 167.1290
232.866048 95.981 167.0517
234.553491 95.990 166.9778
236.253163 96.001 166.9076
237.965150 96.012 166.8410
239.689544 96.024 166.7779
241.426433 96.036 166.7181
243.175909 96.048 166.6614
244.938062 96.059 166.6075
246.712984 96.069 166.5562
248.500768 96.078 166.5076
250.301507 96.086 166.4618
252.115295 96.092 166.4189
253.942226 96.097 166.3793
255.782396 96.101 166.3438
257.635901 96.104 166.3128
259.502837 96.106 166.2865
261.383301 96.107 166.2647
263.277392 96.107 166.2465
265.185209 96.107 166.2306
267.106850 96.106 166.2154
269.042417 96.103 166.1997
270.992009 96.099 166.1825
272.955729 96.094 166.1632
274.933678 96.086 166.1414
276.925961 96.075 166.1178
278.932681 96.060 166.0933
280.953942 96.042 166.0695
282.989850 96.020 166.0474
285.040511 95.993 166.0278
287.106032 95.962 166.0110
289.186521 95.926 165.9965
291.282086 95.885 165.9836
293.392836 95.841 165.9713
295.518881 95.792 165.9592
297.660333 95.740 165.9470
299.817302 95.685 165.9351
301.989902 95.629 165.9240
304.178245 95.571 165.9144
306.382446 95.513 165.9067
308.602620 95.455 165.9012
310.838882 95.398 165.8981
313.091348 95.342 165.8971
315.360137 95.289 165.8980
317.645367 95.238 165.9005
319.947156 95.190 165.9045
322.265625 95.146 165.9100
324.600895 95.106 165.9167
326.953086 95.070 165.9246
329.322323 95.039 165.9332
331.708729 95.013 165.9423
334.112427 94.992 165.9514
336.533543 94.976 165.9603
338.972204 94.966 165.9688
341.428536 94.962 165.9771
343.902668 94.963 165.9853
346.394729 94.968 165.9940
348.904848 94.978 166.0035
351.433156 94.992 166.0141
353.979786 95.008 166.0259
356.544869 95.025 166.0388
359.128540 95.044 166.0527
361.730934 95.063 166.0671
364.352185 95.081 166.0818
366.992431 95.097 166.0963
369.651810 95.110 166.1097
372.330459 95.119 166.1219
375.028519 95.124 166.1326
377.746130 95.124 166.1424
380.483434 95.118 166.1516
383.240574 95.108 166.1611
386.017693 95.092 166.1715
388.814937 95.071 166.1836
391.632450 95.046 166.1979
394.470380 95.018 166.2151
397.328875 94.988 166.2352
400.208084 94.956 166.2583
403.108157 94.924 166.2841
406.029245 94.893 166.3120
408.971500 94.865 166.3417
411.935076 94.840 166.3726
414.920127 94.818 166.4045
417.926810 94.801 166.4374
420.955280 94.789 166.4714
424.005695 94.782 166.5068
427.078215 94.780 166.5441
430.173000 94.781 166.5837
433.290211 94.786 166.6262
436.430010 94.793 166.6719
439.592562 94.801 166.7209
442.778031 94.810 166.7730
445.986583 94.818 166.8275
449.218386 94.826 166.8836
452.473607 94.831 166.9408
455.752418 94.834 166.9986
459.054987 94.834 167.0565
462.381489 94.832 167.1142
465.732096 94.828 167.1714
469.106983 94.823 167.2281
472.506325 94.816 167.2840
475.930301 94.809 167.3391
479.379088 94.801 167.3933
482.852867 94.794 167.4465
486.351817 94.787 167.4985
489.876123 94.780 167.5488
493.425968 94.775 167.5970
497.001536 94.772 167.6428
500.603014 94.770 167.6859
504.230589 94.772 167.7262
507.884452 94.777 167.7639
511.564792 94.787 167.7990
515.271802 94.802 167.8317
519.005673 94.822 167.8619
522.766602 94.849 167.8896
526.554785 94.882 167.9143
530.370418 94.920 167.9360
534.213700 94.965 167.9542
538.084833 95.013 167.9688
541.984018 95.066 167.9794
545.911457 95.120 167.9863
549.867357 95.175 167.9896
553.851922 95.230 167.9898
557.865362 95.282 167.9875
561.907884 95.330 167.9833
565.979700 95.373 167.9778
570.081022 95.410 167.9720
574.212064 95.440 167.9664
578.373042 95.462 167.9618
582.564171 95.476 167.9584
586.785671 95.481 167.9558
591.037762 95.476 167.9534
595.320665 95.461 167.9502
599.634604 95.437 167.9449
603.979804 95.403 167.9367
608.356491 95.361 167.9248
612.764893 95.311 167.9091
617.205240 95.254 167.8893
621.677763 95.193 167.8657
626.182696 95.128 167.8383
630.720274 95.062 167.8071
635.290733 94.996 167.7723
639.894312 94.933 167.7340
644.531250 94.873 167.6924
649.201789 94.819 167.6476
653.906173 94.771 167.5998
658.644647 94.731 167.5491
663.417457 94.699 167.4957
668.224854 94.675 167.4394
673.067086 94.660 167.3797
677.944408 94.654 167.3162
682.857073 94.657 167.2482
687.805336 94.668 167.1749
692.789457 94.688 167.0953
697.809695 94.715 167.0087
702.866312 94.749 166.9144
707.959571 94.788 166.8124
713.089738 94.831 166.7032
718.257080 94.876 166.5880
723.461867 94.922 166.4683
728.704370 94.967 166.3462
733.984862 95.010 166.2236
739.303619 95.049 166.1023
744.660918 95.085 165.9832
750.057038 95.116 165.8665
755.492260 95.143 165.7517
760.966869 95.167 165.6374
766.481148 95.187 165.5219
772.035387 95.203 165.4036
777.629873 95.217 165.2809
783.264900 95.228 165.1529
788.940760 95.235 165.0190
794.657750 95.239 164.8793
800.416168 95.238 164.7338
806.216313 95.231 164.5824
812.058489 95.217 164.4252
817.943000 95.196 164.2620
823.870152 95.167 164.0926
829.840255 95.130 163.9169
835.853619 95.084 163.7348
841.910559 95.032 163.5464
848.011390 94.974 163.3517
854.156430 94.912 163.1511
860.346000 94.848 162.9446
866.580422 94.784 162.7330
872.860020 94.722 162.5168
879.185124 94.666 162.2972
885.556062 94.617 162.0754
891.973166 94.575 161.8527
898.436771 94.544 161.6299
904.947215 94.522 161.4082
911.504835 94.509 161.1885
918.109975 94.506 160.9719
924.762978 94.511 160.7590
931.464192 94.523 160.5502
938.213966 94.539 160.3452
945.012651 94.560 160.1433
951.860602 94.582 159.9434
958.758176 94.605 159.7439
965.705733 94.627 159.5437
972.703635 94.648 159.3418
979.752246 94.665 159.1380
986.851935 94.679 158.9325
994.003071 94.689 158.7258
1001.206027 94.696 158.5189
1008.461179 94.701 158.3126
1015.768904 94.703 158.1072
1023.129584 94.705 157.9032
1030.543603 94.706 157.7004
1038.011347 94.710 157.4985
1045.533205 94.716 157.2972
1053.109569 94.725 157.0965
1060.740836 94.738 156.8964
1068.427401 94.755 156.6976
1076.169666 94.774 156.5007
1083.968035 94.797 156.3068
1091.822915 94.822 156.1162
1099.734713 94.847 155.9291
1107.703844 94.871 155.7450
1115.730723 94.893 155.5636
1123.815768 94.911 155.3850
1131.959400 94.924 155.2094
1140.162045 94.930 155.0379
1148.424129 94.930 154.8718
1156.746083 94.923 154.7126
1165.128342 94.910 154.5619
1173.571343 94.891 154.4212
1182.075524 94.869 154.2916
1190.641331 94.844 154.1739
1199.269209 94.819 154.0682
1207.959608 94.796 153.9738
1216.712981 94.775 153.8896
1225.529785 94.759 153.8137
1234.410479 94.748 153.7438
1243.355526 94.743 153.6779
1252.365393 94.744 153.6143
1261.440549 94.751 153.5518
1270.581467 94.762 153.4896
1279.788624 94.778 153.4270
1289.062500 94.797 153.3638
1298.403578 94.818 153.3002
1307.812346 94.839 153.2366
1317.289293 94.861 153.1740
1326.834914 94.881 153.1142
1336.449707 94.898 153.0596
1346.134173 94.913 153.0131
1355.888816 94.923 152.9774
1365.714145 94.930 152.9546
1375.610673 94.932 152.9456
1385.578915 94.930 152.9509
1395.619391 94.924 152.9706
1405.732624 94.914 153.0049
1415.919142 94.900 153.0540
1426.179476 94.882 153.1175
1436.514160 94.862 153.1948
1446.923734 94.839 153.2844
1457.408740 94.814 153.3845
1467.969724 94.787 153.4934
1478.607238 94.758 153.6096
1489.321836 94.727 153.7319
1500.114076 94.694 153.8599
1510.984521 94.659 153.9934
1521.933737 94.620 154.1337
1532.962297 94.577 154.2825
1544.070773 94.531 154.4424
1555.259747 94.481 154.6157
1566.529800 94.427 154.8036
1577.881521 94.371 155.0068
1589.315501 94.313 155.2251
1600.832336 94.254 155.4579
1612.432627 94.194 155.7049
1624.116978 94.135 155.9659
1635.886000 94.075 156.2411
1647.740304 94.017 156.5309
1659.680509 93.960 156.8359
1671.707238 93.904 157.1571
1683.821118 93.849 157.4958
1696.022780 93.796 157.8531
1708.312860 93.745 158.2306
1720.692000 93.697 158.6290
1733.160843 93.652 159.0482
1745.720041 93.611 159.4861
1758.370248 93.576 159.9390
1771.112124 93.547 160.4025
1783.946332 93.525 160.8716
1796.873543 93.511 161.3416
1809.894429 93.503 161.8083
1823.009670 93.503 162.2678
1836.219950 93.508 162.7175
1849.525956 93.519 163.1556
1862.928384 93.534 163.5814
1876.427931 93.552 163.9947
1890.025301 93.572 164.3950
1903.721204 93.594 164.7815
1917.516352 93.617 165.1523
1931.411466 93.640 165.5049
1945.407270 93.663 165.8366
1959.504493 93.685 166.1453
1973.703870 93.707 166.4294
1988.006142 93.728 166.6880
2002.412054 93.749 166.9200
2016.922357 93.770 167.1246
2031.537808 93.791 167.3021
2046.259169 93.813 167.4536
2061.087206 93.837 167.5812
2076.022694 93.862 167.6868
2091.066410 93.889 167.7710
2106.219139 93.920 167.8337
2121.481671 93.954 167.8751
2136.854802 93.991 167.8955
2152.339333 94.033 167.8956
2167.936071 94.079 167.8754
2183.645829 94.129 167.8352
2199.469427 94.183 167.7758
2215.407689 94.240 167.6991
2231.461446 94.302 167.6080
2247.631536 94.368 167.5060
2263.918800 94.438 167.3968
2280.324089 94.512 167.2841
2296.848258 94.590 167.1712
2313.492167 94.673 167.0600
2330.256685 94.760 166.9511
2347.142685 94.852 166.8431
2364.151049 94.948 166.7337
2381.282662 95.047 166.6202
2398.538418 95.149 166.5003
2415.919216 95.251 166.3718
2433.425962 95.354 166.2333
2451.059570 95.455 166.0838
2468.820958 95.554 165.9229
2486.711052 95.650 165.7506
2504.730786 95.740 165.5667
2522.881098 95.826 165.3709
2541.162934 95.904 165.1628
2559.577248 95.975 164.9422
2578.125000 96.038 164.7089
2596.807157 96.091 164.4633
2615.624692 96.134 164.2065
2634.578586 96.165 163.9411
2653.669829 96.185 163.6705
2672.899414 96.192 163.3998
2692.268345 96.185 163.1353
2711.777632 96.166 162.8845
2731.428290 96.133 162.6552
2751.221345 96.088 162.4558
2771.157829 96.030 162.2941
2791.238781 95.962 162.1770
2811.465248 95.884 162.1103
2831.838284 95.797 162.0981
2852.358952 95.703 162.1429
2873.028321 95.604 162.2459
2893.847468 95.500 162.4070
2914.817480 95.393 162.6250
2935.939449 95.284 162.8987
2957.214476 95.174 163.2264
2978.643672 95.066 163.6063
3000.228152 94.959 164.0361
3021.969041 94.855 164.5130
3043.867475 94.756 165.0329
3065.924593 94.663 165.5904
3088.141547 94.578 166.1780
3110.519493 94.502 166.7866
3133.059600 94.436 167.4050
3155.763041 94.380 168.0209
3178.631001 94.335 168.6223
3201.664672 94.299 169.1986
3224.865254 94.273 169.7420
3248.233957 94.254 170.2490
3271.771999 94.243 170.7201
3295.480608 94.237 171.1599
3319.361019 94.238 171.5751
3343.414477 94.244 171.9742
3367.642236 94.258 172.3650
3392.045560 94.280 172.7533
3416.625721 94.312 173.1418
3441.383999 94.357 173.5286
3466.321686 94.416 173.9068
3491.440082 94.491 174.2637
3516.740496 94.583 174.5816
3542.224247 94.692 174.8394
3567.892664 94.816 175.0147
3593.747085 94.954 175.0860
3619.788858 95.101 175.0357
3646.019340 95.253 174.8513
3672.439900 95.407 174.5268
3699.051913 95.558 174.0629
3725.856768 95.700 173.4666
3752.855862 95.832 172.7503
3780.050603 95.949 171.9307
3807.442408 96.050 171.0277
3835.032705 96.132 170.0627
3862.822933 96.196 169.0576
3890.814540 96.241 168.0330
3919.008986 96.268 167.0079
3947.407741 96.277 165.9990
3976.012284 96.269 165.0201
4004.824108 96.246 164.0826
4033.844715 96.209 163.1956
4063.075616 96.158 162.3664
4092.518337 96.095 161.6008
4122.174412 96.021 160.9038
4152.045387 95.936 160.2797
4182.132820 95.841 159.7325
4212.438278 95.738 159.2660
4242.963342 95.626 158.8839
4273.709604 95.507 158.5899
4304.678665 95.383 158.3877
4335.872141 95.254 158.2806
4367.291658 95.122 158.2715
4398.938854 94.988 158.3629
4430.815378 94.854 158.5558
4462.922893 94.723 158.8503
4495.263072 94.594 159.2449
4527.837601 94.471 159.7368
4560.648179 94.354 160.3218
4593.696515 94.245 160.9955
4626.984334 94.145 161.7532
4660.513370 94.055 162.5912
4694.285371 93.974 163.5065
4728.302098 93.905 164.4966
4762.565324 93.847 165.5594
4797.076835 93.801 166.6925
4831.838432 93.769 167.8922
4866.851925 93.750 169.1533
4902.119140 93.747 170.4692
4937.641916 93.760 171.8314
4973.422105 93.789 173.2295
5009.461572 93.835 174.6519
5045.762195 93.898 176.0853
5082.325868 93.980 177.5152
5119.154496 94.078 178.9263
5156.250000 94.193 -179.6976
5193.614313 94.323 -178.3726
5231.249383 94.467 -177.1147
5269.157173 94.624 -175.9391
5307.339658 94.792 -174.8599
5345.798829 94.969 -173.8902
5384.536691 95.152 -173.0416
5423.555263 95.339 -172.3238
5462.856580 95.529 -171.7449
5502.442691 95.719 -171.3106
5542.315659 95.907 -171.0244
5582.477563 96.091 -170.8873
5622.930497 96.270 -170.8978
5663.676569 96.442 -171.0517
5704.717904 96.605 -171.3422
5746.056642 96.757 -171.7599
5787.694937 96.898 -172.2931
5829.634960 97.027 -172.9281
5871.878898 97.143 -173.6500
5914.428953 97.245 -174.4430
5957.287343 97.333 -175.2910
6000.456303 97.407 -176.1778
6043.938083 97.467 -177.0876
6087.734950 97.514 -178.0050
6131.849187 97.547 -178.9159
6176.283094 97.569 -179.8073
6221.038987 97.580 179.3317
6266.119200 97.582 178.5098
6311.526083 97.578 177.7331
6357.262002 97.570 177.0044
6403.329344 97.561 176.3230
6449.730508 97.556 175.6836
6496.467914 97.557 175.0766
6543.543998 97.571 174.4868
6590.961215 97.600 173.8941
6638.722037 97.649 173.2728
6686.828954 97.721 172.5923
6735.284473 97.818 171.8184
6784.091120 97.939 170.9148
6833.251441 98.084 169.8452
6882.767998 98.249 168.5760
6932.643372 98.426 167.0789
6982.880164 98.609 165.3334
7033.480992 98.789 163.3285
7084.448495 98.958 161.0638
7135.785329 99.106 158.5493
7187.494171 99.225 155.8047
7239.577717 99.308 152.8579
7292.038681 99.349 149.7430
7344.879799 99.343 146.4983
7398.103826 99.288 143.1642
7451.713536 99.182 139.7811
7505.711724 99.024 136.3876
7560.101205 98.817 133.0181
7614.884815 98.563 129.7009
7670.065409 98.267 126.4557
7725.645865 97.935 123.2913
7781.629080 97.574 120.2028
7838.017972 97.194 117.1698
7894.815481 96.805 114.1554
7952.024569 96.416 111.1071
8009.648217 96.036 107.9591
8067.689429 95.673 104.6378
8126.151233 95.331 101.0662
8185.036674 95.009 97.1700
8244.348824 94.706 92.8813
8304.090774 94.414 88.1406
8364.265639 94.125 82.8968
8424.876556 93.830 77.1043
8485.926684 93.522 70.7207
8547.419207 93.194 63.7027
8609.357330 92.843 56.0057
8671.744282 92.472 47.5885
8734.583316 92.087 38.4281
8797.877707 91.697 28.5471
8861.630756 91.320 18.0498
8925.845785 90.973 7.1495
8990.526143 90.679 -3.8403
9055.675202 90.459 -14.5641
9121.296357 90.331 -24.7133
9187.393031 90.304 -34.0923
9253.968668 90.380 -42.6368
9321.026740 90.550 -50.3867
9388.570742 90.797 -57.4448
9456.604196 91.100 -63.9395
9525.130648 91.436 -69.9991
9594.153671 91.785 -75.7377
9663.676863 92.125 -81.2488
9733.703850 92.443 -86.6022
9804.238280 92.723 -91.8452
9875.283832 92.955 -97.0038
9946.844210 93.132 -102.0852
10018.923143 93.247 -107.0809
10091.524390 93.296 -111.9700
10164.651736 93.279 -116.7228
10238.308993 93.194 -121.3036
10312.500000 93.044 -125.6733
10387.228626 92.830 -129.7896
10462.498767 92.556 -133.6075
10538.314345 92.225 -137.0796
10614.679315 91.842 -140.1559
10691.597657 91.415 -142.7878
10769.073381 90.951 -144.9340
10847.110526 90.462 -146.5700
10925.713161 89.962 -147.7020
11004.885382 89.467 -148.3778
11084.631318 88.993 -148.6908
11164.955126 88.552 -148.7708
11245.860993 88.152 -148.7596
11327.353138 87.795 -148.7803
11409.435808 87.472 -148.9116
11492.113283 87.174 -149.1776
11575.389873 86.888 -149.5541
11659.269920 86.606 -149.9854
11743.757796 86.323 -150.4034
11828.857906 86.040 -150.7452
11914.574686 85.763 -150.9661
12000.912606 85.503 -151.0492
12087.876166 85.273 -151.0123
12175.469900 85.089 -150.9119
12263.698373 84.964 -150.8417
12352.566187 84.907 -150.9232
12442.077974 84.918 -151.2895
12532.238400 84.991 -152.0638
12623.052165 85.111 -153.3410
12714.524005 85.260 -155.1780
12806.658687 85.418 -157.5937
12899.461015 85.567 -160.5760
12992.935827 85.692 -164.0930
13087.087996 85.783 -168.1036
13181.922430 85.835 -172.5660
13277.444074 85.843 -177.4446
13373.657907 85.809 177.2857
13470.568945 85.736 171.6362
13568.182241 85.627 165.6021
13666.502883 85.489 159.1604
13765.535996 85.329 152.2682
13865.286744 85.153 144.8593
13965.760328 84.968 136.8396
14066.961984 84.778 128.0795
14168.896989 84.586 118.3994
14271.570658 84.394 107.5497
14374.988342 84.202 95.1816
14479.155433 84.007 80.8275
14584.077362 83.805 63.9435
14689.759598 83.592 44.1645
14796.207652 83.362 21.9050
14903.427072 83.108 -1.1593
15011.423448 82.825 -22.8350
15120.202410 82.506 -41.8288
15229.769630 82.147 -58.0198
15340.130819 81.743 -71.8199
15451.291730 81.291 -83.6811
15563.258160 80.791 -93.9341
15676.035944 80.245 -102.7869
15789.630962 79.658 -110.3705
15904.049137 79.042 -116.7999
16019.296433 78.410 -122.2331
16135.378859 77.780 -126.9172
16252.302465 77.168 -131.1909
16370.073348 76.585 -135.4315
16488.697648 76.035 -139.9641
16608.181548 75.514 -144.9917
16728.531278 75.008 -150.5793
16849.753112 74.502 -156.6860
16971.853368 73.978 -163.2134
17094.838414 73.424 -170.0427
17218.714660 72.829 -177.0558
17343.488565 72.187 175.8595
17469.166632 71.495 168.8108
17595.755415 70.753 161.9106
17723.261512 69.963 155.2904
17851.691571 69.130 149.1265
17981.052287 68.259 143.6825
18111.350404 67.361 139.3824
18242.592715 66.446 136.9269
18374.786062 65.530 137.4326
18507.937336 64.627 142.3234
18642.053479 63.757 151.9966
18777.141484 62.938 163.2595
18913.208391 62.186 171.1205
19050.261296 61.513 173.9629
19188.307342 60.924 172.9923
19327.353727 60.422 169.7942
19467.407699 60.003 165.5924
19608.476560 59.665 161.2726
19750.567664 59.408 157.4852
19893.688419 59.233 154.7014
20037.846286 59.144 153.2322
