* Measurement data measured by REW V5.31.3
* Source: EXCL: Headset (USB-C to 3.5mm Headphone Jack Adapter), MICROPHONE (Master Volume), 0, volume: 0.750
* Format: 256k Log Swept Sine, 1 sweep at -12.0 dBFS with no timing reference
* Dated: Apr 7, 2025 4:47:13 PM
* REW Settings:
*  C-weighting compensation: Off
*  Target level: 75.0 dB
* Note: ; 
* Measurement: Satyr 3 (Centered) R9
* Smoothing: 1/6 octave
* Frequency Step: 96 ppo
* Start Frequency: 20.0 Hz
*
* Freq(Hz) SPL(dB) Phase(degrees)
20.187378 79.518 -98.0357
20.333664 79.569 -98.1607
20.481010 79.638 -98.3298
20.629424 79.723 -98.5403
20.778913 79.822 -98.7891
20.929486 79.933 -99.0723
21.081150 80.054 -99.3857
21.233912 80.180 -99.7244
21.387782 80.311 -100.0828
21.542767 80.442 -100.4549
21.698874 80.573 -100.8343
21.856113 80.700 -101.2143
22.014492 80.821 -101.5885
22.174018 80.936 -101.9511
22.334700 81.044 -102.2969
22.496546 81.144 -102.6224
22.659566 81.237 -102.9259
22.823766 81.322 -103.2076
22.989157 81.401 -103.4701
23.155745 81.474 -103.7184
23.323542 81.543 -103.9592
23.492554 81.608 -104.2006
23.662790 81.670 -104.4515
23.834261 81.729 -104.7203
24.006973 81.785 -105.0141
24.180938 81.838 -105.3384
24.356163 81.889 -105.6957
24.532658 81.936 -106.0862
24.710431 81.980 -106.5074
24.889493 82.020 -106.9549
25.069853 82.056 -107.4231
25.251519 82.089 -107.9058
25.434502 82.119 -108.3978
25.618811 82.148 -108.8946
25.804456 82.176 -109.3936
25.991445 82.205 -109.8937
26.179790 82.234 -110.3953
26.369500 82.266 -110.8997
26.560584 82.301 -111.4085
26.753053 82.337 -111.9227
26.946917 82.377 -112.4427
27.142185 82.419 -112.9674
27.338869 82.463 -113.4945
27.536977 82.508 -114.0211
27.736522 82.555 -114.5437
27.937512 82.602 -115.0591
28.139959 82.650 -115.5649
28.343872 82.697 -116.0599
28.549264 82.744 -116.5439
28.756143 82.790 -117.0178
28.964522 82.834 -117.4834
29.174411 82.876 -117.9426
29.385821 82.915 -118.3971
29.598763 82.951 -118.8484
29.813248 82.985 -119.2974
30.029287 83.017 -119.7444
30.246891 83.048 -120.1896
30.466073 83.078 -120.6332
30.686842 83.110 -121.0756
30.909212 83.144 -121.5176
31.133193 83.181 -121.9600
31.358797 83.223 -122.4038
31.586035 83.269 -122.8498
31.814921 83.321 -123.2982
32.045465 83.378 -123.7492
32.277680 83.439 -124.2024
32.511577 83.505 -124.6573
32.747169 83.575 -125.1138
32.984469 83.649 -125.5719
33.223488 83.726 -126.0323
33.464239 83.806 -126.4960
33.706735 83.888 -126.9643
33.950987 83.972 -127.4380
34.197010 84.058 -127.9174
34.444816 84.145 -128.4021
34.694417 84.233 -128.8902
34.945827 84.322 -129.3789
35.199059 84.410 -129.8648
35.454126 84.499 -130.3439
35.711041 84.588 -130.8123
35.969818 84.676 -131.2665
36.230470 84.765 -131.7042
36.493011 84.853 -132.1239
36.757455 84.940 -132.5256
37.023814 85.026 -132.9106
37.292104 85.112 -133.2814
37.562338 85.197 -133.6413
37.834530 85.281 -133.9946
38.108695 85.363 -134.3452
38.384846 85.444 -134.6975
38.662999 85.522 -135.0549
38.943167 85.598 -135.4203
39.225365 85.672 -135.7956
39.509608 85.744 -136.1818
39.795911 85.812 -136.5793
40.084289 85.879 -136.9879
40.374756 85.943 -137.4075
40.667328 86.006 -137.8378
40.962020 86.068 -138.2785
41.258848 86.130 -138.7296
41.557827 86.191 -139.1905
41.858972 86.252 -139.6603
42.162299 86.312 -140.1373
42.467824 86.372 -140.6193
42.775564 86.432 -141.1033
43.085533 86.490 -141.5861
43.397749 86.546 -142.0647
43.712227 86.600 -142.5368
44.028983 86.650 -143.0010
44.348036 86.697 -143.4567
44.669400 86.739 -143.9045
44.993093 86.778 -144.3454
45.319131 86.812 -144.7815
45.647532 86.842 -145.2152
45.978313 86.870 -145.6491
46.311491 86.896 -146.0859
46.647083 86.921 -146.5282
46.985107 86.945 -146.9774
47.325581 86.970 -147.4341
47.668521 86.994 -147.8973
48.013947 87.019 -148.3652
48.361876 87.042 -148.8354
48.712326 87.065 -149.3058
49.065315 87.087 -149.7750
49.420863 87.107 -150.2430
49.778987 87.127 -150.7106
50.139706 87.145 -151.1789
50.503039 87.161 -151.6488
50.869005 87.176 -152.1206
51.237623 87.189 -152.5941
51.608912 87.200 -153.0688
51.982891 87.209 -153.5445
52.359580 87.217 -154.0216
52.739000 87.223 -154.5006
53.121168 87.227 -154.9819
53.506106 87.231 -155.4656
53.893833 87.234 -155.9508
54.284370 87.237 -156.4364
54.677737 87.239 -156.9208
55.073955 87.243 -157.4026
55.473043 87.248 -157.8806
55.875024 87.255 -158.3541
56.279917 87.264 -158.8224
56.687745 87.275 -159.2851
57.098527 87.289 -159.7420
57.512287 87.305 -160.1930
57.929045 87.323 -160.6386
58.348822 87.342 -161.0802
58.771642 87.360 -161.5205
59.197525 87.377 -161.9622
59.626495 87.391 -162.4083
60.058573 87.401 -162.8601
60.493782 87.406 -163.3176
60.932145 87.407 -163.7794
61.373685 87.406 -164.2437
61.818424 87.403 -164.7090
62.266386 87.401 -165.1743
62.717593 87.401 -165.6389
63.172071 87.403 -166.1022
63.629842 87.409 -166.5632
64.090930 87.417 -167.0213
64.555359 87.428 -167.4760
65.023154 87.442 -167.9271
65.494339 87.458 -168.3744
65.968938 87.475 -168.8176
66.446976 87.493 -169.2562
66.928478 87.511 -169.6896
67.413469 87.530 -170.1173
67.901975 87.548 -170.5393
68.394021 87.566 -170.9558
68.889632 87.583 -171.3672
69.388835 87.598 -171.7740
69.891655 87.612 -172.1765
70.398118 87.623 -172.5750
70.908252 87.633 -172.9698
71.422083 87.641 -173.3611
71.939636 87.646 -173.7493
72.460941 87.650 -174.1346
72.986023 87.651 -174.5173
73.514909 87.649 -174.8974
74.047629 87.646 -175.2750
74.584208 87.639 -175.6494
75.124676 87.630 -176.0200
75.669061 87.619 -176.3857
76.217390 87.606 -176.7457
76.769692 87.591 -177.0994
77.325997 87.574 -177.4471
77.886333 87.556 -177.7894
78.450730 87.537 -178.1277
79.019216 87.517 -178.4632
79.591822 87.495 -178.7971
80.168577 87.473 -179.1302
80.749512 87.450 -179.4629
81.334656 87.426 -179.7954
81.924040 87.401 179.8727
82.517696 87.376 179.5421
83.115653 87.351 179.2132
83.717943 87.325 178.8870
84.324598 87.299 178.5641
84.935649 87.272 178.2450
85.551128 87.245 177.9296
86.171066 87.218 177.6179
86.795497 87.190 177.3094
87.424453 87.163 177.0037
88.057967 87.135 176.7002
88.696071 87.106 176.3988
89.338800 87.078 176.0995
89.986185 87.049 175.8022
90.638262 87.019 175.5072
91.295065 86.990 175.2146
91.956626 86.960 174.9246
92.622982 86.930 174.6374
93.294166 86.900 174.3530
93.970214 86.869 174.0714
94.651161 86.839 173.7926
95.337042 86.809 173.5166
96.027894 86.779 173.2437
96.723752 86.750 172.9740
97.424652 86.720 172.7079
98.130631 86.691 172.4457
98.841726 86.661 172.1871
99.557974 86.632 171.9317
100.279412 86.604 171.6788
101.006078 86.577 171.4277
101.738010 86.550 171.1778
102.475245 86.524 170.9286
103.217823 86.499 170.6801
103.965782 86.475 170.4323
104.719161 86.452 170.1855
105.477999 86.429 169.9399
106.242336 86.408 169.6955
107.012212 86.388 169.4528
107.787666 86.368 169.2122
108.568740 86.350 168.9741
109.355474 86.332 168.7390
110.147909 86.316 168.5069
110.946086 86.300 168.2779
111.750047 86.284 168.0519
112.559834 86.270 167.8291
113.375489 86.256 167.6095
114.197055 86.243 167.3929
115.024574 86.230 167.1792
115.858089 86.218 166.9678
116.697645 86.207 166.7576
117.543284 86.195 166.5479
118.395051 86.184 166.3376
119.252990 86.172 166.1261
120.117147 86.160 165.9128
120.987565 86.147 165.6978
121.864291 86.134 165.4814
122.747370 86.119 165.2642
123.636848 86.103 165.0470
124.532771 86.086 164.8306
125.435187 86.068 164.6159
126.344142 86.048 164.4039
127.259684 86.027 164.1952
128.181860 86.004 163.9902
129.110718 85.980 163.7889
130.046308 85.955 163.5905
130.988677 85.928 163.3943
131.937875 85.899 163.1991
132.893951 85.869 163.0045
133.856956 85.836 162.8103
134.826938 85.802 162.6172
135.803950 85.765 162.4265
136.788041 85.726 162.2399
137.779264 85.685 162.0596
138.777669 85.643 161.8876
139.783309 85.598 161.7256
140.796237 85.553 161.5748
141.816504 85.506 161.4360
142.844165 85.459 161.3093
143.879273 85.410 161.1950
144.921881 85.361 161.0930
145.972045 85.311 161.0033
147.029819 85.261 160.9263
148.095257 85.210 160.8620
149.168417 85.159 160.8104
150.249353 85.108 160.7711
151.338121 85.056 160.7435
152.434780 85.004 160.7269
153.539385 84.953 160.7211
154.651995 84.902 160.7261
155.772667 84.851 160.7422
156.901460 84.802 160.7702
158.038432 84.754 160.8105
159.183644 84.708 160.8635
160.337154 84.664 160.9292
161.499023 84.621 161.0077
162.669312 84.581 161.0991
163.848081 84.543 161.2032
165.035392 84.507 161.3198
166.231306 84.474 161.4483
167.435887 84.443 161.5878
168.649196 84.414 161.7371
169.871298 84.387 161.8947
171.102255 84.364 162.0586
172.342133 84.344 162.2266
173.590995 84.327 162.3963
174.848907 84.313 162.5649
176.115934 84.302 162.7294
177.392143 84.294 162.8870
178.677599 84.289 163.0350
179.972371 84.287 163.1708
181.276525 84.286 163.2927
182.590129 84.287 163.3989
183.913252 84.288 163.4885
185.245964 84.291 163.5611
186.588332 84.294 163.6167
187.940428 84.297 163.6558
189.302322 84.301 163.6791
190.674085 84.304 163.6877
192.055788 84.306 163.6829
193.447503 84.309 163.6663
194.849303 84.310 163.6398
196.261262 84.311 163.6052
197.683452 84.312 163.5638
199.115948 84.312 163.5165
200.558824 84.312 163.4639
202.012156 84.312 163.4056
203.476019 84.311 163.3414
204.950490 84.310 163.2701
206.435646 84.309 163.1906
207.931564 84.307 163.1013
209.438322 84.304 163.0013
210.955998 84.301 162.8910
212.484672 84.298 162.7715
214.024424 84.294 162.6450
215.575333 84.290 162.5135
217.137481 84.287 162.3795
218.710948 84.283 162.2444
220.295818 84.279 162.1095
221.892172 84.275 161.9757
223.500094 84.272 161.8434
225.119668 84.269 161.7130
226.750978 84.266 161.5840
228.394109 84.263 161.4561
230.049147 84.261 161.3288
231.716178 84.260 161.2015
233.395289 84.260 161.0736
235.086567 84.260 160.9448
236.790102 84.261 160.8148
238.505980 84.262 160.6838
240.234293 84.264 160.5523
241.975130 84.266 160.4212
243.728581 84.268 160.2913
245.494739 84.270 160.1631
247.273695 84.271 160.0370
249.065542 84.271 159.9133
250.870374 84.271 159.7924
252.688284 84.271 159.6746
254.519367 84.270 159.5604
256.363720 84.269 159.4501
258.221437 84.268 159.3440
260.092616 84.267 159.2419
261.977354 84.267 159.1433
263.875750 84.266 159.0476
265.787903 84.267 158.9538
267.713911 84.268 158.8607
269.653877 84.269 158.7674
271.607900 84.271 158.6731
273.576083 84.274 158.5778
275.558528 84.276 158.4815
277.555338 84.279 158.3848
279.566619 84.281 158.2878
281.592474 84.283 158.1908
283.633009 84.286 158.0942
285.688331 84.289 157.9987
287.758546 84.292 157.9055
289.843763 84.296 157.8160
291.944090 84.300 157.7316
294.059638 84.305 157.6532
296.190515 84.311 157.5815
298.336833 84.318 157.5162
300.498705 84.326 157.4569
302.676243 84.334 157.4024
304.869559 84.342 157.3511
307.078770 84.351 157.3017
309.303989 84.359 157.2528
311.545334 84.368 157.2032
313.802919 84.376 157.1521
316.076865 84.384 157.0991
318.367288 84.392 157.0439
320.674309 84.400 156.9865
322.998047 84.407 156.9272
325.338624 84.415 156.8665
327.696162 84.422 156.8049
330.070783 84.428 156.7433
332.462612 84.435 156.6827
334.871773 84.441 156.6236
337.298392 84.447 156.5666
339.742595 84.453 156.5115
342.204510 84.458 156.4578
344.684265 84.462 156.4046
347.181989 84.465 156.3511
349.697813 84.467 156.2960
352.231868 84.468 156.2385
354.784285 84.468 156.1777
357.355198 84.467 156.1132
359.944741 84.465 156.0450
362.553049 84.462 155.9737
365.180258 84.457 155.9002
367.826505 84.452 155.8260
370.491927 84.445 155.7523
373.176665 84.437 155.6799
375.880856 84.429 155.6094
378.604644 84.420 155.5410
381.348169 84.410 155.4746
384.111575 84.399 155.4097
386.895006 84.388 155.3451
389.698607 84.377 155.2794
392.522524 84.366 155.2111
395.366904 84.354 155.1387
398.231895 84.342 155.0616
401.117648 84.329 154.9801
404.024312 84.315 154.8950
406.952038 84.300 154.8079
409.900981 84.284 154.7201
412.871292 84.266 154.6333
415.863128 84.246 154.5493
418.876643 84.224 154.4704
421.911996 84.199 154.3993
424.969344 84.172 154.3398
428.048847 84.143 154.2957
431.150666 84.111 154.2703
434.274961 84.078 154.2654
437.421897 84.045 154.2804
440.591636 84.012 154.3120
443.784345 83.979 154.3545
447.000189 83.948 154.4015
450.239337 83.919 154.4468
453.501956 83.891 154.4857
456.788219 83.864 154.5152
460.098294 83.839 154.5340
463.432356 83.814 154.5421
466.790578 83.790 154.5406
470.173135 83.766 154.5307
473.580203 83.743 154.5138
477.011961 83.720 154.4909
480.468586 83.697 154.4631
483.950259 83.674 154.4309
487.457163 83.652 154.3950
490.989478 83.631 154.3557
494.547390 83.610 154.3135
498.131084 83.590 154.2689
501.740748 83.571 154.2222
505.376568 83.552 154.1740
509.038735 83.535 154.1250
512.727439 83.520 154.0760
516.442874 83.506 154.0278
520.185232 83.493 153.9814
523.954708 83.483 153.9379
527.751500 83.475 153.8979
531.575805 83.468 153.8622
535.427822 83.464 153.8309
539.307753 83.463 153.8036
543.215800 83.463 153.7794
547.152165 83.466 153.7573
551.117055 83.471 153.7359
555.110677 83.478 153.7142
559.133237 83.487 153.6916
563.184947 83.498 153.6680
567.266018 83.510 153.6436
571.376661 83.524 153.6190
575.517092 83.539 153.5943
579.687526 83.555 153.5698
583.888181 83.572 153.5453
588.119275 83.589 153.5207
592.381030 83.607 153.4954
596.673667 83.626 153.4690
600.997410 83.644 153.4409
605.352485 83.663 153.4109
609.739119 83.681 153.3788
614.157540 83.699 153.3443
618.607979 83.717 153.3072
623.090667 83.733 153.2675
627.605839 83.749 153.2249
632.153730 83.764 153.1796
636.734576 83.777 153.1314
641.348617 83.789 153.0803
645.996094 83.799 153.0258
650.677248 83.807 152.9677
655.392323 83.814 152.9059
660.141566 83.818 152.8406
664.925224 83.821 152.7723
669.743546 83.821 152.7025
674.596784 83.819 152.6329
679.485191 83.816 152.5659
684.409020 83.810 152.5040
689.368530 83.803 152.4493
694.363979 83.796 152.4025
699.395626 83.788 152.3631
704.463736 83.781 152.3285
709.568570 83.773 152.2952
714.710396 83.766 152.2598
719.889483 83.759 152.2194
725.106099 83.750 152.1726
730.360516 83.741 152.1189
735.653010 83.731 152.0584
740.983855 83.719 151.9919
746.353329 83.706 151.9202
751.761713 83.690 151.8440
757.209288 83.673 151.7639
762.696339 83.654 151.6806
768.223151 83.634 151.5950
773.790013 83.612 151.5080
779.397214 83.589 151.4207
785.045047 83.565 151.3341
790.733808 83.540 151.2489
796.463791 83.514 151.1653
802.235296 83.489 151.0833
808.048623 83.463 151.0022
813.904077 83.438 150.9214
819.801961 83.414 150.8402
825.742584 83.391 150.7574
831.726255 83.369 150.6723
837.753287 83.349 150.5834
843.823992 83.330 150.4894
849.938689 83.313 150.3892
856.097695 83.296 150.2818
862.301332 83.281 150.1664
868.549922 83.266 150.0430
874.843793 83.251 149.9120
881.183272 83.237 149.7744
887.568689 83.222 149.6317
894.000378 83.207 149.4859
900.478673 83.192 149.3391
907.003913 83.177 149.1932
913.576437 83.163 149.0497
920.196588 83.149 148.9097
926.864712 83.135 148.7741
933.581156 83.124 148.6435
940.346270 83.113 148.5182
947.160407 83.105 148.3982
954.023921 83.099 148.2830
960.937172 83.095 148.1717
967.900519 83.095 148.0627
974.914325 83.098 147.9536
981.978956 83.104 147.8419
989.094780 83.113 147.7244
996.262169 83.126 147.5987
1003.481495 83.141 147.4625
1010.753136 83.159 147.3147
1018.077470 83.178 147.1547
1025.454879 83.198 146.9830
1032.885748 83.219 146.8005
1040.370463 83.240 146.6086
1047.909417 83.262 146.4090
1055.503000 83.283 146.2035
1063.151610 83.303 145.9944
1070.855645 83.323 145.7837
1078.615506 83.342 145.5734
1086.431599 83.360 145.3653
1094.304330 83.376 145.1610
1102.234110 83.392 144.9617
1110.221353 83.406 144.7680
1118.266475 83.419 144.5806
1126.369895 83.431 144.3997
1134.532035 83.442 144.2256
1142.753322 83.451 144.0588
1151.034184 83.459 143.8995
1159.375052 83.466 143.7479
1167.776361 83.472 143.6044
1176.238550 83.476 143.4688
1184.762060 83.480 143.3409
1193.347334 83.484 143.2202
1201.994821 83.487 143.1061
1210.704971 83.489 142.9988
1219.478238 83.490 142.8984
1228.315080 83.491 142.8058
1237.215957 83.492 142.7222
1246.181334 83.491 142.6487
1255.211678 83.491 142.5865
1264.307459 83.489 142.5361
1273.469152 83.488 142.4983
1282.697235 83.487 142.4734
1291.992188 83.486 142.4616
1301.354495 83.486 142.4625
1310.784647 83.487 142.4755
1320.283132 83.488 142.4993
1329.850448 83.490 142.5328
1339.487093 83.494 142.5746
1349.193569 83.498 142.6238
1358.970381 83.503 142.6793
1368.818041 83.510 142.7406
1378.737061 83.517 142.8069
1388.727958 83.526 142.8779
1398.791253 83.535 142.9533
1408.927471 83.546 143.0330
1419.137140 83.558 143.1177
1429.420793 83.571 143.2087
1439.778965 83.585 143.3076
1450.212197 83.601 143.4157
1460.721033 83.618 143.5341
1471.306019 83.636 143.6633
1481.967709 83.657 143.8033
1492.706658 83.679 143.9539
1503.523426 83.703 144.1147
1514.418576 83.728 144.2845
1525.392678 83.754 144.4619
1536.446302 83.781 144.6456
1547.580025 83.807 144.8349
1558.794428 83.833 145.0298
1570.090095 83.856 145.2316
1581.467615 83.877 145.4425
1592.927581 83.895 145.6656
1604.470591 83.909 145.9048
1616.097246 83.921 146.1639
1627.808153 83.930 146.4466
1639.603922 83.937 146.7556
1651.485168 83.944 147.0917
1663.452510 83.950 147.4540
1675.506573 83.957 147.8390
1687.647984 83.965 148.2414
1699.877377 83.976 148.6549
1712.195390 83.990 149.0726
1724.602663 84.006 149.4875
1737.099845 84.025 149.8934
1749.687587 84.046 150.2848
1762.366544 84.069 150.6585
1775.137379 84.092 151.0128
1788.000756 84.116 151.3481
1800.957346 84.139 151.6660
1814.007826 84.162 151.9693
1827.152874 84.183 152.2612
1840.393177 84.204 152.5444
1853.729425 84.223 152.8209
1867.162312 84.242 153.0910
1880.692540 84.259 153.3540
1894.320813 84.276 153.6081
1908.047843 84.293 153.8512
1921.874344 84.308 154.0815
1935.801038 84.321 154.2983
1949.828650 84.333 154.5010
1963.957912 84.342 154.6898
1978.189561 84.349 154.8650
1992.524338 84.355 155.0267
2006.962991 84.358 155.1747
2021.506272 84.359 155.3089
2036.154940 84.357 155.4292
2050.909758 84.354 155.5358
2065.771495 84.349 155.6289
2080.740927 84.342 155.7089
2095.818833 84.334 155.7759
2111.006001 84.325 155.8300
2126.303220 84.314 155.8708
2141.711290 84.303 155.8981
2157.231013 84.290 155.9120
2172.863198 84.277 155.9132
2188.608660 84.263 155.9027
2204.468221 84.248 155.8821
2220.442706 84.232 155.8530
2236.532950 84.217 155.8170
2252.739789 84.200 155.7750
2269.064070 84.184 155.7273
2285.506644 84.169 155.6736
2302.068367 84.154 155.6130
2318.750104 84.140 155.5444
2335.552723 84.127 155.4665
2352.477101 84.115 155.3777
2369.524119 84.105 155.2769
2386.694668 84.095 155.1625
2403.989641 84.087 155.0329
2421.409941 84.080 154.8863
2438.956476 84.075 154.7204
2456.630160 84.070 154.5333
2474.431915 84.065 154.3237
2492.362668 84.059 154.0911
2510.423356 84.053 153.8367
2528.614918 84.044 153.5635
2546.938304 84.032 153.2763
2565.394469 84.017 152.9813
2583.984375 83.998 152.6860
2602.708991 83.974 152.3986
2621.569293 83.946 152.1271
2640.566265 83.914 151.8796
2659.700897 83.878 151.6632
2678.974186 83.840 151.4837
2698.387137 83.800 151.3453
2717.940763 83.759 151.2506
2737.636082 83.718 151.2005
2757.474121 83.678 151.1945
2777.455915 83.638 151.2314
2797.582506 83.600 151.3099
2817.854942 83.563 151.4285
2838.274281 83.528 151.5867
2858.841586 83.494 151.7847
2879.557931 83.462 152.0237
2900.424394 83.430 152.3060
2921.442065 83.399 152.6339
2942.612039 83.370 153.0105
2963.935418 83.342 153.4385
2985.413316 83.315 153.9203
3007.046852 83.291 154.4570
3028.837153 83.270 155.0479
3050.785356 83.252 155.6906
3072.892604 83.239 156.3802
3095.160050 83.230 157.1097
3117.588856 83.227 157.8703
3140.180190 83.229 158.6519
3162.935230 83.236 159.4435
3185.855163 83.247 160.2338
3208.941182 83.263 161.0117
3232.194493 83.282 161.7666
3255.616307 83.303 162.4891
3279.207844 83.325 163.1714
3302.970336 83.348 163.8083
3326.905021 83.368 164.3973
3351.013146 83.387 164.9390
3375.295969 83.401 165.4367
3399.754755 83.411 165.8959
3424.390779 83.418 166.3224
3449.205326 83.420 166.7212
3474.199690 83.420 167.0950
3499.375173 83.418 167.4432
3524.733088 83.416 167.7621
3550.274757 83.414 168.0452
3576.001511 83.412 168.2849
3601.914692 83.410 168.4738
3628.015651 83.407 168.6064
3654.305748 83.403 168.6804
3680.786354 83.396 168.6970
3707.458849 83.384 168.6613
3734.324624 83.367 168.5820
3761.385080 83.342 168.4702
3788.641627 83.310 168.3393
3816.095686 83.271 168.2034
3843.748688 83.223 168.0770
3871.602076 83.169 167.9736
3899.657300 83.108 167.9058
3927.915825 83.042 167.8842
3956.379122 82.972 167.9175
3985.048676 82.899 168.0123
4013.925981 82.826 168.1728
4043.012544 82.752 168.4010
4072.309879 82.680 168.6973
4101.819515 82.611 169.0605
4131.542990 82.544 169.4881
4161.481854 82.481 169.9775
4191.637667 82.421 170.5258
4222.012001 82.364 171.1300
4252.606441 82.311 171.7876
4283.422580 82.262 172.4962
4314.462026 82.215 173.2532
4345.726396 82.171 174.0558
4377.217321 82.131 174.9009
4408.936442 82.093 175.7850
4440.885413 82.058 176.7043
4473.065899 82.026 177.6551
4505.479579 81.996 178.6334
4538.128141 81.969 179.6350
4571.013288 81.946 -179.3441
4604.136735 81.926 -178.3085
4637.500207 81.909 -177.2628
4671.105446 81.897 -176.2122
4704.954201 81.888 -175.1620
4739.048239 81.885 -174.1177
4773.389336 81.886 -173.0847
4807.979283 81.893 -172.0683
4842.819883 81.904 -171.0731
4877.912952 81.920 -170.1031
4913.260320 81.941 -169.1615
4948.863830 81.967 -168.2507
4984.725337 81.996 -167.3719
5020.846712 82.029 -166.5250
5057.229836 82.065 -165.7088
5093.876609 82.104 -164.9201
5130.788938 82.144 -164.1542
5167.968750 82.185 -163.4047
5205.417982 82.227 -162.6631
5243.138586 82.269 -161.9192
5281.132530 82.312 -161.1615
5319.401793 82.356 -160.3775
5357.948371 82.402 -159.5547
5396.774274 82.451 -158.6804
5435.881525 82.505 -157.7431
5475.272163 82.566 -156.7323
5514.948243 82.637 -155.6397
5554.911831 82.719 -154.4594
5595.165012 82.817 -153.1886
5635.709884 82.934 -151.8289
5676.548561 83.072 -150.3870
5717.683172 83.235 -148.8761
5759.115861 83.426 -147.3163
5800.848789 83.646 -145.7353
5842.884130 83.896 -144.1673
5885.224077 84.176 -142.6520
5927.870837 84.484 -141.2321
5970.826633 84.816 -139.9507
6014.093704 85.169 -138.8478
6057.674306 85.538 -137.9583
6101.570711 85.917 -137.3098
6145.785208 86.299 -136.9219
6190.320101 86.680 -136.8053
6235.177712 87.053 -136.9624
6280.360380 87.412 -137.3877
6325.870460 87.754 -138.0688
6371.710325 88.074 -138.9876
6417.882365 88.369 -140.1216
6464.388986 88.636 -141.4458
6511.232613 88.875 -142.9342
6558.415689 89.084 -144.5618
6605.940673 89.265 -146.3060
6653.810042 89.418 -148.1475
6702.026292 89.544 -150.0715
6750.591937 89.645 -152.0671
6799.509509 89.721 -154.1278
6848.781558 89.775 -156.2502
6898.410653 89.806 -158.4331
6948.399380 89.815 -160.6767
6998.750346 89.801 -162.9812
7049.466176 89.765 -165.3465
7100.549514 89.705 -167.7709
7152.003023 89.619 -170.2514
7203.829385 89.509 -172.7836
7256.031302 89.371 -175.3620
7308.611496 89.207 -177.9805
7361.572708 89.014 179.3675
7414.917698 88.794 176.6885
7468.649249 88.545 173.9888
7522.770160 88.267 171.2737
7577.283253 87.961 168.5482
7632.191371 87.627 165.8156
7687.497376 87.266 163.0781
7743.204151 86.877 160.3358
7799.314600 86.461 157.5868
7855.831649 86.020 154.8265
7912.758244 85.554 152.0468
7970.097352 85.066 149.2360
8027.851962 84.556 146.3773
8086.025087 84.027 143.4485
8144.619758 83.481 140.4202
8203.639030 82.921 137.2555
8263.085980 82.351 133.9082
8322.963708 81.775 130.3239
8383.275334 81.198 126.4390
8444.024002 80.624 122.1831
8505.212881 80.060 117.4807
8566.845160 79.514 112.2552
8628.924051 78.993 106.4364
8691.452792 78.508 99.9728
8754.434642 78.072 92.8486
8817.872884 77.700 85.1068
8881.770826 77.406 76.8677
8946.131799 77.204 68.3307
9010.959157 77.103 59.7487
9076.256282 77.109 51.3782
9142.026576 77.219 43.4253
9208.273470 77.425 36.0146
9275.000415 77.711 29.1843
9342.210891 78.062 22.9061
9409.908403 78.460 17.1096
9478.096478 78.887 11.7042
9546.778672 79.329 6.5957
9615.958566 79.770 1.6950
9685.639765 80.199 -3.0757
9755.825904 80.605 -7.7810
9826.520640 80.978 -12.4709
9897.727659 81.309 -17.1812
9969.450674 81.590 -21.9325
10041.693423 81.814 -26.7319
10114.459673 81.975 -31.5735
10187.753217 82.069 -36.4403
10261.577877 82.093 -41.3065
10335.937500 82.044 -46.1407
10410.835964 81.923 -50.9088
10486.277173 81.731 -55.5769
10562.265060 81.470 -60.1125
10638.803587 81.141 -64.4854
10715.896743 80.747 -68.6664
10793.548548 80.292 -72.6283
10871.763050 79.777 -76.3435
10950.544327 79.206 -79.7859
11029.896485 78.581 -82.9304
11109.823662 77.905 -85.7555
11190.330024 77.184 -88.2456
11271.419768 76.422 -90.3933
11353.097122 75.623 -92.2025
11435.366344 74.793 -93.6913
11518.231722 73.940 -94.8955
11601.697577 73.071 -95.8715
11685.768261 72.193 -96.6979
11770.448155 71.317 -97.4759
11855.741674 70.451 -98.3260
11941.653265 69.607 -99.3839
12028.187408 68.797 -100.7947
12115.348612 68.030 -102.7077
12203.141422 67.318 -105.2723
12291.570415 66.668 -108.6332
12380.640201 66.083 -112.9235
12470.355424 65.560 -118.2524
12560.720760 65.091 -124.6852
12651.740920 64.663 -132.2100
12743.420650 64.262 -140.6973
12835.764729 63.874 -149.8669
12928.777972 63.491 -159.2939
13022.465227 63.109 -168.4752
13116.831378 62.731 -176.9405
13211.881345 62.368 175.6528
13307.620084 62.033 169.4846
13404.052584 61.746 164.5930
13501.183875 61.526 160.9186
13599.019019 61.391 158.3451
13697.563116 61.356 156.7260
13796.821305 61.426 155.8975
13896.798760 61.603 155.6839
13997.500692 61.878 155.9017
14098.932352 62.239 156.3660
14201.099028 62.668 156.9012
14304.006046 63.146 157.3551
14407.658770 63.656 157.6082
14512.062604 64.179 157.5791
14617.222992 64.703 157.2217
14723.145416 65.214 156.5172
14829.835397 65.706 155.4655
14937.298497 66.169 154.0773
15045.540320 66.599 152.3702
15154.566507 66.990 150.3672
15264.382743 67.340 148.0971
15374.994752 67.645 145.5944
15486.408302 67.908 142.8965
15598.629201 68.130 140.0388
15711.663298 68.319 137.0476
15825.516487 68.480 133.9335
15940.194703 68.619 130.6885
16055.703925 68.741 127.2882
16172.050174 68.845 123.7000
16289.239516 68.927 119.8920
16407.278061 68.980 115.8439
16526.171961 68.998 111.5500
16645.927415 68.973 107.0204
16766.550667 68.901 102.2743
16888.048005 68.779 97.3351
17010.425762 68.607 92.2261
17133.690320 68.383 86.9682
17257.848103 68.109 81.5793
17382.905584 67.786 76.0751
17508.869284 67.414 70.4694
17635.745768 66.994 64.7766
17763.541652 66.527 59.0112
17892.263597 66.012 53.1865
18021.918315 65.454 47.3110
18152.512564 64.857 41.3827
18284.053153 64.229 35.3810
18416.546939 63.583 29.2592
18550.000830 62.934 22.9356
18684.421783 62.302 16.2927
18819.816805 61.707 9.1853
18956.192956 61.169 1.4647
19093.557344 60.702 -6.9701
19231.917131 60.314 -16.0888
19371.279531 60.006 -25.6152
19511.651807 59.772 -34.9382
19653.041280 59.606 -43.1522
19795.455318 59.500 -49.2792
19938.901348 59.448 -52.5453
