* Measurement data measured by REW V5.31.3
* Source: EXCL: Headset (USB-C to 3.5mm Headphone Jack Adapter), MICROPHONE (Master Volume), 0, volume: 0.260
* Format: 256k Log Swept Sine, 1 sweep at -12.0 dBFS with no timing reference
* Dated: Feb 14, 2025 8:29:03 PM
* REW Settings:
*  C-weighting compensation: Off
*  Target level: 75.0 dB
* Note: ; 
* Measurement: Satyr 3 R10
* Smoothing: 1/6 octave
* Frequency Step: 96 ppo
* Start Frequency: 20.0 Hz
*
* Freq(Hz) SPL(dB) Phase(degrees)
20.141602 91.544 -26.0912
20.287556 91.571 -26.3504
20.434568 91.604 -26.6947
20.582645 91.640 -27.1113
20.731796 91.675 -27.5862
20.882027 91.706 -28.1057
21.033346 91.730 -28.6569
21.185763 91.744 -29.2286
21.339284 91.749 -29.8115
21.493917 91.744 -30.3987
21.649671 91.730 -30.9854
21.806553 91.708 -31.5694
21.964572 91.681 -32.1505
22.123737 91.650 -32.7305
22.284054 91.619 -33.3125
22.445534 91.588 -33.9005
22.608183 91.561 -34.4988
22.772012 91.539 -35.1113
22.937027 91.523 -35.7407
23.103238 91.514 -36.3884
23.270654 91.513 -37.0541
23.439282 91.520 -37.7357
23.609133 91.538 -38.4299
23.780215 91.565 -39.1320
23.952536 91.603 -39.8369
24.126106 91.652 -40.5396
24.300934 91.712 -41.2356
24.477028 91.784 -41.9219
24.654399 91.867 -42.5964
24.833055 91.960 -43.2589
25.013005 92.063 -43.9104
25.194260 92.172 -44.5529
25.376828 92.286 -45.1890
25.560719 92.403 -45.8213
25.745942 92.519 -46.4521
25.932508 92.633 -47.0832
26.120426 92.743 -47.7154
26.309705 92.847 -48.3490
26.500356 92.943 -48.9836
26.692388 93.032 -49.6186
26.885812 93.112 -50.2538
27.080638 93.185 -50.8890
27.276876 93.252 -51.5247
27.474535 93.313 -52.1620
27.673627 93.372 -52.8021
27.874161 93.429 -53.4468
28.076149 93.489 -54.0972
28.279600 93.555 -54.7543
28.484526 93.628 -55.4181
28.690937 93.713 -56.0880
28.898843 93.812 -56.7624
29.108256 93.927 -57.4391
29.319186 94.058 -58.1156
29.531645 94.206 -58.7891
29.745644 94.370 -59.4573
29.961193 94.546 -60.1180
30.178304 94.731 -60.7701
30.396989 94.922 -61.4127
30.617258 95.111 -62.0458
30.839123 95.295 -62.6700
31.062596 95.468 -63.2861
31.287688 95.626 -63.8955
31.514412 95.763 -64.4997
31.742778 95.877 -65.1005
31.972800 95.965 -65.6996
32.204488 96.024 -66.2989
32.437855 96.055 -66.9001
32.672913 96.057 -67.5044
32.909674 96.030 -68.1127
33.148151 95.977 -68.7254
33.388356 95.901 -69.3423
33.630302 95.803 -69.9625
33.874001 95.689 -70.5848
34.119466 95.562 -71.2078
34.366710 95.426 -71.8301
34.615745 95.287 -72.4507
34.866585 95.150 -73.0686
35.119243 95.018 -73.6836
35.373731 94.895 -74.2954
35.630064 94.786 -74.9041
35.888254 94.694 -75.5098
36.148315 94.621 -76.1125
36.410261 94.569 -76.7122
36.674104 94.539 -77.3089
36.939860 94.532 -77.9029
37.207542 94.549 -78.4947
37.477163 94.589 -79.0854
37.748738 94.653 -79.6766
38.022281 94.740 -80.2699
38.297806 94.849 -80.8673
38.575327 94.979 -81.4707
38.854860 95.129 -82.0812
39.136419 95.297 -82.6995
39.420017 95.483 -83.3256
39.705671 95.685 -83.9587
39.993395 95.902 -84.5978
40.283203 96.133 -85.2416
40.575112 96.377 -85.8889
40.869136 96.633 -86.5393
41.165290 96.898 -87.1927
41.463591 97.171 -87.8494
41.764053 97.451 -88.5105
42.066693 97.735 -89.1768
42.371525 98.020 -89.8491
42.678567 98.305 -90.5279
42.987834 98.586 -91.2133
43.299341 98.861 -91.9052
43.613106 99.128 -92.6033
43.929145 99.384 -93.3072
44.247473 99.627 -94.0169
44.568109 99.856 -94.7324
44.891068 100.070 -95.4537
45.216367 100.267 -96.1812
45.544023 100.446 -96.9148
45.874054 100.608 -97.6546
46.206476 100.752 -98.4004
46.541307 100.878 -99.1519
46.878565 100.987 -99.9084
47.218266 101.078 -100.6690
47.560429 101.153 -101.4327
47.905072 101.213 -102.1982
48.252212 101.259 -102.9645
48.601867 101.291 -103.7307
48.954056 101.311 -104.4960
49.308798 101.322 -105.2604
49.666109 101.324 -106.0239
50.026010 101.320 -106.7867
50.388520 101.311 -107.5492
50.753656 101.299 -108.3115
51.121437 101.286 -109.0740
51.491884 101.272 -109.8368
51.865016 101.260 -110.6000
52.240851 101.250 -111.3641
52.619410 101.243 -112.1295
53.000712 101.238 -112.8964
53.384777 101.237 -113.6650
53.771625 101.237 -114.4352
54.161276 101.240 -115.2065
54.553751 101.244 -115.9782
54.949070 101.248 -116.7496
55.347254 101.250 -117.5197
55.748323 101.252 -118.2877
56.152298 101.250 -119.0532
56.559201 101.246 -119.8159
56.969052 101.238 -120.5760
57.381873 101.226 -121.3336
57.797686 101.210 -122.0892
58.216512 101.191 -122.8432
58.638373 101.167 -123.5960
59.063291 101.141 -124.3480
59.491288 101.112 -125.0995
59.922386 101.080 -125.8507
60.356608 101.046 -126.6015
60.793977 101.011 -127.3519
61.234515 100.974 -128.1017
61.678246 100.935 -128.8504
62.125192 100.896 -129.5978
62.575377 100.857 -130.3434
63.028824 100.818 -131.0868
63.485557 100.779 -131.8276
63.945599 100.741 -132.5657
64.408975 100.704 -133.3008
64.875709 100.668 -134.0330
65.345825 100.635 -134.7624
65.819348 100.603 -135.4892
66.296302 100.573 -136.2133
66.776713 100.546 -136.9347
67.260604 100.522 -137.6532
67.748002 100.499 -138.3683
68.238932 100.479 -139.0797
68.733420 100.460 -139.7870
69.231490 100.443 -140.4898
69.733170 100.427 -141.1877
70.238485 100.412 -141.8803
70.747463 100.397 -142.5672
71.260128 100.383 -143.2478
71.776508 100.370 -143.9214
72.296630 100.357 -144.5875
72.820521 100.344 -145.2457
73.348209 100.331 -145.8957
73.879720 100.319 -146.5376
74.415083 100.306 -147.1717
74.954326 100.293 -147.7985
75.497475 100.279 -148.4185
76.044561 100.265 -149.0322
76.595612 100.250 -149.6400
77.150655 100.232 -150.2422
77.709720 100.213 -150.8388
78.272837 100.192 -151.4296
78.840034 100.167 -152.0144
79.411342 100.139 -152.5925
79.986789 100.107 -153.1634
80.566406 100.072 -153.7264
81.150224 100.032 -154.2813
81.738272 99.989 -154.8279
82.330581 99.943 -155.3664
82.927182 99.895 -155.8971
83.528107 99.846 -156.4205
84.133386 99.797 -156.9372
84.743051 99.752 -157.4475
85.357134 99.712 -157.9520
85.975667 99.681 -158.4512
86.598682 99.662 -158.9456
87.226212 99.658 -159.4357
87.858289 99.673 -159.9221
88.494946 99.709 -160.4051
89.136217 99.769 -160.8853
89.782135 99.853 -161.3629
90.432733 99.961 -161.8379
91.088046 100.089 -162.3101
91.748108 100.237 -162.7793
92.412952 100.397 -163.2451
93.082615 100.567 -163.7069
93.757130 100.739 -164.1641
94.436533 100.909 -164.6158
95.120859 101.072 -165.0614
95.810144 101.223 -165.5001
96.504423 101.359 -165.9316
97.203734 101.479 -166.3555
97.908112 101.582 -166.7717
98.617595 101.667 -167.1803
99.332219 101.735 -167.5814
100.052021 101.789 -167.9751
100.777039 101.830 -168.3615
101.507311 101.860 -168.7409
102.242875 101.881 -169.1137
102.983769 101.896 -169.4804
103.730032 101.905 -169.8415
104.481702 101.910 -170.1977
105.238820 101.909 -170.5496
106.001424 101.903 -170.8978
106.769554 101.890 -171.2426
107.543250 101.869 -171.5842
108.322553 101.838 -171.9225
109.107503 101.796 -172.2574
109.898141 101.742 -172.5887
110.694508 101.674 -172.9161
111.496646 101.592 -173.2395
112.304596 101.497 -173.5585
113.118402 101.390 -173.8729
113.938104 101.272 -174.1828
114.763747 101.146 -174.4878
115.595372 101.013 -174.7881
116.433024 100.876 -175.0838
117.276746 100.736 -175.3750
118.126581 100.597 -175.6619
118.982575 100.460 -175.9445
119.844772 100.324 -176.2229
120.713217 100.192 -176.4971
121.587954 100.062 -176.7672
122.469031 99.935 -177.0330
123.356492 99.808 -177.2945
124.250384 99.682 -177.5518
125.150753 99.554 -177.8048
126.057647 99.423 -178.0536
126.971113 99.287 -178.2982
127.891198 99.146 -178.5388
128.817950 98.999 -178.7754
129.751418 98.846 -179.0083
130.691651 98.686 -179.2375
131.638696 98.521 -179.4632
132.592604 98.352 -179.6854
133.553425 98.181 -179.9042
134.521208 98.011 179.8807
135.496004 97.845 179.6691
136.477864 97.686 179.4613
137.466839 97.538 179.2572
138.462981 97.404 179.0568
139.466340 97.286 178.8600
140.476971 97.186 178.6667
141.494925 97.105 178.4764
142.520256 97.043 178.2888
143.553016 96.996 178.1037
144.593260 96.964 177.9211
145.641043 96.940 177.7413
146.696418 96.923 177.5648
147.759441 96.907 177.3928
148.830166 96.889 177.2264
149.908651 96.866 177.0673
150.994951 96.836 176.9171
152.089123 96.797 176.7775
153.191223 96.751 176.6499
154.301310 96.696 176.5358
155.419441 96.636 176.4363
156.545674 96.570 176.3523
157.680069 96.502 176.2844
158.822683 96.433 176.2329
159.973578 96.365 176.1982
161.132813 96.299 176.1802
162.300447 96.236 176.1793
163.476543 96.177 176.1956
164.661162 96.122 176.2291
165.854364 96.072 176.2800
167.056213 96.028 176.3481
168.266772 95.989 176.4332
169.486102 95.956 176.5349
170.714268 95.930 176.6525
171.951334 95.911 176.7855
173.197364 95.898 176.9329
174.452424 95.893 177.0937
175.716578 95.895 177.2668
176.989893 95.904 177.4507
178.272434 95.920 177.6438
179.564270 95.940 177.8442
180.865467 95.965 178.0498
182.176092 95.993 178.2583
183.496216 96.022 178.4673
184.825905 96.053 178.6742
186.165229 96.085 178.8765
187.514259 96.117 179.0718
188.873065 96.149 179.2576
190.241717 96.182 179.4316
191.620287 96.215 179.5919
193.008847 96.250 179.7365
194.407468 96.287 179.8635
195.816225 96.325 179.9716
197.235190 96.364 -179.9405
198.664438 96.403 -179.8740
200.104042 96.443 -179.8294
201.554078 96.483 -179.8070
203.014622 96.520 -179.8067
204.485750 96.556 -179.8277
205.967538 96.587 -179.8685
207.460064 96.615 -179.9274
208.963405 96.639 179.9976
210.477640 96.658 179.9084
212.002848 96.672 179.8069
213.539108 96.683 179.6949
215.086500 96.689 179.5740
216.645105 96.692 179.4457
218.215005 96.691 179.3114
219.796281 96.687 179.1725
221.389015 96.679 179.0300
222.993292 96.668 178.8851
224.609193 96.652 178.7386
226.236804 96.631 178.5916
227.876209 96.605 178.4448
229.527494 96.572 178.2990
231.190745 96.534 178.1549
232.866048 96.489 178.0129
234.553491 96.438 177.8736
236.253163 96.382 177.7371
237.965150 96.322 177.6034
239.689544 96.258 177.4726
241.426433 96.192 177.3444
243.175909 96.124 177.2186
244.938062 96.056 177.0949
246.712984 95.989 176.9730
248.500768 95.923 176.8526
250.301507 95.859 176.7336
252.115295 95.799 176.6158
253.942226 95.742 176.4994
255.782396 95.689 176.3842
257.635901 95.642 176.2704
259.502837 95.600 176.1580
261.383301 95.563 176.0469
263.277392 95.533 175.9370
265.185209 95.508 175.8284
267.106850 95.490 175.7209
269.042417 95.477 175.6143
270.992009 95.470 175.5086
272.955729 95.467 175.4037
274.933678 95.468 175.2998
276.925961 95.473 175.1969
278.932681 95.481 175.0954
280.953942 95.491 174.9958
282.989850 95.503 174.8985
285.040511 95.517 174.8040
287.106032 95.534 174.7126
289.186521 95.555 174.6248
291.282086 95.579 174.5408
293.392836 95.609 174.4609
295.518881 95.644 174.3851
297.660333 95.685 174.3135
299.817302 95.731 174.2458
301.989902 95.782 174.1819
304.178245 95.837 174.1215
306.382446 95.894 174.0641
308.602620 95.952 174.0094
310.838882 96.008 173.9573
313.091348 96.060 173.9074
315.360137 96.108 173.8597
317.645367 96.150 173.8140
319.947156 96.184 173.7703
322.265625 96.210 173.7285
324.600895 96.228 173.6886
326.953086 96.235 173.6505
329.322323 96.233 173.6143
331.708729 96.220 173.5801
334.112427 96.198 173.5479
336.533543 96.164 173.5178
338.972204 96.121 173.4897
341.428536 96.069 173.4637
343.902668 96.009 173.4395
346.394729 95.941 173.4169
348.904848 95.869 173.3957
351.433156 95.792 173.3757
353.979786 95.714 173.3567
356.544869 95.638 173.3386
359.128540 95.565 173.3215
361.730934 95.499 173.3054
364.352185 95.443 173.2904
366.992431 95.399 173.2765
369.651810 95.371 173.2635
372.330459 95.359 173.2516
375.028519 95.364 173.2402
377.746130 95.388 173.2295
380.483434 95.429 173.2191
383.240574 95.486 173.2091
386.017693 95.557 173.1993
388.814937 95.638 173.1898
391.632450 95.728 173.1806
394.470380 95.824 173.1716
397.328875 95.922 173.1630
400.208084 96.022 173.1548
403.108157 96.120 173.1472
406.029245 96.215 173.1403
408.971500 96.308 173.1342
411.935076 96.398 173.1293
414.920127 96.484 173.1256
417.926810 96.568 173.1235
420.955280 96.650 173.1233
424.005695 96.731 173.1252
427.078215 96.812 173.1293
430.173000 96.892 173.1359
433.290211 96.974 173.1448
436.430010 97.056 173.1559
439.592562 97.137 173.1692
442.778031 97.218 173.1840
445.986583 97.297 173.2002
449.218386 97.372 173.2174
452.473607 97.441 173.2354
455.752418 97.503 173.2538
459.054987 97.557 173.2725
462.381489 97.602 173.2914
465.732096 97.636 173.3104
469.106983 97.660 173.3295
472.506325 97.674 173.3488
475.930301 97.678 173.3683
479.379088 97.673 173.3880
482.852867 97.661 173.4080
486.351817 97.642 173.4283
489.876123 97.617 173.4491
493.425968 97.587 173.4707
497.001536 97.554 173.4932
500.603014 97.517 173.5170
504.230589 97.477 173.5421
507.884452 97.435 173.5684
511.564792 97.390 173.5956
515.271802 97.344 173.6232
519.005673 97.296 173.6503
522.766602 97.248 173.6759
526.554785 97.201 173.6989
530.370418 97.155 173.7181
534.213700 97.114 173.7324
538.084833 97.079 173.7410
541.984018 97.051 173.7432
545.911457 97.031 173.7386
549.867357 97.020 173.7274
553.851922 97.018 173.7103
557.865362 97.024 173.6883
561.907884 97.035 173.6634
565.979700 97.052 173.6380
570.081022 97.070 173.6149
574.212064 97.088 173.5975
578.373042 97.105 173.5891
582.564171 97.119 173.5928
586.785671 97.129 173.6098
591.037762 97.135 173.6400
595.320665 97.136 173.6810
599.634604 97.131 173.7293
603.979804 97.122 173.7807
608.356491 97.107 173.8310
612.764893 97.088 173.8771
617.205240 97.065 173.9166
621.677763 97.039 173.9482
626.182696 97.011 173.9714
630.720274 96.981 173.9863
635.290733 96.953 173.9932
639.894312 96.927 173.9927
644.531250 96.905 173.9855
649.201789 96.889 173.9723
653.906173 96.880 173.9537
658.644647 96.877 173.9302
663.417457 96.882 173.9021
668.224854 96.893 173.8699
673.067086 96.910 173.8336
677.944408 96.931 173.7938
682.857073 96.954 173.7507
687.805336 96.978 173.7049
692.789457 97.001 173.6566
697.809695 97.023 173.6057
702.866312 97.042 173.5517
707.959571 97.057 173.4936
713.089738 97.067 173.4305
718.257080 97.073 173.3617
723.461867 97.074 173.2869
728.704370 97.071 173.2064
733.984862 97.064 173.1203
739.303619 97.054 173.0292
744.660918 97.040 172.9335
750.057038 97.025 172.8336
755.492260 97.008 172.7297
760.966869 96.990 172.6222
766.481148 96.970 172.5114
772.035387 96.948 172.3974
777.629873 96.925 172.2807
783.264900 96.898 172.1616
788.940760 96.868 172.0403
794.657750 96.833 171.9172
800.416168 96.793 171.7925
806.216313 96.747 171.6660
812.058489 96.695 171.5376
817.943000 96.636 171.4064
823.870152 96.571 171.2714
829.840255 96.501 171.1315
835.853619 96.425 170.9853
841.910559 96.344 170.8320
848.011390 96.259 170.6709
854.156430 96.172 170.5020
860.346000 96.082 170.3257
866.580422 95.992 170.1431
872.860020 95.901 169.9553
879.185124 95.812 169.7635
885.556062 95.724 169.5692
891.973166 95.640 169.3736
898.436771 95.560 169.1778
904.947215 95.485 168.9829
911.504835 95.417 168.7894
918.109975 95.357 168.5974
924.762978 95.305 168.4067
931.464192 95.262 168.2167
938.213966 95.228 168.0273
945.012651 95.203 167.8383
951.860602 95.187 167.6503
958.758176 95.178 167.4642
965.705733 95.177 167.2814
972.703635 95.183 167.1031
979.752246 95.195 166.9300
986.851935 95.212 166.7620
994.003071 95.234 166.5982
1001.206027 95.262 166.4369
1008.461179 95.294 166.2758
1015.768904 95.332 166.1129
1023.129584 95.374 165.9465
1030.543603 95.422 165.7755
1038.011347 95.476 165.5997
1045.533205 95.536 165.4188
1053.109569 95.603 165.2331
1060.740836 95.676 165.0424
1068.427401 95.755 164.8468
1076.169666 95.839 164.6460
1083.968035 95.927 164.4402
1091.822915 96.017 164.2295
1099.734713 96.108 164.0147
1107.703844 96.197 163.7967
1115.730723 96.282 163.5768
1123.815768 96.362 163.3567
1131.959400 96.435 163.1382
1140.162045 96.500 162.9238
1148.424129 96.556 162.7157
1156.746083 96.604 162.5164
1165.128342 96.644 162.3286
1173.571343 96.676 162.1547
1182.075524 96.704 161.9968
1190.641331 96.727 161.8564
1199.269209 96.748 161.7343
1207.959608 96.768 161.6302
1216.712981 96.789 161.5427
1225.529785 96.811 161.4701
1234.410479 96.834 161.4100
1243.355526 96.858 161.3599
1252.365393 96.883 161.3172
1261.440549 96.907 161.2794
1270.581467 96.931 161.2447
1279.788624 96.952 161.2118
1289.062500 96.971 161.1800
1298.403578 96.986 161.1491
1307.812346 96.997 161.1198
1317.289293 97.004 161.0931
1326.834914 97.007 161.0711
1336.449707 97.006 161.0566
1346.134173 97.001 161.0528
1355.888816 96.993 161.0630
1365.714145 96.982 161.0899
1375.610673 96.969 161.1346
1385.578915 96.955 161.1967
1395.619391 96.939 161.2741
1405.732624 96.923 161.3643
1415.919142 96.907 161.4644
1426.179476 96.890 161.5724
1436.514160 96.875 161.6861
1446.923734 96.860 161.8034
1457.408740 96.847 161.9221
1467.969724 96.837 162.0394
1478.607238 96.829 162.1533
1489.321836 96.824 162.2627
1500.114076 96.822 162.3685
1510.984521 96.823 162.4730
1521.933737 96.826 162.5803
1532.962297 96.831 162.6951
1544.070773 96.838 162.8226
1555.259747 96.847 162.9681
1566.529800 96.858 163.1363
1577.881521 96.872 163.3304
1589.315501 96.889 163.5516
1600.832336 96.909 163.7980
1612.432627 96.934 164.0642
1624.116978 96.964 164.3423
1635.886000 96.998 164.6218
1647.740304 97.037 164.8920
1659.680509 97.080 165.1434
1671.707238 97.125 165.3700
1683.821118 97.171 165.5704
1696.022780 97.217 165.7480
1708.312860 97.262 165.9102
1720.692000 97.306 166.0658
1733.160843 97.350 166.2244
1745.720041 97.393 166.3945
1758.370248 97.437 166.5821
1771.112124 97.484 166.7895
1783.946332 97.533 167.0145
1796.873543 97.587 167.2504
1809.894429 97.644 167.4870
1823.009670 97.705 167.7136
1836.219950 97.768 167.9208
1849.525956 97.833 168.1024
1862.928384 97.898 168.2549
1876.427931 97.962 168.3773
1890.025301 98.025 168.4712
1903.721204 98.087 168.5400
1917.516352 98.147 168.5886
1931.411466 98.204 168.6215
1945.407270 98.259 168.6420
1959.504493 98.312 168.6514
1973.703870 98.363 168.6495
1988.006142 98.409 168.6351
2002.412054 98.452 168.6060
2016.922357 98.490 168.5596
2031.537808 98.521 168.4929
2046.259169 98.545 168.4039
2061.087206 98.560 168.2917
2076.022694 98.566 168.1572
2091.066410 98.563 168.0030
2106.219139 98.549 167.8325
2121.481671 98.527 167.6497
2136.854802 98.496 167.4582
2152.339333 98.459 167.2601
2167.936071 98.418 167.0561
2183.645829 98.373 166.8448
2199.469427 98.327 166.6241
2215.407689 98.280 166.3913
2231.461446 98.233 166.1443
2247.631536 98.188 165.8820
2263.918800 98.143 165.6052
2280.324089 98.098 165.3162
2296.848258 98.053 165.0186
2313.492167 98.009 164.7160
2330.256685 97.965 164.4117
2347.142685 97.921 164.1079
2364.151049 97.877 163.8049
2381.282662 97.833 163.5017
2398.538418 97.790 163.1964
2415.919216 97.747 162.8867
2433.425962 97.704 162.5707
2451.059570 97.661 162.2475
2468.820958 97.617 161.9173
2486.711052 97.573 161.5811
2504.730786 97.528 161.2403
2522.881098 97.483 160.8960
2541.162934 97.439 160.5491
2559.577248 97.395 160.2001
2578.125000 97.352 159.8492
2596.807157 97.312 159.4967
2615.624692 97.273 159.1432
2634.578586 97.238 158.7906
2653.669829 97.205 158.4418
2672.899414 97.176 158.1012
2692.268345 97.149 157.7744
2711.777632 97.126 157.4677
2731.428290 97.105 157.1881
2751.221345 97.087 156.9428
2771.157829 97.071 156.7387
2791.238781 97.057 156.5824
2811.465248 97.043 156.4802
2831.838284 97.029 156.4378
2852.358952 97.014 156.4603
2873.028321 96.997 156.5516
2893.847468 96.978 156.7144
2914.817480 96.956 156.9498
2935.939449 96.930 157.2582
2957.214476 96.901 157.6389
2978.643672 96.867 158.0906
3000.228152 96.830 158.6118
3021.969041 96.790 159.2005
3043.867475 96.748 159.8535
3065.924593 96.705 160.5664
3088.141547 96.664 161.3329
3110.519493 96.626 162.1443
3133.059600 96.593 162.9898
3155.763041 96.568 163.8560
3178.631001 96.550 164.7272
3201.664672 96.543 165.5867
3224.865254 96.546 166.4168
3248.233957 96.560 167.2006
3271.771999 96.584 167.9230
3295.480608 96.616 168.5718
3319.361019 96.655 169.1392
3343.414477 96.698 169.6226
3367.642236 96.744 170.0248
3392.045560 96.791 170.3533
3416.625721 96.837 170.6190
3441.383999 96.882 170.8344
3466.321686 96.927 171.0112
3491.440082 96.973 171.1585
3516.740496 97.021 171.2816
3542.224247 97.073 171.3806
3567.892664 97.130 171.4510
3593.747085 97.194 171.4847
3619.788858 97.265 171.4713
3646.019340 97.342 171.4003
3672.439900 97.424 171.2628
3699.051913 97.510 171.0524
3725.856768 97.596 170.7667
3752.855862 97.680 170.4072
3780.050603 97.760 169.9794
3807.442408 97.834 169.4924
3835.032705 97.899 168.9576
3862.822933 97.953 168.3888
3890.814540 97.997 167.8000
3919.008986 98.028 167.2057
3947.407741 98.048 166.6194
3976.012284 98.056 166.0536
4004.824108 98.052 165.5193
4033.844715 98.037 165.0264
4063.075616 98.011 164.5826
4092.518337 97.976 164.1949
4122.174412 97.932 163.8689
4152.045387 97.879 163.6096
4182.132820 97.819 163.4209
4212.438278 97.752 163.3062
4242.963342 97.680 163.2682
4273.709604 97.603 163.3085
4304.678665 97.522 163.4282
4335.872141 97.438 163.6274
4367.291658 97.352 163.9056
4398.938854 97.263 164.2615
4430.815378 97.174 164.6934
4462.922893 97.083 165.1996
4495.263072 96.991 165.7784
4527.837601 96.897 166.4285
4560.648179 96.802 167.1495
4593.696515 96.706 167.9416
4626.984334 96.610 168.8057
4660.513370 96.513 169.7431
4694.285371 96.417 170.7551
4728.302098 96.324 171.8428
4762.565324 96.235 173.0064
4797.076835 96.153 174.2449
4831.838432 96.081 175.5555
4866.851925 96.021 176.9336
4902.119140 95.976 178.3724
4937.641916 95.950 179.8632
4973.422105 95.944 -178.6048
5009.461572 95.961 -177.0438
5045.762195 96.004 -175.4680
5082.325868 96.073 -173.8929
5119.154496 96.169 -172.3348
5156.250000 96.294 -170.8107
5193.614313 96.446 -169.3383
5231.249383 96.626 -167.9354
5269.157173 96.831 -166.6199
5307.339658 97.062 -165.4094
5345.798829 97.315 -164.3210
5384.536691 97.589 -163.3711
5423.555263 97.881 -162.5747
5462.856580 98.189 -161.9454
5502.442691 98.511 -161.4953
5542.315659 98.844 -161.2345
5582.477563 99.184 -161.1711
5622.930497 99.530 -161.3109
5663.676569 99.879 -161.6574
5704.717904 100.227 -162.2120
5746.056642 100.571 -162.9732
5787.694937 100.909 -163.9365
5829.634960 101.237 -165.0948
5871.878898 101.552 -166.4379
5914.428953 101.850 -167.9526
5957.287343 102.129 -169.6231
6000.456303 102.385 -171.4310
6043.938083 102.615 -173.3555
6087.734950 102.817 -175.3740
6131.849187 102.989 -177.4626
6176.283094 103.129 -179.5963
6221.038987 103.237 178.2499
6266.119200 103.312 176.1008
6311.526083 103.354 173.9797
6357.262002 103.364 171.9086
6403.329344 103.344 169.9071
6449.730508 103.294 167.9922
6496.467914 103.219 166.1782
6543.543998 103.121 164.4762
6590.961215 103.003 162.8941
6638.722037 102.869 161.4366
6686.828954 102.726 160.1047
6735.284473 102.576 158.8960
6784.091120 102.427 157.8036
6833.251441 102.284 156.8164
6882.767998 102.154 155.9178
6932.643372 102.043 155.0856
6982.880164 101.957 154.2913
7033.480992 101.902 153.5006
7084.448495 101.880 152.6743
7135.785329 101.893 151.7697
7187.494171 101.941 150.7431
7239.577717 102.022 149.5527
7292.038681 102.130 148.1600
7344.879799 102.259 146.5323
7398.103826 102.400 144.6432
7451.713536 102.546 142.4730
7505.711724 102.688 140.0087
7560.101205 102.815 137.2440
7614.884815 102.921 134.1788
7670.065409 102.996 130.8192
7725.645865 103.031 127.1775
7781.629080 103.021 123.2719
7838.017972 102.957 119.1261
7894.815481 102.835 114.7684
7952.024569 102.650 110.2299
8009.648217 102.400 105.5413
8067.689429 102.083 100.7304
8126.151233 101.702 95.8168
8185.036674 101.259 90.8084
8244.348824 100.758 85.6971
8304.090774 100.205 80.4558
8364.265639 99.607 75.0363
8424.876556 98.973 69.3664
8485.926684 98.310 63.3496
8547.419207 97.630 56.8635
8609.357330 96.944 49.7610
8671.744282 96.266 41.8791
8734.583316 95.609 33.0580
8797.877707 94.990 23.1864
8861.630756 94.429 12.2748
8925.845785 93.942 0.5375
8990.526143 93.548 -11.5767
9055.675202 93.262 -23.4767
9121.296357 93.092 -34.6190
9187.393031 93.041 -44.6628
9253.968668 93.105 -53.5024
9321.026740 93.273 -61.2026
9388.570742 93.528 -67.9169
9456.604196 93.855 -73.8284
9525.130648 94.233 -79.1180
9594.153671 94.645 -83.9517
9663.676863 95.075 -88.4750
9733.703850 95.505 -92.8112
9804.238280 95.922 -97.0617
9875.283832 96.312 -101.3040
9946.844210 96.662 -105.5916
10018.923143 96.962 -109.9534
10091.524390 97.202 -114.3946
10164.651736 97.375 -118.8983
10238.308993 97.477 -123.4297
10312.500000 97.504 -127.9419
10387.228626 97.460 -132.3823
10462.498767 97.346 -136.6997
10538.314345 97.169 -140.8490
10614.679315 96.937 -144.7946
10691.597657 96.657 -148.5125
10769.073381 96.339 -151.9908
10847.110526 95.990 -155.2302
10925.713161 95.619 -158.2427
11004.885382 95.234 -161.0519
11084.631318 94.840 -163.6902
11164.955126 94.441 -166.1968
11245.860993 94.040 -168.6137
11327.353138 93.636 -170.9810
11409.435808 93.226 -173.3313
11492.113283 92.805 -175.6853
11575.389873 92.365 -178.0471
11659.269920 91.899 179.5975
11743.757796 91.399 177.2814
11828.857906 90.859 175.0532
11914.574686 90.275 172.9739
12000.912606 89.644 171.1115
12087.876166 88.968 169.5377
12175.469900 88.248 168.3275
12263.698373 87.492 167.5610
12352.566187 86.708 167.3330
12442.077974 85.907 167.7688
12532.238400 85.105 169.0533
12623.052165 84.321 171.4752
12714.524005 83.576 175.4738
12806.658687 82.896 -178.3658
12899.461015 82.306 -169.5370
12992.935827 81.828 -158.2689
13087.087996 81.472 -146.1913
13181.922430 81.231 -135.6128
13277.444074 81.086 -127.8173
13373.657907 81.009 -122.7040
13470.568945 80.969 -119.5583
13568.182241 80.949 -117.6341
13666.502883 80.938 -116.3391
13765.535996 80.940 -115.2564
13865.286744 80.967 -114.1356
13965.760328 81.037 -112.8882
14066.961984 81.164 -111.5822
14168.896989 81.354 -110.4096
14271.570658 81.602 -109.6191
14374.988342 81.892 -109.4318
14479.155433 82.200 -109.9810
14584.077362 82.501 -111.2987
14689.759598 82.775 -113.3367
14796.207652 83.006 -116.0012
14903.427072 83.183 -119.1821
15011.423448 83.303 -122.7740
15120.202410 83.364 -126.6870
15229.769630 83.368 -130.8514
15340.130819 83.319 -135.2178
15451.291730 83.219 -139.7529
15563.258160 83.068 -144.4349
15676.035944 82.868 -149.2466
15789.630962 82.615 -154.1705
15904.049137 82.310 -159.1870
16019.296433 81.948 -164.2729
16135.378859 81.531 -169.4037
16252.302465 81.056 -174.5540
16370.073348 80.526 -179.6958
16488.697648 79.941 175.2045
16608.181548 79.302 170.1932
16728.531278 78.610 165.3368
16849.753112 77.869 160.7333
16971.853368 77.082 156.5303
17094.838414 76.258 152.9614
17218.714660 75.408 150.4221
17343.488565 74.550 149.6410
17469.166632 73.706 152.0658
17595.755415 72.907 160.5670
17723.261512 72.187 178.8503
17851.691571 71.576 -157.3519
17981.052287 71.096 -141.2461
18111.350404 70.750 -134.8458
18242.592715 70.526 -134.2544
18374.786062 70.396 -136.8544
18507.937336 70.327 -141.3247
18642.053479 70.288 -146.9739
18777.141484 70.252 -153.3928
18913.208391 70.202 -160.2927
19050.261296 70.128 -167.4243
19188.307342 70.030 -174.5372
19327.353727 69.912 178.6346
19467.407699 69.788 172.3705
19608.476560 69.670 166.9457
19750.567664 69.572 162.6136
19893.688419 69.503 159.5892
20037.846286 69.468 158.0331
