* Measurement data measured by REW V5.31.3
* Source: EXCL: Headset (USB-C to 3.5mm Headphone Jack Adapter), MICROPHONE (Master Volume), 0, volume: 0.260
* Format: 256k Log Swept Sine, 1 sweep at -12.0 dBFS with no timing reference
* Dated: Feb 14, 2025 8:27:52 PM
* REW Settings:
*  C-weighting compensation: Off
*  Target level: 75.0 dB
* Note: ; 
* Measurement: Satyr 3 R6
* Smoothing: 1/6 octave
* Frequency Step: 96 ppo
* Start Frequency: 20.0 Hz
*
* Freq(Hz) SPL(dB) Phase(degrees)
20.141602 90.610 -27.4014
20.287556 90.635 -27.6405
20.434568 90.666 -27.9582
20.582645 90.699 -28.3433
20.731796 90.733 -28.7833
20.882027 90.764 -29.2662
21.033346 90.789 -29.7807
21.185763 90.807 -30.3170
21.339284 90.817 -30.8671
21.493917 90.819 -31.4244
21.649671 90.813 -31.9844
21.806553 90.800 -32.5441
21.964572 90.782 -33.1021
22.123737 90.760 -33.6580
22.284054 90.735 -34.2129
22.445534 90.711 -34.7684
22.608183 90.687 -35.3267
22.772012 90.667 -35.8907
22.937027 90.651 -36.4628
23.103238 90.640 -37.0456
23.270654 90.636 -37.6413
23.439282 90.641 -38.2514
23.609133 90.654 -38.8767
23.780215 90.677 -39.5175
23.952536 90.711 -40.1732
24.126106 90.756 -40.8425
24.300934 90.812 -41.5234
24.477028 90.879 -42.2134
24.654399 90.957 -42.9096
24.833055 91.044 -43.6091
25.013005 91.138 -44.3085
25.194260 91.240 -45.0049
25.376828 91.345 -45.6955
25.560719 91.453 -46.3779
25.745942 91.562 -47.0504
25.932508 91.669 -47.7120
26.120426 91.774 -48.3625
26.309705 91.875 -49.0023
26.500356 91.970 -49.6327
26.692388 92.060 -50.2555
26.885812 92.143 -50.8731
27.080638 92.219 -51.4881
27.276876 92.290 -52.1034
27.474535 92.355 -52.7214
27.673627 92.416 -53.3444
27.874161 92.475 -53.9741
28.076149 92.534 -54.6115
28.279600 92.597 -55.2568
28.484526 92.666 -55.9096
28.690937 92.744 -56.5687
28.898843 92.835 -57.2325
29.108256 92.940 -57.8988
29.319186 93.061 -58.5655
29.531645 93.199 -59.2306
29.745644 93.352 -59.8922
29.961193 93.519 -60.5490
30.178304 93.695 -61.2001
30.396989 93.877 -61.8452
30.617258 94.061 -62.4844
30.839123 94.239 -63.1181
31.062596 94.408 -63.7470
31.287688 94.563 -64.3719
31.514412 94.699 -64.9934
31.742778 94.813 -65.6118
31.972800 94.902 -66.2273
32.204488 94.964 -66.8399
32.437855 94.998 -67.4493
32.672913 95.004 -68.0549
32.909674 94.983 -68.6563
33.148151 94.938 -69.2528
33.388356 94.869 -69.8438
33.630302 94.781 -70.4289
33.874001 94.677 -71.0077
34.119466 94.561 -71.5800
34.366710 94.437 -72.1462
34.615745 94.308 -72.7068
34.866585 94.180 -73.2630
35.119243 94.056 -73.8165
35.373731 93.941 -74.3694
35.630064 93.838 -74.9242
35.888254 93.749 -75.4833
36.148315 93.679 -76.0492
36.410261 93.629 -76.6236
36.674104 93.602 -77.2077
36.939860 93.598 -77.8020
37.207542 93.618 -78.4062
37.477163 93.663 -79.0196
37.748738 93.731 -79.6410
38.022281 93.823 -80.2692
38.297806 93.937 -80.9032
38.575327 94.072 -81.5421
38.854860 94.228 -82.1857
39.136419 94.401 -82.8342
39.420017 94.592 -83.4879
39.705671 94.798 -84.1475
39.993395 95.019 -84.8136
40.283203 95.253 -85.4866
40.575112 95.498 -86.1666
40.869136 95.754 -86.8532
41.165290 96.019 -87.5458
41.463591 96.291 -88.2434
41.764053 96.568 -88.9449
42.066693 96.849 -89.6496
42.371525 97.131 -90.3570
42.678567 97.411 -91.0669
42.987834 97.689 -91.7792
43.299341 97.961 -92.4943
43.613106 98.224 -93.2121
43.929145 98.478 -93.9326
44.247473 98.719 -94.6557
44.568109 98.947 -95.3810
44.891068 99.160 -96.1082
45.216367 99.358 -96.8372
45.544023 99.539 -97.5677
45.874054 99.704 -98.3001
46.206476 99.850 -99.0343
46.541307 99.980 -99.7709
46.878565 100.091 -100.5102
47.218266 100.186 -101.2524
47.560429 100.263 -101.9982
47.905072 100.325 -102.7479
48.252212 100.371 -103.5021
48.601867 100.403 -104.2611
48.954056 100.423 -105.0254
49.308798 100.432 -105.7949
49.666109 100.433 -106.5694
50.026010 100.426 -107.3481
50.388520 100.414 -108.1301
50.753656 100.399 -108.9143
51.121437 100.382 -109.6993
51.491884 100.365 -110.4841
51.865016 100.349 -111.2676
52.240851 100.336 -112.0489
52.619410 100.325 -112.8271
53.000712 100.318 -113.6016
53.384777 100.313 -114.3718
53.771625 100.312 -115.1376
54.161276 100.312 -115.8992
54.553751 100.313 -116.6572
54.949070 100.315 -117.4125
55.347254 100.317 -118.1661
55.748323 100.316 -118.9191
56.152298 100.314 -119.6722
56.559201 100.309 -120.4260
56.969052 100.301 -121.1807
57.381873 100.289 -121.9364
57.797686 100.273 -122.6929
58.216512 100.254 -123.4499
58.638373 100.232 -124.2071
59.063291 100.207 -124.9642
59.491288 100.179 -125.7210
59.922386 100.148 -126.4774
60.356608 100.116 -127.2333
60.793977 100.081 -127.9885
61.234515 100.046 -128.7424
61.678246 100.009 -129.4944
62.125192 99.971 -130.2439
62.575377 99.933 -130.9902
63.028824 99.895 -131.7331
63.485557 99.857 -132.4727
63.945599 99.820 -133.2092
64.408975 99.784 -133.9431
64.875709 99.750 -134.6749
65.345825 99.717 -135.4052
65.819348 99.687 -136.1342
66.296302 99.658 -136.8620
66.776713 99.632 -137.5883
67.260604 99.608 -138.3129
67.748002 99.586 -139.0354
68.238932 99.566 -139.7550
68.733420 99.548 -140.4713
69.231490 99.531 -141.1835
69.733170 99.515 -141.8911
70.238485 99.500 -142.5935
70.747463 99.486 -143.2906
71.260128 99.472 -143.9821
71.776508 99.459 -144.6680
72.296630 99.446 -145.3482
72.820521 99.434 -146.0227
73.348209 99.422 -146.6913
73.879720 99.410 -147.3537
74.415083 99.398 -148.0099
74.954326 99.387 -148.6596
75.497475 99.374 -149.3027
76.044561 99.362 -149.9391
76.595612 99.347 -150.5683
77.150655 99.332 -151.1900
77.709720 99.314 -151.8041
78.272837 99.293 -152.4105
78.840034 99.269 -153.0094
79.411342 99.242 -153.6013
79.986789 99.211 -154.1865
80.566406 99.176 -154.7653
81.150224 99.137 -155.3381
81.738272 99.094 -155.9050
82.330581 99.049 -156.4658
82.927182 99.001 -157.0204
83.528107 98.952 -157.5686
84.133386 98.904 -158.1101
84.743051 98.858 -158.6447
85.357134 98.818 -159.1723
85.975667 98.787 -159.6931
86.598682 98.767 -160.2071
87.226212 98.762 -160.7149
87.858289 98.775 -161.2168
88.494946 98.810 -161.7134
89.136217 98.867 -162.2051
89.782135 98.948 -162.6923
90.432733 99.053 -163.1754
91.088046 99.179 -163.6545
91.748108 99.322 -164.1298
92.412952 99.480 -164.6013
93.082615 99.646 -165.0688
93.757130 99.815 -165.5323
94.436533 99.982 -165.9916
95.120859 100.141 -166.4465
95.810144 100.289 -166.8971
96.504423 100.423 -167.3435
97.203734 100.540 -167.7856
97.908112 100.639 -168.2235
98.617595 100.721 -168.6572
99.332219 100.787 -169.0863
100.052021 100.837 -169.5104
100.777039 100.876 -169.9288
101.507311 100.903 -170.3409
102.242875 100.922 -170.7464
102.983769 100.934 -171.1447
103.730032 100.940 -171.5358
104.481702 100.942 -171.9193
105.238820 100.939 -172.2955
106.001424 100.930 -172.6644
106.769554 100.915 -173.0265
107.543250 100.892 -173.3822
108.322553 100.860 -173.7321
109.107503 100.816 -174.0768
109.898141 100.759 -174.4168
110.694508 100.690 -174.7525
111.496646 100.606 -175.0843
112.304596 100.509 -175.4124
113.118402 100.399 -175.7368
113.938104 100.279 -176.0575
114.763747 100.150 -176.3745
115.595372 100.014 -176.6877
116.433024 99.874 -176.9967
117.276746 99.731 -177.3014
118.126581 99.588 -177.6014
118.982575 99.446 -177.8965
119.844772 99.307 -178.1867
120.713217 99.170 -178.4719
121.587954 99.036 -178.7523
122.469031 98.903 -179.0278
123.356492 98.772 -179.2986
124.250384 98.641 -179.5647
125.150753 98.508 -179.8257
126.057647 98.372 179.9185
126.971113 98.232 179.6681
127.891198 98.086 179.4235
128.817950 97.934 179.1846
129.751418 97.775 178.9517
130.691651 97.610 178.7249
131.638696 97.439 178.5042
132.592604 97.264 178.2899
133.553425 97.087 178.0822
134.521208 96.911 177.8811
135.496004 96.738 177.6870
136.477864 96.572 177.5000
137.466839 96.417 177.3203
138.462981 96.276 177.1480
139.466340 96.151 176.9830
140.476971 96.046 176.8249
141.494925 95.959 176.6732
142.520256 95.892 176.5270
143.553016 95.843 176.3856
144.593260 95.807 176.2479
145.641043 95.783 176.1131
146.696418 95.765 175.9802
147.759441 95.750 175.8488
148.830166 95.734 175.7187
149.908651 95.714 175.5898
150.994951 95.687 175.4627
152.089123 95.652 175.3384
153.191223 95.608 175.2181
154.301310 95.557 175.1033
155.419441 95.499 174.9957
156.545674 95.436 174.8974
157.680069 95.369 174.8102
158.822683 95.300 174.7360
159.973578 95.232 174.6764
161.132813 95.164 174.6330
162.300447 95.099 174.6069
163.476543 95.037 174.5992
164.661162 94.979 174.6107
165.854364 94.925 174.6417
167.056213 94.876 174.6927
168.266772 94.832 174.7637
169.486102 94.794 174.8546
170.714268 94.762 174.9649
171.951334 94.736 175.0941
173.197364 94.718 175.2411
174.452424 94.706 175.4052
175.716578 94.702 175.5847
176.989893 94.705 175.7783
178.272434 94.714 175.9839
179.564270 94.729 176.1994
180.865467 94.748 176.4222
182.176092 94.771 176.6494
183.496216 94.796 176.8781
184.825905 94.823 177.1051
186.165229 94.850 177.3274
187.514259 94.879 177.5422
188.873065 94.908 177.7466
190.241717 94.938 177.9382
191.620287 94.969 178.1146
193.008847 95.002 178.2739
194.407468 95.036 178.4147
195.816225 95.072 178.5358
197.235190 95.109 178.6364
198.664438 95.147 178.7164
200.104042 95.184 178.7756
201.554078 95.222 178.8144
203.014622 95.257 178.8334
204.485750 95.291 178.8334
205.967538 95.321 178.8155
207.460064 95.347 178.7808
208.963405 95.370 178.7307
210.477640 95.387 178.6666
212.002848 95.401 178.5899
213.539108 95.410 178.5021
215.086500 95.416 178.4050
216.645105 95.418 178.3000
218.215005 95.416 178.1889
219.796281 95.411 178.0730
221.389015 95.403 177.9533
222.993292 95.390 177.8307
224.609193 95.373 177.7058
226.236804 95.351 177.5792
227.876209 95.324 177.4512
229.527494 95.290 177.3223
231.190745 95.251 177.1930
232.866048 95.205 177.0637
234.553491 95.153 176.9347
236.253163 95.095 176.8064
237.965150 95.033 176.6789
239.689544 94.968 176.5525
241.426433 94.899 176.4272
243.175909 94.829 176.3036
244.938062 94.758 176.1821
246.712984 94.688 176.0629
248.500768 94.618 175.9466
250.301507 94.551 175.8334
252.115295 94.487 175.7236
253.942226 94.426 175.6171
255.782396 94.370 175.5138
257.635901 94.319 175.4137
259.502837 94.273 175.3165
261.383301 94.232 175.2220
263.277392 94.198 175.1304
265.185209 94.170 175.0414
267.106850 94.148 174.9552
269.042417 94.132 174.8718
270.992009 94.122 174.7912
272.955729 94.117 174.7134
274.933678 94.117 174.6385
276.925961 94.120 174.5664
278.932681 94.126 174.4971
280.953942 94.135 174.4306
282.989850 94.147 174.3666
285.040511 94.161 174.3052
287.106032 94.177 174.2459
289.186521 94.197 174.1887
291.282086 94.221 174.1335
293.392836 94.250 174.0804
295.518881 94.284 174.0292
297.660333 94.324 173.9803
299.817302 94.370 173.9335
301.989902 94.420 173.8889
304.178245 94.474 173.8467
306.382446 94.531 173.8069
308.602620 94.587 173.7693
310.838882 94.642 173.7341
313.091348 94.694 173.7014
315.360137 94.741 173.6711
317.645367 94.782 173.6434
319.947156 94.816 173.6181
322.265625 94.841 173.5953
324.600895 94.858 173.5748
326.953086 94.865 173.5565
329.322323 94.862 173.5405
331.708729 94.848 173.5268
334.112427 94.825 173.5152
336.533543 94.790 173.5057
338.972204 94.746 173.4984
341.428536 94.693 173.4930
343.902668 94.631 173.4898
346.394729 94.562 173.4887
348.904848 94.488 173.4896
351.433156 94.410 173.4926
353.979786 94.331 173.4977
356.544869 94.253 173.5052
359.128540 94.179 173.5151
361.730934 94.112 173.5273
364.352185 94.055 173.5417
366.992431 94.010 173.5580
369.651810 93.980 173.5760
372.330459 93.967 173.5953
375.028519 93.972 173.6158
377.746130 93.995 173.6373
380.483434 94.036 173.6594
383.240574 94.092 173.6821
386.017693 94.162 173.7053
388.814937 94.243 173.7287
391.632450 94.333 173.7523
394.470380 94.429 173.7761
397.328875 94.528 173.8002
400.208084 94.627 173.8248
403.108157 94.726 173.8499
406.029245 94.823 173.8754
408.971500 94.917 173.9017
411.935076 95.007 173.9285
414.920127 95.095 173.9560
417.926810 95.181 173.9843
420.955280 95.264 174.0132
424.005695 95.347 174.0430
427.078215 95.430 174.0737
430.173000 95.512 174.1052
433.290211 95.595 174.1376
436.430010 95.679 174.1706
439.592562 95.762 174.2042
442.778031 95.844 174.2383
445.986583 95.923 174.2728
449.218386 95.998 174.3077
452.473607 96.067 174.3434
455.752418 96.129 174.3798
459.054987 96.183 174.4174
462.381489 96.227 174.4564
465.732096 96.261 174.4970
469.106983 96.285 174.5393
472.506325 96.298 174.5831
475.930301 96.303 174.6279
479.379088 96.299 174.6732
482.852867 96.288 174.7184
486.351817 96.270 174.7631
489.876123 96.247 174.8067
493.425968 96.220 174.8490
497.001536 96.188 174.8898
500.603014 96.154 174.9289
504.230589 96.117 174.9662
507.884452 96.077 175.0013
511.564792 96.034 175.0343
515.271802 95.989 175.0648
519.005673 95.942 175.0926
522.766602 95.893 175.1178
526.554785 95.844 175.1404
530.370418 95.797 175.1605
534.213700 95.753 175.1781
538.084833 95.714 175.1932
541.984018 95.681 175.2061
545.911457 95.657 175.2168
549.867357 95.642 175.2256
553.851922 95.635 175.2330
557.865362 95.636 175.2395
561.907884 95.644 175.2463
565.979700 95.656 175.2551
570.081022 95.671 175.2680
574.212064 95.687 175.2879
578.373042 95.701 175.3177
582.564171 95.713 175.3600
586.785671 95.721 175.4160
591.037762 95.724 175.4858
595.320665 95.723 175.5676
599.634604 95.716 175.6584
603.979804 95.704 175.7550
608.356491 95.688 175.8540
612.764893 95.666 175.9526
617.205240 95.642 176.0489
621.677763 95.614 176.1410
626.182696 95.584 176.2275
630.720274 95.555 176.3072
635.290733 95.527 176.3793
639.894312 95.503 176.4431
644.531250 95.483 176.4983
649.201789 95.470 176.5445
653.906173 95.465 176.5814
658.644647 95.467 176.6089
663.417457 95.476 176.6265
668.224854 95.493 176.6344
673.067086 95.514 176.6328
677.944408 95.540 176.6228
682.857073 95.567 176.6057
687.805336 95.594 176.5832
692.789457 95.620 176.5573
697.809695 95.643 176.5297
702.866312 95.662 176.5016
707.959571 95.677 176.4735
713.089738 95.688 176.4453
718.257080 95.694 176.4160
723.461867 95.696 176.3846
728.704370 95.694 176.3498
733.984862 95.688 176.3107
739.303619 95.679 176.2668
744.660918 95.668 176.2178
750.057038 95.655 176.1639
755.492260 95.641 176.1056
760.966869 95.626 176.0432
766.481148 95.609 175.9772
772.035387 95.591 175.9076
777.629873 95.571 175.8344
783.264900 95.548 175.7575
788.940760 95.522 175.6765
794.657750 95.492 175.5912
800.416168 95.456 175.5012
806.216313 95.414 175.4065
812.058489 95.366 175.3070
817.943000 95.311 175.2029
823.870152 95.249 175.0943
829.840255 95.180 174.9814
835.853619 95.106 174.8640
841.910559 95.027 174.7415
848.011390 94.943 174.6137
854.156430 94.857 174.4801
860.346000 94.769 174.3407
866.580422 94.680 174.1959
872.860020 94.590 174.0464
879.185124 94.502 173.8935
885.556062 94.416 173.7385
891.973166 94.332 173.5831
898.436771 94.253 173.4294
904.947215 94.179 173.2792
911.504835 94.111 173.1346
918.109975 94.051 172.9972
924.762978 93.999 172.8674
931.464192 93.956 172.7451
938.213966 93.924 172.6288
945.012651 93.901 172.5173
951.860602 93.888 172.4091
958.758176 93.884 172.3035
965.705733 93.888 172.2004
972.703635 93.900 172.1001
979.752246 93.919 172.0026
986.851935 93.943 171.9076
994.003071 93.974 171.8139
1001.206027 94.010 171.7196
1008.461179 94.051 171.6219
1015.768904 94.098 171.5182
1023.129584 94.150 171.4061
1030.543603 94.208 171.2844
1038.011347 94.271 171.1530
1045.533205 94.340 171.0127
1053.109569 94.416 170.8648
1060.740836 94.496 170.7111
1068.427401 94.583 170.5532
1076.169666 94.674 170.3926
1083.968035 94.769 170.2300
1091.822915 94.866 170.0661
1099.734713 94.963 169.9014
1107.703844 95.059 169.7369
1115.730723 95.152 169.5736
1123.815768 95.241 169.4126
1131.959400 95.323 169.2551
1140.162045 95.397 169.1019
1148.424129 95.465 168.9540
1156.746083 95.525 168.8120
1165.128342 95.577 168.6761
1173.571343 95.624 168.5466
1182.075524 95.666 168.4236
1190.641331 95.704 168.3075
1199.269209 95.739 168.1992
1207.959608 95.773 168.0999
1216.712981 95.806 168.0108
1225.529785 95.838 167.9330
1234.410479 95.870 167.8675
1243.355526 95.902 167.8150
1252.365393 95.933 167.7760
1261.440549 95.964 167.7508
1270.581467 95.992 167.7393
1279.788624 96.019 167.7412
1289.062500 96.044 167.7553
1298.403578 96.067 167.7798
1307.812346 96.088 167.8122
1317.289293 96.107 167.8498
1326.834914 96.124 167.8903
1336.449707 96.139 167.9322
1346.134173 96.152 167.9745
1355.888816 96.163 168.0167
1365.714145 96.173 168.0582
1375.610673 96.181 168.0981
1385.578915 96.186 168.1353
1395.619391 96.190 168.1696
1405.732624 96.190 168.2016
1415.919142 96.188 168.2335
1426.179476 96.182 168.2685
1436.514160 96.175 168.3100
1446.923734 96.166 168.3607
1457.408740 96.156 168.4221
1467.969724 96.148 168.4951
1478.607238 96.141 168.5801
1489.321836 96.136 168.6776
1500.114076 96.136 168.7877
1510.984521 96.139 168.9106
1521.933737 96.146 169.0461
1532.962297 96.158 169.1931
1544.070773 96.174 169.3503
1555.259747 96.193 169.5171
1566.529800 96.217 169.6936
1577.881521 96.243 169.8810
1589.315501 96.271 170.0804
1600.832336 96.302 170.2927
1612.432627 96.335 170.5173
1624.116978 96.370 170.7528
1635.886000 96.408 170.9969
1647.740304 96.449 171.2468
1659.680509 96.493 171.4990
1671.707238 96.540 171.7491
1683.821118 96.591 171.9922
1696.022780 96.645 172.2231
1708.312860 96.703 172.4371
1720.692000 96.762 172.6321
1733.160843 96.824 172.8085
1745.720041 96.886 172.9697
1758.370248 96.948 173.1204
1771.112124 97.010 173.2657
1783.946332 97.073 173.4100
1796.873543 97.135 173.5556
1809.894429 97.198 173.7034
1823.009670 97.262 173.8521
1836.219950 97.326 173.9980
1849.525956 97.392 174.1355
1862.928384 97.458 174.2581
1876.427931 97.526 174.3594
1890.025301 97.593 174.4355
1903.721204 97.660 174.4843
1917.516352 97.725 174.5062
1931.411466 97.788 174.5030
1945.407270 97.848 174.4782
1959.504493 97.905 174.4361
1973.703870 97.956 174.3812
1988.006142 98.002 174.3173
2002.412054 98.042 174.2473
2016.922357 98.076 174.1723
2031.537808 98.103 174.0924
2046.259169 98.122 174.0065
2061.087206 98.134 173.9122
2076.022694 98.138 173.8065
2091.066410 98.135 173.6866
2106.219139 98.125 173.5501
2121.481671 98.107 173.3955
2136.854802 98.083 173.2227
2152.339333 98.052 173.0326
2167.936071 98.017 172.8273
2183.645829 97.977 172.6099
2199.469427 97.935 172.3834
2215.407689 97.891 172.1502
2231.461446 97.847 171.9117
2247.631536 97.804 171.6678
2263.918800 97.763 171.4177
2280.324089 97.723 171.1592
2296.848258 97.686 170.8901
2313.492167 97.651 170.6085
2330.256685 97.617 170.3132
2347.142685 97.584 170.0043
2364.151049 97.550 169.6833
2381.282662 97.516 169.3523
2398.538418 97.481 169.0134
2415.919216 97.444 168.6685
2433.425962 97.406 168.3188
2451.059570 97.367 167.9654
2468.820958 97.326 167.6085
2486.711052 97.284 167.2485
2504.730786 97.241 166.8854
2522.881098 97.198 166.5201
2541.162934 97.154 166.1539
2559.577248 97.109 165.7894
2578.125000 97.066 165.4296
2596.807157 97.023 165.0778
2615.624692 96.982 164.7374
2634.578586 96.944 164.4110
2653.669829 96.911 164.1005
2672.899414 96.883 163.8068
2692.268345 96.860 163.5307
2711.777632 96.842 163.2734
2731.428290 96.830 163.0370
2751.221345 96.821 162.8250
2771.157829 96.816 162.6423
2791.238781 96.812 162.4952
2811.465248 96.808 162.3906
2831.838284 96.804 162.3358
2852.358952 96.798 162.3373
2873.028321 96.788 162.4009
2893.847468 96.775 162.5313
2914.817480 96.757 162.7316
2935.939449 96.735 163.0040
2957.214476 96.707 163.3497
2978.643672 96.674 163.7695
3000.228152 96.637 164.2635
3021.969041 96.596 164.8306
3043.867475 96.553 165.4684
3065.924593 96.508 166.1725
3088.141547 96.465 166.9363
3110.519493 96.426 167.7511
3133.059600 96.391 168.6056
3155.763041 96.363 169.4864
3178.631001 96.345 170.3777
3201.664672 96.337 171.2621
3224.865254 96.340 172.1210
3248.233957 96.354 172.9358
3271.771999 96.379 173.6893
3295.480608 96.413 174.3672
3319.361019 96.455 174.9594
3343.414477 96.503 175.4607
3367.642236 96.553 175.8714
3392.045560 96.604 176.1969
3416.625721 96.655 176.4463
3441.383999 96.703 176.6312
3466.321686 96.749 176.7639
3491.440082 96.794 176.8555
3516.740496 96.837 176.9147
3542.224247 96.880 176.9466
3567.892664 96.925 176.9520
3593.747085 96.972 176.9287
3619.788858 97.022 176.8723
3646.019340 97.074 176.7779
3672.439900 97.128 176.6419
3699.051913 97.182 176.4628
3725.856768 97.235 176.2424
3752.855862 97.285 175.9854
3780.050603 97.330 175.6995
3807.442408 97.370 175.3949
3835.032705 97.403 175.0831
3862.822933 97.429 174.7765
3890.814540 97.447 174.4872
3919.008986 97.457 174.2263
3947.407741 97.461 174.0037
3976.012284 97.459 173.8270
4004.824108 97.451 173.7022
4033.844715 97.438 173.6331
4063.075616 97.421 173.6219
4092.518337 97.401 173.6697
4122.174412 97.378 173.7768
4152.045387 97.352 173.9432
4182.132820 97.324 174.1690
4212.438278 97.294 174.4544
4242.963342 97.262 174.8000
4273.709604 97.230 175.2072
4304.678665 97.196 175.6776
4335.872141 97.162 176.2130
4367.291658 97.128 176.8153
4398.938854 97.094 177.4859
4430.815378 97.061 178.2258
4462.922893 97.029 179.0351
4495.263072 96.999 179.9133
4527.837601 96.972 -179.1410
4560.648179 96.947 -178.1302
4593.696515 96.927 -177.0577
4626.984334 96.912 -175.9283
4660.513370 96.903 -174.7483
4694.285371 96.902 -173.5253
4728.302098 96.910 -172.2688
4762.565324 96.930 -170.9890
4797.076835 96.963 -169.6972
4831.838432 97.011 -168.4050
4866.851925 97.074 -167.1242
4902.119140 97.155 -165.8656
4937.641916 97.254 -164.6396
4973.422105 97.372 -163.4556
5009.461572 97.509 -162.3218
5045.762195 97.666 -161.2460
5082.325868 97.842 -160.2355
5119.154496 98.038 -159.2972
5156.250000 98.253 -158.4383
5193.614313 98.487 -157.6667
5231.249383 98.738 -156.9910
5269.157173 99.006 -156.4209
5307.339658 99.289 -155.9672
5345.798829 99.587 -155.6418
5384.536691 99.897 -155.4574
5423.555263 100.218 -155.4265
5462.856580 100.547 -155.5618
5502.442691 100.881 -155.8748
5542.315659 101.218 -156.3752
5582.477563 101.555 -157.0705
5622.930497 101.888 -157.9649
5663.676569 102.213 -159.0592
5704.717904 102.528 -160.3501
5746.056642 102.827 -161.8298
5787.694937 103.109 -163.4859
5829.634960 103.370 -165.3014
5871.878898 103.606 -167.2545
5914.428953 103.816 -169.3198
5957.287343 103.997 -171.4686
6000.456303 104.149 -173.6705
6043.938083 104.271 -175.8943
6087.734950 104.364 -178.1099
6131.849187 104.430 179.7106
6176.283094 104.470 177.5914
6221.038987 104.487 175.5520
6266.119200 104.484 173.6064
6311.526083 104.463 171.7628
6357.262002 104.429 170.0232
6403.329344 104.385 168.3842
6449.730508 104.333 166.8367
6496.467914 104.276 165.3667
6543.543998 104.218 163.9562
6590.961215 104.161 162.5837
6638.722037 104.106 161.2256
6686.828954 104.057 159.8568
6735.284473 104.012 158.4520
6784.091120 103.974 156.9869
6833.251441 103.941 155.4391
6882.767998 103.911 153.7896
6932.643372 103.883 152.0236
6982.880164 103.854 150.1316
7033.480992 103.820 148.1095
7084.448495 103.778 145.9589
7135.785329 103.723 143.6864
7187.494171 103.653 141.3033
7239.577717 103.564 138.8241
7292.038681 103.454 136.2654
7344.879799 103.321 133.6447
7398.103826 103.163 130.9788
7451.713536 102.980 128.2823
7505.711724 102.772 125.5664
7560.101205 102.541 122.8377
7614.884815 102.286 120.0974
7670.065409 102.010 117.3402
7725.645865 101.715 114.5543
7781.629080 101.402 111.7207
7838.017972 101.074 108.8135
7894.815481 100.732 105.8003
7952.024569 100.380 102.6417
8009.648217 100.019 99.2917
8067.689429 99.651 95.6961
8126.151233 99.281 91.7914
8185.036674 98.912 87.5023
8244.348824 98.546 82.7383
8304.090774 98.188 77.3906
8364.265639 97.840 71.3270
8424.876556 97.504 64.3859
8485.926684 97.184 56.3723
8547.419207 96.881 47.0617
8609.357330 96.599 36.2320
8671.744282 96.346 23.7532
8734.583316 96.128 9.7523
8797.877707 95.956 -5.2191
8861.630756 95.842 -20.2268
8925.845785 95.797 -34.3121
8990.526143 95.831 -46.8782
9055.675202 95.947 -57.7792
9121.296357 96.143 -67.1654
9187.393031 96.412 -75.3033
9253.968668 96.740 -82.4707
9321.026740 97.109 -88.9133
9388.570742 97.502 -94.8354
9456.604196 97.899 -100.4004
9525.130648 98.284 -105.7352
9594.153671 98.640 -110.9344
9663.676863 98.952 -116.0630
9733.703850 99.210 -121.1580
9804.238280 99.402 -126.2322
9875.283832 99.520 -131.2749
9946.844210 99.558 -136.2563
10018.923143 99.513 -141.1310
10091.524390 99.383 -145.8434
10164.651736 99.172 -150.3330
10238.308993 98.883 -154.5401
10312.500000 98.524 -158.4092
10387.228626 98.103 -161.8943
10462.498767 97.632 -164.9625
10538.314345 97.124 -167.5990
10614.679315 96.594 -169.8128
10691.597657 96.059 -171.6415
10769.073381 95.535 -173.1535
10847.110526 95.038 -174.4443
10925.713161 94.577 -175.6262
11004.885382 94.158 -176.8116
11084.631318 93.776 -178.0945
11164.955126 93.420 -179.5351
11245.860993 93.074 178.8486
11327.353138 92.718 177.0805
11409.435808 92.336 175.2197
11492.113283 91.914 173.3514
11575.389873 91.442 171.5769
11659.269920 90.915 170.0073
11743.757796 90.331 168.7585
11828.857906 89.694 167.9492
11914.574686 89.008 167.6967
12000.912606 88.285 168.1083
12087.876166 87.536 169.2643
12175.469900 86.778 171.1882
12263.698373 86.031 173.8105
12352.566187 85.317 176.9434
12442.077974 84.654 -179.7042
12532.238400 84.058 -176.4556
12623.052165 83.532 -173.5682
12714.524005 83.072 -171.1565
12806.658687 82.667 -169.1677
12899.461015 82.307 -167.3954
12992.935827 81.990 -165.4952
13087.087996 81.724 -162.9777
13181.922430 81.532 -159.1656
13277.444074 81.447 -153.1519
13373.657907 81.503 -143.9352
13470.568945 81.725 -131.2083
13568.182241 82.113 -116.7867
13666.502883 82.645 -104.1660
13765.535996 83.281 -95.4903
13865.286744 83.976 -90.6855
13965.760328 84.688 -88.8457
14066.961984 85.384 -89.1316
14168.896989 86.036 -90.9500
14271.570658 86.627 -93.9032
14374.988342 87.143 -97.7178
14479.155433 87.574 -102.1937
14584.077362 87.914 -107.1750
14689.759598 88.161 -112.5328
14796.207652 88.313 -118.1575
14903.427072 88.370 -123.9535
15011.423448 88.333 -129.8364
15120.202410 88.204 -135.7293
15229.769630 87.984 -141.5604
15340.130819 87.676 -147.2613
15451.291730 87.283 -152.7664
15563.258160 86.807 -158.0160
15676.035944 86.253 -162.9597
15789.630962 85.629 -167.5617
15904.049137 84.941 -171.8035
16019.296433 84.198 -175.6844
16135.378859 83.409 -179.2214
16252.302465 82.584 177.5520
16370.073348 81.732 174.5870
16488.697648 80.863 171.8238
16608.181548 79.987 169.1991
16728.531278 79.110 166.6586
16849.753112 78.239 164.1713
16971.853368 77.379 161.7432
17094.838414 76.531 159.4296
17218.714660 75.699 157.3447
17343.488565 74.889 155.6715
17469.166632 74.109 154.6707
17595.755415 73.378 154.6774
17723.261512 72.719 156.0542
17851.691571 72.164 159.0344
17981.052287 71.746 163.4205
18111.350404 71.486 168.3248
18242.592715 71.392 172.3990
18374.786062 71.447 174.5387
18507.937336 71.620 174.3164
18642.053479 71.873 171.8420
18777.141484 72.167 167.4572
18913.208391 72.470 161.5587
19050.261296 72.759 154.5554
19188.307342 73.017 146.8818
19327.353727 73.237 139.0132
19467.407699 73.415 131.4576
19608.476560 73.552 124.7173
19750.567664 73.651 119.2410
19893.688419 73.714 115.3860
20037.846286 73.745 113.3967
