* Measurement data measured by REW V5.31.3
* Source: EXCL: Headset (USB-C to 3.5mm Headphone Jack Adapter), MICROPHONE (Master Volume), 0, volume: 0.260
* Format: 256k Log Swept Sine, 1 sweep at -12.0 dBFS with no timing reference
* Dated: Feb 19, 2025 7:49:43 PM
* REW Settings:
*  C-weighting compensation: Off
*  Target level: 75.0 dB
* Note: ; 
* Measurement: Satyr 3 R6
* Smoothing: 1/6 octave
* Frequency Step: 96 ppo
* Start Frequency: 20.0 Hz
*
* Freq(Hz) SPL(dB) Phase(degrees)
20.141602 93.740 -32.2134
20.287556 93.752 -32.4081
20.434568 93.766 -32.6689
20.582645 93.785 -32.9886
20.731796 93.806 -33.3590
20.882027 93.829 -33.7715
21.033346 93.856 -34.2176
21.185763 93.884 -34.6893
21.339284 93.916 -35.1796
21.493917 93.950 -35.6826
21.649671 93.988 -36.1939
21.806553 94.030 -36.7110
21.964572 94.077 -37.2326
22.123737 94.129 -37.7595
22.284054 94.185 -38.2932
22.445534 94.246 -38.8364
22.608183 94.311 -39.3919
22.772012 94.378 -39.9627
22.937027 94.448 -40.5507
23.103238 94.520 -41.1571
23.270654 94.591 -41.7820
23.439282 94.661 -42.4240
23.609133 94.730 -43.0808
23.780215 94.797 -43.7492
23.952536 94.862 -44.4254
24.126106 94.925 -45.1058
24.300934 94.987 -45.7865
24.477028 95.048 -46.4645
24.654399 95.108 -47.1374
24.833055 95.168 -47.8034
25.013005 95.230 -48.4616
25.194260 95.292 -49.1116
25.376828 95.357 -49.7533
25.560719 95.423 -50.3871
25.745942 95.492 -51.0134
25.932508 95.563 -51.6326
26.120426 95.636 -52.2456
26.309705 95.711 -52.8532
26.500356 95.789 -53.4567
26.692388 95.870 -54.0580
26.885812 95.953 -54.6594
27.080638 96.040 -55.2640
27.276876 96.129 -55.8749
27.474535 96.221 -56.4957
27.673627 96.315 -57.1295
27.874161 96.412 -57.7790
28.076149 96.509 -58.4457
28.279600 96.605 -59.1300
28.484526 96.701 -59.8310
28.690937 96.794 -60.5463
28.898843 96.883 -61.2724
29.108256 96.968 -62.0049
29.319186 97.047 -62.7390
29.531645 97.121 -63.4701
29.745644 97.189 -64.1937
29.961193 97.251 -64.9065
30.178304 97.309 -65.6061
30.396989 97.363 -66.2915
30.617258 97.414 -66.9631
30.839123 97.463 -67.6221
31.062596 97.512 -68.2711
31.287688 97.563 -68.9130
31.514412 97.615 -69.5508
31.742778 97.672 -70.1875
31.972800 97.733 -70.8253
32.204488 97.799 -71.4657
32.437855 97.871 -72.1091
32.672913 97.949 -72.7551
32.909674 98.032 -73.4025
33.148151 98.120 -74.0501
33.388356 98.213 -74.6961
33.630302 98.309 -75.3394
33.874001 98.407 -75.9792
34.119466 98.507 -76.6154
34.366710 98.607 -77.2484
34.615745 98.705 -77.8788
34.866585 98.802 -78.5074
35.119243 98.895 -79.1347
35.373731 98.984 -79.7609
35.630064 99.068 -80.3857
35.888254 99.147 -81.0083
36.148315 99.221 -81.6278
36.410261 99.288 -82.2430
36.674104 99.351 -82.8530
36.939860 99.408 -83.4574
37.207542 99.460 -84.0563
37.477163 99.507 -84.6505
37.748738 99.551 -85.2418
38.022281 99.590 -85.8324
38.297806 99.627 -86.4251
38.575327 99.661 -87.0231
38.854860 99.694 -87.6292
39.136419 99.725 -88.2455
39.420017 99.756 -88.8737
39.705671 99.786 -89.5141
39.993395 99.818 -90.1660
40.283203 99.850 -90.8280
40.575112 99.883 -91.4983
40.869136 99.918 -92.1748
41.165290 99.954 -92.8557
41.463591 99.991 -93.5400
41.764053 100.029 -94.2271
42.066693 100.069 -94.9172
42.371525 100.109 -95.6111
42.678567 100.150 -96.3097
42.987834 100.193 -97.0142
43.299341 100.237 -97.7258
43.613106 100.282 -98.4452
43.929145 100.330 -99.1731
44.247473 100.381 -99.9095
44.568109 100.433 -100.6540
44.891068 100.487 -101.4057
45.216367 100.543 -102.1633
45.544023 100.599 -102.9256
45.874054 100.655 -103.6914
46.206476 100.711 -104.4597
46.541307 100.766 -105.2302
46.878565 100.821 -106.0029
47.218266 100.875 -106.7781
47.560429 100.929 -107.5559
47.905072 100.984 -108.3360
48.252212 101.039 -109.1181
48.601867 101.094 -109.9012
48.954056 101.150 -110.6844
49.308798 101.207 -111.4670
49.666109 101.263 -112.2485
50.026010 101.319 -113.0290
50.388520 101.374 -113.8090
50.753656 101.428 -114.5892
51.121437 101.480 -115.3704
51.491884 101.529 -116.1537
51.865016 101.577 -116.9398
52.240851 101.621 -117.7296
52.619410 101.663 -118.5235
53.000712 101.702 -119.3218
53.384777 101.739 -120.1247
53.771625 101.772 -120.9318
54.161276 101.802 -121.7427
54.553751 101.829 -122.5563
54.949070 101.853 -123.3717
55.347254 101.873 -124.1877
55.748323 101.890 -125.0033
56.152298 101.903 -125.8178
56.559201 101.913 -126.6310
56.969052 101.920 -127.4429
57.381873 101.925 -128.2541
57.797686 101.928 -129.0649
58.216512 101.930 -129.8750
58.638373 101.931 -130.6833
59.063291 101.934 -131.4877
59.491288 101.939 -132.2855
59.922386 101.945 -133.0742
60.356608 101.954 -133.8517
60.793977 101.965 -134.6173
61.234515 101.978 -135.3717
61.678246 101.991 -136.1162
62.125192 102.004 -136.8531
62.575377 102.015 -137.5846
63.028824 102.025 -138.3124
63.485557 102.032 -139.0378
63.945599 102.037 -139.7614
64.408975 102.038 -140.4833
64.875709 102.036 -141.2030
65.345825 102.031 -141.9197
65.819348 102.023 -142.6328
66.296302 102.012 -143.3414
66.776713 101.999 -144.0449
67.260604 101.984 -144.7430
67.748002 101.968 -145.4356
68.238932 101.951 -146.1227
68.733420 101.933 -146.8046
69.231490 101.914 -147.4815
69.733170 101.895 -148.1533
70.238485 101.875 -148.8201
70.747463 101.855 -149.4819
71.260128 101.834 -150.1385
71.776508 101.813 -150.7898
72.296630 101.792 -151.4359
72.820521 101.771 -152.0768
73.348209 101.749 -152.7127
73.879720 101.727 -153.3439
74.415083 101.704 -153.9703
74.954326 101.680 -154.5920
75.497475 101.655 -155.2086
76.044561 101.630 -155.8195
76.595612 101.603 -156.4243
77.150655 101.576 -157.0225
77.709720 101.547 -157.6135
78.272837 101.518 -158.1973
78.840034 101.487 -158.7735
79.411342 101.456 -159.3419
79.986789 101.424 -159.9025
80.566406 101.391 -160.4550
81.150224 101.358 -160.9998
81.738272 101.324 -161.5369
82.330581 101.289 -162.0669
82.927182 101.253 -162.5901
83.528107 101.218 -163.1069
84.133386 101.182 -163.6177
84.743051 101.145 -164.1227
85.357134 101.109 -164.6221
85.975667 101.072 -165.1161
86.598682 101.036 -165.6046
87.226212 101.000 -166.0880
87.858289 100.965 -166.5662
88.494946 100.931 -167.0394
89.136217 100.898 -167.5074
89.782135 100.866 -167.9700
90.432733 100.835 -168.4268
91.088046 100.806 -168.8775
91.748108 100.777 -169.3217
92.412952 100.749 -169.7594
93.082615 100.721 -170.1908
93.757130 100.694 -170.6159
94.436533 100.666 -171.0352
95.120859 100.637 -171.4487
95.810144 100.607 -171.8565
96.504423 100.576 -172.2582
97.203734 100.543 -172.6537
97.908112 100.507 -173.0427
98.617595 100.470 -173.4251
99.332219 100.430 -173.8012
100.052021 100.388 -174.1715
100.777039 100.344 -174.5365
101.507311 100.299 -174.8969
102.242875 100.252 -175.2532
102.983769 100.205 -175.6057
103.730032 100.158 -175.9544
104.481702 100.111 -176.2992
105.238820 100.064 -176.6399
106.001424 100.018 -176.9762
106.769554 99.973 -177.3079
107.543250 99.930 -177.6349
108.322553 99.887 -177.9572
109.107503 99.846 -178.2751
109.898141 99.806 -178.5888
110.694508 99.768 -178.8989
111.496646 99.730 -179.2057
112.304596 99.694 -179.5094
113.118402 99.657 -179.8103
113.938104 99.621 179.8918
114.763747 99.585 179.5973
115.595372 99.549 179.3065
116.433024 99.511 179.0203
117.276746 99.472 178.7394
118.126581 99.433 178.4647
118.982575 99.392 178.1970
119.844772 99.350 177.9369
120.713217 99.308 177.6846
121.587954 99.265 177.4398
122.469031 99.222 177.2018
123.356492 99.179 176.9700
124.250384 99.137 176.7436
125.150753 99.095 176.5221
126.057647 99.054 176.3052
126.971113 99.014 176.0927
127.891198 98.975 175.8843
128.817950 98.938 175.6799
129.751418 98.902 175.4791
130.691651 98.868 175.2816
131.638696 98.836 175.0869
132.592604 98.804 174.8950
133.553425 98.774 174.7057
134.521208 98.744 174.5191
135.496004 98.714 174.3352
136.477864 98.684 174.1541
137.466839 98.653 173.9756
138.462981 98.621 173.7998
139.466340 98.586 173.6264
140.476971 98.550 173.4553
141.494925 98.511 173.2866
142.520256 98.469 173.1203
143.553016 98.425 172.9565
144.593260 98.379 172.7954
145.641043 98.331 172.6373
146.696418 98.281 172.4822
147.759441 98.229 172.3303
148.830166 98.177 172.1813
149.908651 98.123 172.0355
150.994951 98.070 171.8928
152.089123 98.016 171.7539
153.191223 97.963 171.6194
154.301310 97.910 171.4905
155.419441 97.858 171.3680
156.545674 97.807 171.2529
157.680069 97.756 171.1461
158.822683 97.706 171.0481
159.973578 97.657 170.9595
161.132813 97.607 170.8808
162.300447 97.558 170.8126
163.476543 97.508 170.7552
164.661162 97.458 170.7090
165.854364 97.408 170.6746
167.056213 97.356 170.6523
168.266772 97.304 170.6427
169.486102 97.252 170.6464
170.714268 97.198 170.6642
171.951334 97.144 170.6971
173.197364 97.089 170.7460
174.452424 97.033 170.8121
175.716578 96.977 170.8965
176.989893 96.920 171.0001
178.272434 96.863 171.1237
179.564270 96.806 171.2678
180.865467 96.750 171.4329
182.176092 96.693 171.6191
183.496216 96.637 171.8266
184.825905 96.583 172.0552
186.165229 96.529 172.3044
187.514259 96.477 172.5732
188.873065 96.426 172.8603
190.241717 96.378 173.1636
191.620287 96.331 173.4807
193.008847 96.288 173.8086
194.407468 96.247 174.1441
195.816225 96.210 174.4836
197.235190 96.176 174.8231
198.664438 96.146 175.1585
200.104042 96.119 175.4853
201.554078 96.096 175.7993
203.014622 96.078 176.0961
204.485750 96.063 176.3724
205.967538 96.054 176.6248
207.460064 96.048 176.8511
208.963405 96.048 177.0498
210.477640 96.053 177.2201
212.002848 96.064 177.3617
213.539108 96.079 177.4750
215.086500 96.100 177.5607
216.645105 96.126 177.6198
218.215005 96.156 177.6534
219.796281 96.190 177.6633
221.389015 96.228 177.6510
222.993292 96.268 177.6184
224.609193 96.311 177.5675
226.236804 96.355 177.5002
227.876209 96.400 177.4187
229.527494 96.446 177.3250
231.190745 96.492 177.2208
232.866048 96.538 177.1080
234.553491 96.584 176.9879
236.253163 96.628 176.8616
237.965150 96.671 176.7302
239.689544 96.713 176.5946
241.426433 96.753 176.4557
243.175909 96.791 176.3146
244.938062 96.827 176.1723
246.712984 96.860 176.0298
248.500768 96.891 175.8879
250.301507 96.919 175.7473
252.115295 96.944 175.6083
253.942226 96.966 175.4717
255.782396 96.986 175.3378
257.635901 97.003 175.2072
259.502837 97.017 175.0804
261.383301 97.030 174.9579
263.277392 97.041 174.8403
265.185209 97.050 174.7280
267.106850 97.057 174.6208
269.042417 97.062 174.5185
270.992009 97.065 174.4205
272.955729 97.065 174.3262
274.933678 97.062 174.2354
276.925961 97.055 174.1478
278.932681 97.045 174.0636
280.953942 97.030 173.9830
282.989850 97.011 173.9063
285.040511 96.988 173.8338
287.106032 96.960 173.7657
289.186521 96.927 173.7023
291.282086 96.890 173.6434
293.392836 96.849 173.5892
295.518881 96.805 173.5393
297.660333 96.757 173.4936
299.817302 96.707 173.4517
301.989902 96.655 173.4133
304.178245 96.603 173.3779
306.382446 96.550 173.3453
308.602620 96.497 173.3151
310.838882 96.445 173.2870
313.091348 96.394 173.2607
315.360137 96.346 173.2355
317.645367 96.301 173.2114
319.947156 96.259 173.1880
322.265625 96.220 173.1654
324.600895 96.186 173.1436
326.953086 96.157 173.1226
329.322323 96.132 173.1023
331.708729 96.113 173.0828
334.112427 96.099 173.0640
336.533543 96.090 173.0456
338.972204 96.087 173.0276
341.428536 96.089 173.0097
343.902668 96.096 172.9915
346.394729 96.108 172.9727
348.904848 96.123 172.9529
351.433156 96.140 172.9323
353.979786 96.160 172.9111
356.544869 96.181 172.8900
359.128540 96.202 172.8697
361.730934 96.222 172.8513
364.352185 96.240 172.8359
366.992431 96.256 172.8246
369.651810 96.268 172.8181
372.330459 96.276 172.8171
375.028519 96.279 172.8218
377.746130 96.278 172.8322
380.483434 96.273 172.8477
383.240574 96.262 172.8675
386.017693 96.248 172.8904
388.814937 96.229 172.9156
391.632450 96.208 172.9418
394.470380 96.183 172.9683
397.328875 96.158 172.9945
400.208084 96.131 173.0204
403.108157 96.105 173.0457
406.029245 96.080 173.0707
408.971500 96.057 173.0956
411.935076 96.038 173.1207
414.920127 96.022 173.1461
417.926810 96.011 173.1723
420.955280 96.004 173.1994
424.005695 96.002 173.2276
427.078215 96.004 173.2570
430.173000 96.009 173.2876
433.290211 96.018 173.3196
436.430010 96.029 173.3531
439.592562 96.041 173.3881
442.778031 96.053 173.4246
445.986583 96.064 173.4625
449.218386 96.074 173.5017
452.473607 96.081 173.5420
455.752418 96.087 173.5830
459.054987 96.090 173.6244
462.381489 96.091 173.6657
465.732096 96.089 173.7065
469.106983 96.086 173.7461
472.506325 96.082 173.7840
475.930301 96.076 173.8196
479.379088 96.069 173.8528
482.852867 96.062 173.8835
486.351817 96.054 173.9119
489.876123 96.047 173.9385
493.425968 96.039 173.9639
497.001536 96.033 173.9885
500.603014 96.028 174.0127
504.230589 96.025 174.0367
507.884452 96.026 174.0605
511.564792 96.031 174.0844
515.271802 96.041 174.1081
519.005673 96.057 174.1318
522.766602 96.078 174.1556
526.554785 96.106 174.1797
530.370418 96.140 174.2041
534.213700 96.180 174.2291
538.084833 96.224 174.2544
541.984018 96.273 174.2801
545.911457 96.323 174.3058
549.867357 96.375 174.3311
553.851922 96.426 174.3555
557.865362 96.475 174.3786
561.907884 96.520 174.4000
565.979700 96.560 174.4196
570.081022 96.594 174.4376
574.212064 96.619 174.4545
578.373042 96.636 174.4713
582.564171 96.643 174.4896
586.785671 96.640 174.5115
591.037762 96.626 174.5396
595.320665 96.601 174.5770
599.634604 96.565 174.6264
603.979804 96.520 174.6900
608.356491 96.466 174.7684
612.764893 96.405 174.8603
617.205240 96.340 174.9627
621.677763 96.271 175.0717
626.182696 96.201 175.1827
630.720274 96.132 175.2918
635.290733 96.065 175.3961
639.894312 96.003 175.4937
644.531250 95.945 175.5835
649.201789 95.894 175.6652
653.906173 95.850 175.7388
658.644647 95.814 175.8047
663.417457 95.787 175.8633
668.224854 95.769 175.9152
673.067086 95.760 175.9609
677.944408 95.760 176.0007
682.857073 95.769 176.0348
687.805336 95.787 176.0632
692.789457 95.813 176.0861
697.809695 95.848 176.1039
702.866312 95.888 176.1172
707.959571 95.934 176.1268
713.089738 95.985 176.1334
718.257080 96.038 176.1375
723.461867 96.093 176.1393
728.704370 96.147 176.1387
733.984862 96.200 176.1348
739.303619 96.251 176.1269
744.660918 96.299 176.1139
750.057038 96.342 176.0952
755.492260 96.382 176.0703
760.966869 96.417 176.0396
766.481148 96.449 176.0036
772.035387 96.477 175.9632
777.629873 96.501 175.9192
783.264900 96.522 175.8723
788.940760 96.539 175.8231
794.657750 96.553 175.7713
800.416168 96.562 175.7165
806.216313 96.566 175.6579
812.058489 96.564 175.5946
817.943000 96.554 175.5261
823.870152 96.537 175.4518
829.840255 96.513 175.3719
835.853619 96.481 175.2867
841.910559 96.442 175.1970
848.011390 96.398 175.1032
854.156430 96.350 175.0060
860.346000 96.302 174.9056
866.580422 96.255 174.8022
872.860020 96.211 174.6958
879.185124 96.174 174.5864
885.556062 96.145 174.4740
891.973166 96.125 174.3586
898.436771 96.116 174.2401
904.947215 96.118 174.1188
911.504835 96.130 173.9946
918.109975 96.152 173.8676
924.762978 96.182 173.7373
931.464192 96.219 173.6035
938.213966 96.260 173.4658
945.012651 96.305 173.3237
951.860602 96.350 173.1773
958.758176 96.395 173.0272
965.705733 96.439 172.8743
972.703635 96.479 172.7203
979.752246 96.516 172.5667
986.851935 96.549 172.4150
994.003071 96.578 172.2664
1001.206027 96.605 172.1214
1008.461179 96.630 171.9802
1015.768904 96.654 171.8426
1023.129584 96.678 171.7083
1030.543603 96.704 171.5768
1038.011347 96.733 171.4478
1045.533205 96.766 171.3201
1053.109569 96.803 171.1928
1060.740836 96.845 171.0643
1068.427401 96.893 170.9328
1076.169666 96.946 170.7959
1083.968035 97.002 170.6517
1091.822915 97.060 170.4983
1099.734713 97.119 170.3348
1107.703844 97.177 170.1614
1115.730723 97.230 169.9791
1123.815768 97.279 169.7899
1131.959400 97.322 169.5966
1140.162045 97.356 169.4025
1148.424129 97.383 169.2110
1156.746083 97.403 169.0251
1165.128342 97.416 168.8470
1173.571343 97.424 168.6780
1182.075524 97.428 168.5186
1190.641331 97.430 168.3684
1199.269209 97.432 168.2266
1207.959608 97.434 168.0924
1216.712981 97.440 167.9652
1225.529785 97.449 167.8443
1234.410479 97.463 167.7291
1243.355526 97.481 167.6191
1252.365393 97.505 167.5142
1261.440549 97.534 167.4141
1270.581467 97.567 167.3189
1279.788624 97.605 167.2283
1289.062500 97.645 167.1426
1298.403578 97.688 167.0622
1307.812346 97.732 166.9879
1317.289293 97.776 166.9209
1326.834914 97.820 166.8621
1336.449707 97.862 166.8117
1346.134173 97.903 166.7698
1355.888816 97.941 166.7357
1365.714145 97.975 166.7095
1375.610673 98.006 166.6919
1385.578915 98.033 166.6840
1395.619391 98.057 166.6866
1405.732624 98.077 166.6996
1415.919142 98.094 166.7214
1426.179476 98.108 166.7498
1436.514160 98.121 166.7821
1446.923734 98.131 166.8166
1457.408740 98.139 166.8519
1467.969724 98.145 166.8874
1478.607238 98.150 166.9228
1489.321836 98.152 166.9579
1500.114076 98.152 166.9925
1510.984521 98.149 167.0266
1521.933737 98.143 167.0602
1532.962297 98.134 167.0938
1544.070773 98.121 167.1277
1555.259747 98.104 167.1627
1566.529800 98.083 167.1997
1577.881521 98.057 167.2406
1589.315501 98.028 167.2881
1600.832336 97.995 167.3461
1612.432627 97.959 167.4191
1624.116978 97.922 167.5120
1635.886000 97.883 167.6287
1647.740304 97.845 167.7717
1659.680509 97.808 167.9412
1671.707238 97.773 168.1354
1683.821118 97.741 168.3508
1696.022780 97.713 168.5829
1708.312860 97.688 168.8269
1720.692000 97.667 169.0775
1733.160843 97.651 169.3303
1745.720041 97.638 169.5815
1758.370248 97.630 169.8292
1771.112124 97.626 170.0724
1783.946332 97.627 170.3115
1796.873543 97.633 170.5469
1809.894429 97.643 170.7792
1823.009670 97.657 171.0085
1836.219950 97.677 171.2349
1849.525956 97.700 171.4579
1862.928384 97.727 171.6763
1876.427931 97.757 171.8870
1890.025301 97.789 172.0856
1903.721204 97.823 172.2676
1917.516352 97.858 172.4285
1931.411466 97.892 172.5647
1945.407270 97.926 172.6735
1959.504493 97.957 172.7532
1973.703870 97.986 172.8045
1988.006142 98.012 172.8301
2002.412054 98.035 172.8346
2016.922357 98.056 172.8225
2031.537808 98.076 172.7974
2046.259169 98.097 172.7615
2061.087206 98.119 172.7156
2076.022694 98.143 172.6586
2091.066410 98.171 172.5882
2106.219139 98.204 172.5003
2121.481671 98.241 172.3902
2136.854802 98.283 172.2541
2152.339333 98.329 172.0904
2167.936071 98.378 171.9000
2183.645829 98.432 171.6855
2199.469427 98.488 171.4507
2215.407689 98.548 171.1993
2231.461446 98.611 170.9344
2247.631536 98.679 170.6580
2263.918800 98.751 170.3708
2280.324089 98.827 170.0729
2296.848258 98.908 169.7638
2313.492167 98.992 169.4432
2330.256685 99.080 169.1111
2347.142685 99.170 168.7673
2364.151049 99.262 168.4120
2381.282662 99.355 168.0456
2398.538418 99.446 167.6688
2415.919216 99.537 167.2829
2433.425962 99.624 166.8899
2451.059570 99.707 166.4916
2468.820958 99.786 166.0898
2486.711052 99.859 165.6860
2504.730786 99.926 165.2812
2522.881098 99.985 164.8763
2541.162934 100.037 164.4721
2559.577248 100.079 164.0695
2578.125000 100.111 163.6700
2596.807157 100.134 163.2754
2615.624692 100.145 162.8881
2634.578586 100.145 162.5107
2653.669829 100.133 162.1461
2672.899414 100.109 161.7976
2692.268345 100.073 161.4689
2711.777632 100.026 161.1640
2731.428290 99.966 160.8870
2751.221345 99.895 160.6420
2771.157829 99.813 160.4337
2791.238781 99.720 160.2669
2811.465248 99.616 160.1463
2831.838284 99.504 160.0767
2852.358952 99.383 160.0623
2873.028321 99.255 160.1071
2893.847468 99.120 160.2143
2914.817480 98.980 160.3872
2935.939449 98.835 160.6287
2957.214476 98.688 160.9415
2978.643672 98.538 161.3279
3000.228152 98.389 161.7896
3021.969041 98.241 162.3270
3043.867475 98.097 162.9392
3065.924593 97.959 163.6234
3088.141547 97.828 164.3745
3110.519493 97.707 165.1846
3133.059600 97.598 166.0434
3155.763041 97.503 166.9380
3178.631001 97.423 167.8529
3201.664672 97.360 168.7711
3224.865254 97.314 169.6739
3248.233957 97.285 170.5427
3271.771999 97.272 171.3598
3295.480608 97.274 172.1104
3319.361019 97.291 172.7830
3343.414477 97.318 173.3707
3367.642236 97.355 173.8713
3392.045560 97.400 174.2863
3416.625721 97.449 174.6214
3441.383999 97.502 174.8848
3466.321686 97.558 175.0866
3491.440082 97.615 175.2378
3516.740496 97.673 175.3483
3542.224247 97.733 175.4261
3567.892664 97.794 175.4759
3593.747085 97.858 175.4992
3619.788858 97.923 175.4944
3646.019340 97.990 175.4580
3672.439900 98.058 175.3861
3699.051913 98.125 175.2759
3725.856768 98.190 175.1268
3752.855862 98.252 174.9409
3780.050603 98.308 174.7235
3807.442408 98.358 174.4828
3835.032705 98.401 174.2291
3862.822933 98.435 173.9744
3890.814540 98.461 173.7310
3919.008986 98.480 173.5110
3947.407741 98.490 173.3255
3976.012284 98.494 173.1839
4004.824108 98.493 173.0940
4033.844715 98.487 173.0612
4063.075616 98.478 173.0888
4092.518337 98.466 173.1783
4122.174412 98.453 173.3291
4152.045387 98.439 173.5395
4182.132820 98.426 173.8072
4212.438278 98.414 174.1298
4242.963342 98.403 174.5050
4273.709604 98.394 174.9312
4304.678665 98.388 175.4073
4335.872141 98.386 175.9318
4367.291658 98.389 176.5033
4398.938854 98.397 177.1196
4430.815378 98.412 177.7778
4462.922893 98.435 178.4746
4495.263072 98.466 179.2057
4527.837601 98.507 179.9667
4560.648179 98.556 -179.2475
4593.696515 98.616 -178.4419
4626.984334 98.686 -177.6218
4660.513370 98.766 -176.7921
4694.285371 98.855 -175.9572
4728.302098 98.954 -175.1205
4762.565324 99.062 -174.2849
4797.076835 99.179 -173.4523
4831.838432 99.305 -172.6247
4866.851925 99.440 -171.8038
4902.119140 99.583 -170.9919
4937.641916 99.735 -170.1917
4973.422105 99.897 -169.4071
5009.461572 100.067 -168.6429
5045.762195 100.247 -167.9054
5082.325868 100.437 -167.2022
5119.154496 100.635 -166.5425
5156.250000 100.842 -165.9366
5193.614313 101.058 -165.3960
5231.249383 101.280 -164.9326
5269.157173 101.507 -164.5586
5307.339658 101.738 -164.2859
5345.798829 101.971 -164.1253
5384.536691 102.204 -164.0862
5423.555263 102.435 -164.1760
5462.856580 102.661 -164.3995
5502.442691 102.880 -164.7592
5542.315659 103.091 -165.2543
5582.477563 103.291 -165.8815
5622.930497 103.480 -166.6347
5663.676569 103.655 -167.5055
5704.717904 103.816 -168.4832
5746.056642 103.963 -169.5556
5787.694937 104.096 -170.7092
5829.634960 104.214 -171.9299
5871.878898 104.318 -173.2043
5914.428953 104.410 -174.5199
5957.287343 104.490 -175.8669
6000.456303 104.560 -177.2379
6043.938083 104.620 -178.6285
6087.734950 104.672 179.9630
6131.849187 104.714 178.5363
6176.283094 104.749 177.0902
6221.038987 104.773 175.6232
6266.119200 104.788 174.1346
6311.526083 104.791 172.6256
6357.262002 104.782 171.0990
6403.329344 104.759 169.5597
6449.730508 104.724 168.0137
6496.467914 104.676 166.4678
6543.543998 104.616 164.9283
6590.961215 104.547 163.3999
6638.722037 104.471 161.8847
6686.828954 104.392 160.3813
6735.284473 104.312 158.8842
6784.091120 104.235 157.3840
6833.251441 104.163 155.8682
6882.767998 104.099 154.3216
6932.643372 104.043 152.7278
6982.880164 103.996 151.0706
7033.480992 103.956 149.3347
7084.448495 103.920 147.5068
7135.785329 103.887 145.5765
7187.494171 103.852 143.5364
7239.577717 103.811 141.3825
7292.038681 103.760 139.1133
7344.879799 103.696 136.7299
7398.103826 103.615 134.2342
7451.713536 103.515 131.6286
7505.711724 103.392 128.9149
7560.101205 103.246 126.0934
7614.884815 103.074 123.1622
7670.065409 102.877 120.1172
7725.645865 102.653 116.9515
7781.629080 102.403 113.6557
7838.017972 102.126 110.2173
7894.815481 101.823 106.6212
7952.024569 101.494 102.8477
8009.648217 101.141 98.8725
8067.689429 100.766 94.6641
8126.151233 100.371 90.1807
8185.036674 99.961 85.3672
8244.348824 99.540 80.1501
8304.090774 99.115 74.4333
8364.265639 98.694 68.0918
8424.876556 98.285 60.9669
8485.926684 97.899 52.8638
8547.419207 97.546 43.5621
8609.357330 97.238 32.8539
8671.744282 96.986 20.6365
8734.583316 96.802 7.0596
8797.877707 96.694 -7.3492
8861.630756 96.668 -21.7577
8925.845785 96.724 -35.3441
8990.526143 96.858 -47.6049
9055.675202 97.063 -58.4159
9121.296357 97.325 -67.9032
9187.393031 97.632 -76.2938
9253.968668 97.967 -83.8246
9321.026740 98.316 -90.7045
9388.570742 98.664 -97.1041
9456.604196 98.998 -103.1567
9525.130648 99.306 -108.9628
9594.153671 99.576 -114.5940
9663.676863 99.799 -120.0966
9733.703850 99.967 -125.4936
9804.238280 100.071 -130.7886
9875.283832 100.106 -135.9673
9946.844210 100.070 -141.0018
10018.923143 99.960 -145.8544
10091.524390 99.777 -150.4818
10164.651736 99.524 -154.8402
10238.308993 99.207 -158.8892
10312.500000 98.832 -162.5961
10387.228626 98.408 -165.9402
10462.498767 97.946 -168.9164
10538.314345 97.458 -171.5389
10614.679315 96.957 -173.8430
10691.597657 96.456 -175.8857
10769.073381 95.966 -177.7419
10847.110526 95.496 -179.4974
10925.713161 95.051 178.7614
11004.885382 94.630 176.9593
11084.631318 94.227 175.0414
11164.955126 93.832 172.9801
11245.860993 93.431 170.7760
11327.353138 93.013 168.4557
11409.435808 92.563 166.0656
11492.113283 92.072 163.6657
11575.389873 91.532 161.3218
11659.269920 90.940 159.0998
11743.757796 90.294 157.0599
11828.857906 89.596 155.2528
11914.574686 88.847 153.7148
12000.912606 88.055 152.4646
12087.876166 87.226 151.4987
12175.469900 86.373 150.7886
12263.698373 85.509 150.2803
12352.566187 84.656 149.8979
12442.077974 83.839 149.5574
12532.238400 83.091 149.1930
12623.052165 82.453 148.8149
12714.524005 81.967 148.6776
12806.658687 81.672 150.2616
12899.461015 81.591 -166.1147
12992.935827 81.727 -49.2484
13087.087996 82.058 -47.4741
13181.922430 82.546 -48.9188
13277.444074 83.148 -51.2317
13373.657907 83.824 -53.9578
13470.568945 84.541 -56.9544
13568.182241 85.273 -60.1798
13666.502883 85.999 -63.6373
13765.535996 86.703 -67.3508
13865.286744 87.370 -71.3505
13965.760328 87.989 -75.6631
14066.961984 88.548 -80.3046
14168.896989 89.037 -85.2764
14271.570658 89.450 -90.5632
14374.988342 89.778 -96.1337
14479.155433 90.018 -101.9419
14584.077362 90.166 -107.9326
14689.759598 90.224 -114.0461
14796.207652 90.193 -120.2240
14903.427072 90.076 -126.4128
15011.423448 89.878 -132.5673
15120.202410 89.605 -138.6509
15229.769630 89.262 -144.6368
15340.130819 88.855 -150.5076
15451.291730 88.391 -156.2545
15563.258160 87.874 -161.8765
15676.035944 87.310 -167.3781
15789.630962 86.703 -172.7657
15904.049137 86.056 -178.0456
16019.296433 85.371 176.7775
16135.378859 84.650 171.6998
16252.302465 83.895 166.7177
16370.073348 83.108 161.8284
16488.697648 82.291 157.0339
16608.181548 81.444 152.3476
16728.531278 80.570 147.8026
16849.753112 79.669 143.4623
16971.853368 78.742 139.4337
17094.838414 77.792 135.8888
17218.714660 76.824 133.1017
17343.488565 75.847 131.5172
17469.166632 74.875 131.8627
17595.755415 73.926 135.2638
17723.261512 73.024 143.0363
17851.691571 72.195 155.1776
17981.052287 71.466 168.1205
18111.350404 70.860 177.1989
18242.592715 70.388 -178.8575
18374.786062 70.051 -178.9655
18507.937336 69.840 178.1440
18642.053479 69.737 173.3387
18777.141484 69.721 167.1522
18913.208391 69.767 159.9297
19050.261296 69.852 151.9468
19188.307342 69.956 143.4952
19327.353727 70.060 134.9367
19467.407699 70.151 126.7191
19608.476560 70.224 119.3447
19750.567664 70.275 113.3105
19893.688419 70.307 109.0384
20037.846286 70.321 106.8266
