* Measurement data measured by REW V5.31.3
* Source: EXCL: Headset (USB-C to 3.5mm Headphone Jack Adapter), MICROPHONE (Master Volume), 0, volume: 0.260
* Format: 256k Log Swept Sine, 1 sweep at -12.0 dBFS with no timing reference
* Dated: Feb 14, 2025 8:26:22 PM
* REW Settings:
*  C-weighting compensation: Off
*  Target level: 75.0 dB
* Note: ; 
* Measurement: Satyr 3 R1
* Smoothing: 1/6 octave
* Frequency Step: 96 ppo
* Start Frequency: 20.0 Hz
*
* Freq(Hz) SPL(dB) Phase(degrees)
20.141602 91.298 -24.2223
20.287556 91.320 -24.4725
20.434568 91.348 -24.8077
20.582645 91.379 -25.2191
20.731796 91.410 -25.6971
20.882027 91.438 -26.2318
21.033346 91.461 -26.8135
21.185763 91.477 -27.4332
21.339284 91.484 -28.0826
21.493917 91.484 -28.7539
21.649671 91.476 -29.4402
21.806553 91.461 -30.1352
21.964572 91.440 -30.8335
22.123737 91.416 -31.5303
22.284054 91.390 -32.2219
22.445534 91.364 -32.9053
22.608183 91.340 -33.5785
22.772012 91.319 -34.2404
22.937027 91.304 -34.8908
23.103238 91.296 -35.5302
23.270654 91.297 -36.1598
23.439282 91.307 -36.7813
23.609133 91.327 -37.3969
23.780215 91.359 -38.0088
23.952536 91.403 -38.6192
24.126106 91.459 -39.2304
24.300934 91.526 -39.8441
24.477028 91.605 -40.4618
24.654399 91.693 -41.0844
24.833055 91.790 -41.7124
25.013005 91.894 -42.3459
25.194260 92.002 -42.9844
25.376828 92.114 -43.6273
25.560719 92.227 -44.2738
25.745942 92.339 -44.9231
25.932508 92.450 -45.5743
26.120426 92.558 -46.2269
26.309705 92.662 -46.8805
26.500356 92.761 -47.5353
26.692388 92.855 -48.1913
26.885812 92.944 -48.8490
27.080638 93.027 -49.5090
27.276876 93.106 -50.1719
27.474535 93.180 -50.8380
27.673627 93.252 -51.5078
27.874161 93.322 -52.1814
28.076149 93.393 -52.8586
28.279600 93.467 -53.5393
28.484526 93.547 -54.2231
28.690937 93.636 -54.9096
28.898843 93.737 -55.5984
29.108256 93.851 -56.2891
29.319186 93.980 -56.9813
29.531645 94.124 -57.6747
29.745644 94.282 -58.3687
29.961193 94.453 -59.0630
30.178304 94.632 -59.7570
30.396989 94.817 -60.4501
30.617258 95.003 -61.1418
30.839123 95.184 -61.8315
31.062596 95.356 -62.5186
31.287688 95.514 -63.2029
31.514412 95.653 -63.8838
31.742778 95.770 -64.5613
31.972800 95.862 -65.2351
32.204488 95.926 -65.9048
32.437855 95.962 -66.5703
32.672913 95.968 -67.2312
32.909674 95.946 -67.8870
33.148151 95.897 -68.5374
33.388356 95.824 -69.1821
33.630302 95.730 -69.8210
33.874001 95.618 -70.4542
34.119466 95.494 -71.0822
34.366710 95.360 -71.7058
34.615745 95.223 -72.3259
34.866585 95.086 -72.9437
35.119243 94.954 -73.5604
35.373731 94.831 -74.1771
35.630064 94.720 -74.7945
35.888254 94.625 -75.4131
36.148315 94.547 -76.0328
36.410261 94.489 -76.6532
36.674104 94.453 -77.2733
36.939860 94.439 -77.8922
37.207542 94.448 -78.5088
37.477163 94.481 -79.1222
37.748738 94.537 -79.7319
38.022281 94.616 -80.3379
38.297806 94.718 -80.9404
38.575327 94.842 -81.5402
38.854860 94.987 -82.1383
39.136419 95.151 -82.7359
39.420017 95.333 -83.3343
39.705671 95.533 -83.9346
39.993395 95.749 -84.5381
40.283203 95.979 -85.1462
40.575112 96.222 -85.7600
40.869136 96.477 -86.3805
41.165290 96.743 -87.0087
41.463591 97.016 -87.6450
41.764053 97.296 -88.2896
42.066693 97.579 -88.9421
42.371525 97.865 -89.6017
42.678567 98.149 -90.2676
42.987834 98.431 -90.9385
43.299341 98.706 -91.6136
43.613106 98.974 -92.2924
43.929145 99.231 -92.9750
44.247473 99.475 -93.6616
44.568109 99.706 -94.3532
44.891068 99.921 -95.0503
45.216367 100.119 -95.7536
45.544023 100.301 -96.4631
45.874054 100.464 -97.1784
46.206476 100.609 -97.8987
46.541307 100.737 -98.6229
46.878565 100.847 -99.3499
47.218266 100.941 -100.0790
47.560429 101.018 -100.8096
47.905072 101.080 -101.5416
48.252212 101.128 -102.2757
48.601867 101.162 -103.0123
48.954056 101.185 -103.7525
49.308798 101.198 -104.4969
49.666109 101.203 -105.2460
50.026010 101.201 -105.9999
50.388520 101.195 -106.7583
50.753656 101.185 -107.5206
51.121437 101.174 -108.2861
51.491884 101.164 -109.0541
51.865016 101.155 -109.8238
52.240851 101.148 -110.5948
52.619410 101.144 -111.3666
53.000712 101.143 -112.1387
53.384777 101.144 -112.9107
53.771625 101.147 -113.6825
54.161276 101.152 -114.4538
54.553751 101.157 -115.2245
54.949070 101.163 -115.9942
55.347254 101.167 -116.7630
55.748323 101.169 -117.5306
56.152298 101.169 -118.2969
56.559201 101.165 -119.0622
56.969052 101.157 -119.8266
57.381873 101.146 -120.5906
57.797686 101.130 -121.3549
58.216512 101.110 -122.1198
58.638373 101.087 -122.8855
59.063291 101.060 -123.6518
59.491288 101.031 -124.4182
59.922386 101.000 -125.1840
60.356608 100.966 -125.9484
60.793977 100.932 -126.7110
61.234515 100.896 -127.4712
61.678246 100.860 -128.2291
62.125192 100.824 -128.9847
62.575377 100.788 -129.7381
63.028824 100.752 -130.4894
63.485557 100.717 -131.2388
63.945599 100.683 -131.9860
64.408975 100.650 -132.7308
64.875709 100.618 -133.4728
65.345825 100.588 -134.2116
65.819348 100.559 -134.9470
66.296302 100.532 -135.6787
66.776713 100.507 -136.4066
67.260604 100.484 -137.1305
67.748002 100.463 -137.8502
68.238932 100.443 -138.5654
68.733420 100.425 -139.2756
69.231490 100.408 -139.9808
69.733170 100.392 -140.6804
70.238485 100.378 -141.3744
70.747463 100.363 -142.0626
71.260128 100.350 -142.7448
71.776508 100.337 -143.4207
72.296630 100.324 -144.0902
72.820521 100.311 -144.7529
73.348209 100.298 -145.4085
73.879720 100.286 -146.0570
74.415083 100.273 -146.6985
74.954326 100.261 -147.3330
75.497475 100.248 -147.9608
76.044561 100.234 -148.5820
76.595612 100.219 -149.1965
77.150655 100.203 -149.8045
77.709720 100.184 -150.4059
78.272837 100.164 -151.0010
78.840034 100.140 -151.5899
79.411342 100.113 -152.1728
79.986789 100.083 -152.7500
80.566406 100.049 -153.3216
81.150224 100.010 -153.8876
81.738272 99.969 -154.4482
82.330581 99.924 -155.0032
82.927182 99.877 -155.5523
83.528107 99.829 -156.0954
84.133386 99.781 -156.6322
84.743051 99.737 -157.1623
85.357134 99.698 -157.6859
85.975667 99.668 -158.2029
86.598682 99.650 -158.7134
87.226212 99.647 -159.2180
87.858289 99.663 -159.7167
88.494946 99.700 -160.2099
89.136217 99.760 -160.6976
89.782135 99.845 -161.1800
90.432733 99.953 -161.6569
91.088046 100.083 -162.1282
91.748108 100.230 -162.5938
92.412952 100.391 -163.0536
93.082615 100.561 -163.5077
93.757130 100.733 -163.9562
94.436533 100.903 -164.3990
95.120859 101.065 -164.8362
95.810144 101.216 -165.2677
96.504423 101.352 -165.6936
97.203734 101.472 -166.1140
97.908112 101.574 -166.5289
98.617595 101.658 -166.9383
99.332219 101.726 -167.3425
100.052021 101.779 -167.7417
100.777039 101.820 -168.1359
101.507311 101.850 -168.5252
102.242875 101.871 -168.9099
102.983769 101.886 -169.2899
103.730032 101.895 -169.6654
104.481702 101.900 -170.0367
105.238820 101.899 -170.4036
106.001424 101.894 -170.7665
106.769554 101.881 -171.1252
107.543250 101.861 -171.4798
108.322553 101.830 -171.8303
109.107503 101.788 -172.1768
109.898141 101.734 -172.5196
110.694508 101.666 -172.8589
111.496646 101.584 -173.1949
112.304596 101.489 -173.5276
113.118402 101.382 -173.8566
113.938104 101.264 -174.1815
114.763747 101.137 -174.5015
115.595372 101.004 -174.8159
116.433024 100.866 -175.1243
117.276746 100.727 -175.4263
118.126581 100.587 -175.7218
118.982575 100.449 -176.0109
119.844772 100.313 -176.2938
120.713217 100.180 -176.5709
121.587954 100.049 -176.8425
122.469031 99.921 -177.1091
123.356492 99.794 -177.3709
124.250384 99.667 -177.6281
125.150753 99.539 -177.8810
126.057647 99.407 -178.1296
126.971113 99.272 -178.3742
127.891198 99.131 -178.6149
128.817950 98.984 -178.8519
129.751418 98.831 -179.0853
130.691651 98.671 -179.3150
131.638696 98.507 -179.5411
132.592604 98.338 -179.7634
133.553425 98.167 -179.9820
134.521208 97.997 179.8033
135.496004 97.831 179.5923
136.477864 97.672 179.3854
137.466839 97.524 179.1825
138.462981 97.389 178.9837
139.466340 97.272 178.7889
140.476971 97.172 178.5981
141.494925 97.092 178.4108
142.520256 97.030 178.2267
143.553016 96.985 178.0453
144.593260 96.953 177.8665
145.641043 96.931 177.6903
146.696418 96.915 177.5169
147.759441 96.901 177.3469
148.830166 96.885 177.1810
149.908651 96.864 177.0203
150.994951 96.836 176.8661
152.089123 96.799 176.7201
153.191223 96.755 176.5834
154.301310 96.702 176.4578
155.419441 96.643 176.3444
156.545674 96.580 176.2444
157.680069 96.513 176.1591
158.822683 96.445 176.0891
159.973578 96.378 176.0353
161.132813 96.313 175.9980
162.300447 96.251 175.9774
163.476543 96.192 175.9733
164.661162 96.139 175.9857
165.854364 96.090 176.0142
167.056213 96.046 176.0587
168.266772 96.007 176.1190
169.486102 95.974 176.1951
170.714268 95.948 176.2867
171.951334 95.927 176.3938
173.197364 95.914 176.5159
174.452424 95.907 176.6522
175.716578 95.907 176.8020
176.989893 95.913 176.9640
178.272434 95.925 177.1368
179.564270 95.943 177.3187
180.865467 95.964 177.5078
182.176092 95.988 177.7018
183.496216 96.014 177.8983
184.825905 96.041 178.0947
186.165229 96.069 178.2885
187.514259 96.097 178.4768
188.873065 96.125 178.6569
190.241717 96.155 178.8262
191.620287 96.185 178.9824
193.008847 96.218 179.1233
194.407468 96.252 179.2472
195.816225 96.288 179.3527
197.235190 96.325 179.4389
198.664438 96.363 179.5052
200.104042 96.402 179.5515
201.554078 96.440 179.5776
203.014622 96.477 179.5839
204.485750 96.511 179.5709
205.967538 96.541 179.5396
207.460064 96.568 179.4911
208.963405 96.591 179.4270
210.477640 96.609 179.3486
212.002848 96.623 179.2578
213.539108 96.633 179.1561
215.086500 96.639 179.0453
216.645105 96.641 178.9268
218.215005 96.641 178.8020
219.796281 96.637 178.6721
221.389015 96.630 178.5382
222.993292 96.619 178.4012
224.609193 96.603 178.2620
226.236804 96.583 178.1215
227.876209 96.557 177.9806
229.527494 96.525 177.8398
231.190745 96.487 177.6997
232.866048 96.443 177.5605
234.553491 96.393 177.4225
236.253163 96.337 177.2858
237.965150 96.278 177.1507
239.689544 96.215 177.0172
241.426433 96.149 176.8854
243.175909 96.082 176.7552
244.938062 96.015 176.6265
246.712984 95.948 176.4994
248.500768 95.882 176.3739
250.301507 95.819 176.2500
252.115295 95.759 176.1277
253.942226 95.702 176.0071
255.782396 95.650 175.8883
257.635901 95.602 175.7712
259.502837 95.560 175.6559
261.383301 95.523 175.5422
263.277392 95.492 175.4301
265.185209 95.467 175.3197
267.106850 95.448 175.2110
269.042417 95.435 175.1040
270.992009 95.427 174.9989
272.955729 95.424 174.8956
274.933678 95.426 174.7943
276.925961 95.430 174.6949
278.932681 95.438 174.5977
280.953942 95.448 174.5028
282.989850 95.461 174.4104
285.040511 95.476 174.3205
287.106032 95.493 174.2332
289.186521 95.514 174.1486
291.282086 95.539 174.0666
293.392836 95.569 173.9874
295.518881 95.604 173.9109
297.660333 95.645 173.8375
299.817302 95.691 173.7672
301.989902 95.743 173.7001
304.178245 95.798 173.6362
306.382446 95.855 173.5754
308.602620 95.913 173.5175
310.838882 95.969 173.4622
313.091348 96.023 173.4095
315.360137 96.071 173.3592
317.645367 96.114 173.3109
319.947156 96.150 173.2646
322.265625 96.177 173.2201
324.600895 96.195 173.1771
326.953086 96.204 173.1356
329.322323 96.203 173.0955
331.708729 96.192 173.0566
334.112427 96.170 173.0189
336.533543 96.138 172.9824
338.972204 96.096 172.9470
341.428536 96.045 172.9127
343.902668 95.986 172.8798
346.394729 95.920 172.8483
348.904848 95.848 172.8182
351.433156 95.772 172.7895
353.979786 95.695 172.7623
356.544869 95.619 172.7363
359.128540 95.546 172.7117
361.730934 95.480 172.6883
364.352185 95.424 172.6659
366.992431 95.380 172.6444
369.651810 95.352 172.6238
372.330459 95.339 172.6039
375.028519 95.345 172.5847
377.746130 95.368 172.5662
380.483434 95.409 172.5488
383.240574 95.465 172.5324
386.017693 95.535 172.5174
388.814937 95.616 172.5037
391.632450 95.706 172.4915
394.470380 95.801 172.4805
397.328875 95.900 172.4706
400.208084 95.999 172.4615
403.108157 96.098 172.4532
406.029245 96.194 172.4455
408.971500 96.288 172.4382
411.935076 96.379 172.4316
414.920127 96.466 172.4257
417.926810 96.551 172.4208
420.955280 96.635 172.4171
424.005695 96.717 172.4146
427.078215 96.799 172.4136
430.173000 96.881 172.4141
433.290211 96.964 172.4160
436.430010 97.047 172.4192
439.592562 97.130 172.4234
442.778031 97.211 172.4283
445.986583 97.290 172.4338
449.218386 97.366 172.4395
452.473607 97.435 172.4454
455.752418 97.497 172.4514
459.054987 97.551 172.4575
462.381489 97.595 172.4637
465.732096 97.629 172.4698
469.106983 97.652 172.4758
472.506325 97.666 172.4816
475.930301 97.669 172.4874
479.379088 97.664 172.4931
482.852867 97.651 172.4993
486.351817 97.631 172.5062
489.876123 97.605 172.5144
493.425968 97.575 172.5241
497.001536 97.540 172.5356
500.603014 97.503 172.5488
504.230589 97.463 172.5634
507.884452 97.420 172.5789
511.564792 97.374 172.5948
515.271802 97.327 172.6105
519.005673 97.278 172.6254
522.766602 97.228 172.6389
526.554785 97.178 172.6504
530.370418 97.131 172.6592
534.213700 97.087 172.6649
538.084833 97.048 172.6669
541.984018 97.017 172.6652
545.911457 96.994 172.6596
549.867357 96.980 172.6503
553.851922 96.974 172.6380
557.865362 96.977 172.6234
561.907884 96.986 172.6081
565.979700 97.000 172.5938
570.081022 97.016 172.5831
574.212064 97.033 172.5788
578.373042 97.049 172.5836
582.564171 97.063 172.5992
586.785671 97.073 172.6265
591.037762 97.078 172.6643
595.320665 97.079 172.7103
599.634604 97.075 172.7614
603.979804 97.065 172.8144
608.356491 97.050 172.8665
612.764893 97.030 172.9158
617.205240 97.006 172.9614
621.677763 96.978 173.0029
626.182696 96.948 173.0402
630.720274 96.918 173.0732
635.290733 96.888 173.1019
639.894312 96.862 173.1258
644.531250 96.840 173.1446
649.201789 96.825 173.1576
653.906173 96.817 173.1643
658.644647 96.817 173.1641
663.417457 96.825 173.1568
668.224854 96.839 173.1422
673.067086 96.860 173.1200
677.944408 96.885 173.0904
682.857073 96.913 173.0533
687.805336 96.941 173.0086
692.789457 96.969 172.9563
697.809695 96.995 172.8964
702.866312 97.017 172.8292
707.959571 97.036 172.7548
713.089738 97.049 172.6737
718.257080 97.057 172.5863
723.461867 97.060 172.4932
728.704370 97.058 172.3951
733.984862 97.052 172.2925
739.303619 97.042 172.1862
744.660918 97.029 172.0767
750.057038 97.014 171.9645
755.492260 96.997 171.8501
760.966869 96.979 171.7338
766.481148 96.960 171.6157
772.035387 96.938 171.4958
777.629873 96.915 171.3741
783.264900 96.889 171.2507
788.940760 96.859 171.1258
794.657750 96.825 170.9994
800.416168 96.785 170.8716
806.216313 96.740 170.7420
812.058489 96.688 170.6100
817.943000 96.630 170.4746
823.870152 96.566 170.3352
829.840255 96.495 170.1910
835.853619 96.419 170.0414
841.910559 96.338 169.8858
848.011390 96.254 169.7236
854.156430 96.166 169.5544
860.346000 96.077 169.3781
866.580422 95.987 169.1947
872.860020 95.897 169.0047
879.185124 95.808 168.8091
885.556062 95.721 168.6090
891.973166 95.638 168.4060
898.436771 95.558 168.2015
904.947215 95.484 167.9973
911.504835 95.415 167.7952
918.109975 95.354 167.5968
924.762978 95.301 167.4034
931.464192 95.257 167.2158
938.213966 95.222 167.0340
945.012651 95.196 166.8572
951.860602 95.180 166.6847
958.758176 95.172 166.5157
965.705733 95.172 166.3499
972.703635 95.179 166.1877
979.752246 95.192 166.0300
986.851935 95.212 165.8776
994.003071 95.236 165.7307
1001.206027 95.267 165.5885
1008.461179 95.303 165.4484
1015.768904 95.345 165.3068
1023.129584 95.394 165.1590
1030.543603 95.450 165.0007
1038.011347 95.512 164.8286
1045.533205 95.581 164.6406
1053.109569 95.655 164.4368
1060.740836 95.736 164.2187
1068.427401 95.821 163.9884
1076.169666 95.911 163.7489
1083.968035 96.003 163.5027
1091.822915 96.097 163.2519
1099.734713 96.190 162.9982
1107.703844 96.281 162.7427
1115.730723 96.368 162.4865
1123.815768 96.449 162.2310
1131.959400 96.523 161.9780
1140.162045 96.589 161.7301
1148.424129 96.646 161.4899
1156.746083 96.695 161.2599
1165.128342 96.735 161.0423
1173.571343 96.769 160.8382
1182.075524 96.797 160.6481
1190.641331 96.822 160.4720
1199.269209 96.844 160.3095
1207.959608 96.865 160.1604
1216.712981 96.885 160.0244
1225.529785 96.904 159.9014
1234.410479 96.924 159.7914
1243.355526 96.943 159.6949
1252.365393 96.962 159.6126
1261.440549 96.979 159.5456
1270.581467 96.994 159.4945
1279.788624 97.008 159.4597
1289.062500 97.019 159.4406
1298.403578 97.027 159.4356
1307.812346 97.034 159.4431
1317.289293 97.038 159.4613
1326.834914 97.040 159.4890
1336.449707 97.041 159.5248
1346.134173 97.040 159.5675
1355.888816 97.038 159.6154
1365.714145 97.035 159.6665
1375.610673 97.030 159.7192
1385.578915 97.024 159.7728
1395.619391 97.016 159.8279
1405.732624 97.006 159.8860
1415.919142 96.994 159.9489
1426.179476 96.981 160.0180
1436.514160 96.966 160.0945
1446.923734 96.952 160.1788
1457.408740 96.939 160.2711
1467.969724 96.927 160.3710
1478.607238 96.919 160.4776
1489.321836 96.914 160.5897
1500.114076 96.913 160.7057
1510.984521 96.917 160.8245
1521.933737 96.925 160.9450
1532.962297 96.937 161.0670
1544.070773 96.953 161.1906
1555.259747 96.972 161.3161
1566.529800 96.993 161.4443
1577.881521 97.016 161.5772
1589.315501 97.040 161.7174
1600.832336 97.065 161.8684
1612.432627 97.090 162.0332
1624.116978 97.116 162.2137
1635.886000 97.144 162.4099
1647.740304 97.174 162.6196
1659.680509 97.208 162.8392
1671.707238 97.244 163.0637
1683.821118 97.285 163.2873
1696.022780 97.329 163.5045
1708.312860 97.377 163.7109
1720.692000 97.428 163.9034
1733.160843 97.482 164.0805
1745.720041 97.538 164.2419
1758.370248 97.596 164.3881
1771.112124 97.654 164.5209
1783.946332 97.713 164.6428
1796.873543 97.771 164.7566
1809.894429 97.829 164.8641
1823.009670 97.887 164.9654
1836.219950 97.944 165.0594
1849.525956 98.001 165.1439
1862.928384 98.057 165.2169
1876.427931 98.113 165.2769
1890.025301 98.169 165.3223
1903.721204 98.224 165.3515
1917.516352 98.278 165.3629
1931.411466 98.332 165.3554
1945.407270 98.383 165.3292
1959.504493 98.433 165.2849
1973.703870 98.479 165.2233
1988.006142 98.520 165.1444
2002.412054 98.556 165.0480
2016.922357 98.585 164.9346
2031.537808 98.606 164.8051
2046.259169 98.619 164.6611
2061.087206 98.621 164.5047
2076.022694 98.614 164.3380
2091.066410 98.597 164.1638
2106.219139 98.571 163.9844
2121.481671 98.536 163.8019
2136.854802 98.494 163.6169
2152.339333 98.447 163.4286
2167.936071 98.396 163.2346
2183.645829 98.343 163.0320
2199.469427 98.288 162.8178
2215.407689 98.233 162.5903
2231.461446 98.179 162.3489
2247.631536 98.124 162.0945
2263.918800 98.070 161.8290
2280.324089 98.017 161.5554
2296.848258 97.964 161.2768
2313.492167 97.912 160.9960
2330.256685 97.861 160.7152
2347.142685 97.810 160.4354
2364.151049 97.760 160.1566
2381.282662 97.710 159.8782
2398.538418 97.662 159.5984
2415.919216 97.614 159.3149
2433.425962 97.566 159.0252
2451.059570 97.519 158.7273
2468.820958 97.473 158.4197
2486.711052 97.426 158.1016
2504.730786 97.380 157.7733
2522.881098 97.333 157.4353
2541.162934 97.286 157.0889
2559.577248 97.239 156.7360
2578.125000 97.193 156.3788
2596.807157 97.148 156.0197
2615.624692 97.105 155.6617
2634.578586 97.063 155.3079
2653.669829 97.024 154.9615
2672.899414 96.989 154.6260
2692.268345 96.956 154.3055
2711.777632 96.926 154.0048
2731.428290 96.900 153.7298
2751.221345 96.875 153.4874
2771.157829 96.853 153.2853
2791.238781 96.831 153.1315
2811.465248 96.809 153.0338
2831.838284 96.786 152.9992
2852.358952 96.763 153.0333
2873.028321 96.737 153.1401
2893.847468 96.708 153.3218
2914.817480 96.677 153.5794
2935.939449 96.642 153.9127
2957.214476 96.603 154.3208
2978.643672 96.560 154.8029
3000.228152 96.513 155.3577
3021.969041 96.463 155.9841
3043.867475 96.410 156.6797
3065.924593 96.357 157.4411
3088.141547 96.305 158.2628
3110.519493 96.255 159.1373
3133.059600 96.211 160.0548
3155.763041 96.173 161.0027
3178.631001 96.145 161.9663
3201.664672 96.127 162.9283
3224.865254 96.120 163.8704
3248.233957 96.125 164.7739
3271.771999 96.141 165.6214
3295.480608 96.167 166.3987
3319.361019 96.202 167.0959
3343.414477 96.243 167.7082
3367.642236 96.287 168.2366
3392.045560 96.334 168.6871
3416.625721 96.381 169.0691
3441.383999 96.428 169.3943
3466.321686 96.476 169.6741
3491.440082 96.524 169.9186
3516.740496 96.574 170.1346
3542.224247 96.628 170.3245
3567.892664 96.686 170.4864
3593.747085 96.752 170.6146
3619.788858 96.823 170.7006
3646.019340 96.902 170.7354
3672.439900 96.985 170.7108
3699.051913 97.073 170.6209
3725.856768 97.163 170.4627
3752.855862 97.252 170.2369
3780.050603 97.339 169.9479
3807.442408 97.421 169.6030
3835.032705 97.497 169.2122
3862.822933 97.565 168.7867
3890.814540 97.624 168.3391
3919.008986 97.674 167.8817
3947.407741 97.714 167.4262
3976.012284 97.744 166.9833
4004.824108 97.765 166.5619
4033.844715 97.777 166.1691
4063.075616 97.781 165.8105
4092.518337 97.776 165.4903
4122.174412 97.764 165.2116
4152.045387 97.745 164.9771
4182.132820 97.720 164.7886
4212.438278 97.688 164.6481
4242.963342 97.651 164.5569
4273.709604 97.608 164.5166
4304.678665 97.560 164.5284
4335.872141 97.506 164.5936
4367.291658 97.449 164.7133
4398.938854 97.386 164.8885
4430.815378 97.319 165.1199
4462.922893 97.248 165.4084
4495.263072 97.171 165.7551
4527.837601 97.090 166.1614
4560.648179 97.003 166.6294
4593.696515 96.912 167.1615
4626.984334 96.815 167.7607
4660.513370 96.715 168.4306
4694.285371 96.611 169.1745
4728.302098 96.505 169.9957
4762.565324 96.400 170.8966
4797.076835 96.297 171.8783
4831.838432 96.199 172.9405
4866.851925 96.109 174.0809
4902.119140 96.029 175.2956
4937.641916 95.962 176.5784
4973.422105 95.911 177.9217
5009.461572 95.879 179.3159
5045.762195 95.866 -179.2497
5082.325868 95.876 -177.7870
5119.154496 95.909 -176.3087
5156.250000 95.966 -174.8282
5193.614313 96.047 -173.3587
5231.249383 96.153 -171.9138
5269.157173 96.283 -170.5069
5307.339658 96.436 -169.1514
5345.798829 96.612 -167.8605
5384.536691 96.809 -166.6474
5423.555263 97.027 -165.5252
5462.856580 97.265 -164.5066
5502.442691 97.522 -163.6042
5542.315659 97.796 -162.8304
5582.477563 98.086 -162.1968
5622.930497 98.391 -161.7146
5663.676569 98.709 -161.3942
5704.717904 99.039 -161.2448
5746.056642 99.378 -161.2738
5787.694937 99.723 -161.4871
5829.634960 100.071 -161.8883
5871.878898 100.420 -162.4785
5914.428953 100.765 -163.2564
5957.287343 101.103 -164.2179
6000.456303 101.429 -165.3558
6043.938083 101.739 -166.6596
6087.734950 102.029 -168.1161
6131.849187 102.297 -169.7088
6176.283094 102.538 -171.4189
6221.038987 102.750 -173.2254
6266.119200 102.930 -175.1056
6311.526083 103.079 -177.0365
6357.262002 103.194 -178.9946
6403.329344 103.277 179.0423
6449.730508 103.327 177.0949
6496.467914 103.348 175.1819
6543.543998 103.340 173.3191
6590.961215 103.307 171.5190
6638.722037 103.253 169.7906
6686.828954 103.182 168.1393
6735.284473 103.097 166.5666
6784.091120 103.004 165.0699
6833.251441 102.907 163.6431
6882.767998 102.810 162.2763
6932.643372 102.719 160.9561
6982.880164 102.636 159.6662
7033.480992 102.566 158.3874
7084.448495 102.511 157.0988
7135.785329 102.472 155.7780
7187.494171 102.451 154.4019
7239.577717 102.446 152.9475
7292.038681 102.457 151.3923
7344.879799 102.480 149.7147
7398.103826 102.513 147.8937
7451.713536 102.551 145.9099
7505.711724 102.591 143.7451
7560.101205 102.626 141.3832
7614.884815 102.651 138.8104
7670.065409 102.659 136.0164
7725.645865 102.645 132.9947
7781.629080 102.600 129.7435
7838.017972 102.519 126.2664
7894.815481 102.395 122.5722
7952.024569 102.223 118.6741
8009.648217 101.998 114.5886
8067.689429 101.716 110.3326
8126.151233 101.377 105.9195
8185.036674 100.979 101.3545
8244.348824 100.526 96.6292
8304.090774 100.022 91.7161
8364.265639 99.471 86.5629
8424.876556 98.882 81.0845
8485.926684 98.263 75.1542
8547.419207 97.625 68.5901
8609.357330 96.983 61.1361
8671.744282 96.353 52.4434
8734.583316 95.755 42.0654
8797.877707 95.209 29.5285
8861.630756 94.740 14.5899
8925.845785 94.368 -2.2714
8990.526143 94.110 -19.5857
9055.675202 93.975 -35.5731
9121.296357 93.962 -49.2074
9187.393031 94.063 -60.4087
9253.968668 94.262 -69.5709
9321.026740 94.541 -77.1691
9388.570742 94.883 -83.6088
9456.604196 95.269 -89.2051
9525.130648 95.683 -94.1982
9594.153671 96.112 -98.7753
9663.676863 96.542 -103.0841
9733.703850 96.961 -107.2426
9804.238280 97.358 -111.3434
9875.283832 97.722 -115.4558
9946.844210 98.041 -119.6256
10018.923143 98.308 -123.8754
10091.524390 98.512 -128.2053
10164.651736 98.649 -132.5951
10238.308993 98.713 -137.0077
10312.500000 98.704 -141.3951
10387.228626 98.622 -145.7048
10462.498767 98.473 -149.8867
10538.314345 98.261 -153.8978
10614.679315 97.996 -157.7064
10691.597657 97.685 -161.2942
10769.073381 97.339 -164.6564
10847.110526 96.965 -167.8018
10925.713161 96.571 -170.7505
11004.885382 96.165 -173.5321
11084.631318 95.749 -176.1810
11164.955126 95.326 -178.7321
11245.860993 94.893 178.7850
11327.353138 94.448 176.3514
11409.435808 93.983 173.9645
11492.113283 93.491 171.6407
11575.389873 92.965 169.4169
11659.269920 92.397 167.3470
11743.757796 91.784 165.4976
11828.857906 91.124 163.9391
11914.574686 90.419 162.7389
12000.912606 89.674 161.9550
12087.876166 88.899 161.6363
12175.469900 88.106 161.8295
12263.698373 87.311 162.5991
12352.566187 86.534 164.0659
12442.077974 85.798 166.4725
12532.238400 85.132 170.2925
12623.052165 84.565 176.3864
12714.524005 84.125 -173.9033
12806.658687 83.830 -159.3683
12899.461015 83.686 -141.3935
12992.935827 83.680 -125.0757
13087.087996 83.785 -113.9908
13181.922430 83.962 -107.7944
13277.444074 84.179 -104.9097
13373.657907 84.407 -104.0610
13470.568945 84.628 -104.4245
13568.182241 84.838 -105.4918
13666.502883 85.037 -106.9565
13765.535996 85.231 -108.6453
13865.286744 85.428 -110.4772
13965.760328 85.634 -112.4352
14066.961984 85.850 -114.5431
14168.896989 86.071 -116.8446
14271.570658 86.287 -119.3848
14374.988342 86.486 -122.1949
14479.155433 86.656 -125.2842
14584.077362 86.784 -128.6383
14689.759598 86.861 -132.2230
14796.207652 86.881 -135.9922
14903.427072 86.844 -139.8959
15011.423448 86.751 -143.8881
15120.202410 86.605 -147.9318
15229.769630 86.413 -152.0035
15340.130819 86.181 -156.0933
15451.291730 85.915 -160.2044
15563.258160 85.619 -164.3483
15676.035944 85.294 -168.5388
15789.630962 84.939 -172.7845
15904.049137 84.550 -177.0834
16019.296433 84.123 178.5792
16135.378859 83.652 174.2275
16252.302465 83.135 169.8907
16370.073348 82.571 165.5989
16488.697648 81.959 161.3820
16608.181548 81.301 157.2725
16728.531278 80.598 153.3110
16849.753112 79.851 149.5542
16971.853368 79.062 146.0831
17094.838414 78.233 143.0132
17218.714660 77.367 140.5027
17343.488565 76.469 138.7587
17469.166632 75.550 138.0334
17595.755415 74.621 138.5906
17723.261512 73.700 140.6084
17851.691571 72.805 144.0004
17981.052287 71.958 148.2377
18111.350404 71.177 152.4074
18242.592715 70.474 155.6057
18374.786062 69.855 157.3254
18507.937336 69.321 157.5061
18642.053479 68.871 156.3430
18777.141484 68.503 154.1028
18913.208391 68.217 151.0343
19050.261296 68.007 147.3544
19188.307342 67.867 143.2686
19327.353727 67.784 138.9977
19467.407699 67.743 134.7940
19608.476560 67.729 130.9381
19750.567664 67.729 127.7189
19893.688419 67.734 125.4001
20037.846286 67.738 124.1853
