* Measurement data measured by REW V5.31.3
* Source: EXCL: Headset (USB-C to 3.5mm Headphone Jack Adapter), MICROPHONE (Master Volume), 0, volume: 0.260
* Format: 256k Log Swept Sine, 1 sweep at -12.0 dBFS with no timing reference
* Dated: Feb 19, 2025 7:46:18 PM
* REW Settings:
*  C-weighting compensation: Off
*  Target level: 75.0 dB
* Note: ; 
* Measurement: Satyr 3 L8
* Smoothing: 1/6 octave
* Frequency Step: 96 ppo
* Start Frequency: 20.0 Hz
*
* Freq(Hz) SPL(dB) Phase(degrees)
20.141602 93.543 -29.0030
20.287556 93.555 -29.2625
20.434568 93.571 -29.6063
20.582645 93.592 -30.0207
20.731796 93.616 -30.4903
20.882027 93.644 -31.0005
21.033346 93.676 -31.5375
21.185763 93.713 -32.0895
21.339284 93.753 -32.6474
21.493917 93.798 -33.2041
21.649671 93.847 -33.7554
21.806553 93.901 -34.2989
21.964572 93.959 -34.8342
22.123737 94.021 -35.3624
22.284054 94.087 -35.8851
22.445534 94.155 -36.4047
22.608183 94.225 -36.9235
22.772012 94.296 -37.4437
22.937027 94.367 -37.9670
23.103238 94.438 -38.4948
23.270654 94.508 -39.0279
23.439282 94.577 -39.5673
23.609133 94.645 -40.1134
23.780215 94.711 -40.6668
23.952536 94.777 -41.2284
24.126106 94.841 -41.7988
24.300934 94.905 -42.3787
24.477028 94.970 -42.9687
24.654399 95.034 -43.5691
24.833055 95.099 -44.1794
25.013005 95.166 -44.7988
25.194260 95.233 -45.4257
25.376828 95.302 -46.0581
25.560719 95.373 -46.6936
25.745942 95.447 -47.3298
25.932508 95.523 -47.9647
26.120426 95.603 -48.5967
26.309705 95.687 -49.2253
26.500356 95.775 -49.8505
26.692388 95.867 -50.4735
26.885812 95.963 -51.0958
27.080638 96.063 -51.7194
27.276876 96.166 -52.3460
27.474535 96.272 -52.9772
27.673627 96.379 -53.6139
27.874161 96.487 -54.2562
28.076149 96.594 -54.9037
28.279600 96.700 -55.5555
28.484526 96.803 -56.2104
28.690937 96.903 -56.8675
28.898843 97.000 -57.5260
29.108256 97.092 -58.1854
29.319186 97.180 -58.8457
29.531645 97.264 -59.5073
29.745644 97.343 -60.1702
29.961193 97.418 -60.8347
30.178304 97.490 -61.5005
30.396989 97.558 -62.1671
30.617258 97.623 -62.8337
30.839123 97.687 -63.4992
31.062596 97.749 -64.1629
31.287688 97.812 -64.8240
31.514412 97.877 -65.4825
31.742778 97.943 -66.1385
31.972800 98.013 -66.7929
32.204488 98.086 -67.4466
32.437855 98.164 -68.1006
32.672913 98.246 -68.7557
32.909674 98.333 -69.4123
33.148151 98.424 -70.0704
33.388356 98.518 -70.7300
33.630302 98.615 -71.3903
33.874001 98.715 -72.0506
34.119466 98.816 -72.7103
34.366710 98.917 -73.3686
34.615745 99.017 -74.0251
34.866585 99.114 -74.6794
35.119243 99.208 -75.3311
35.373731 99.298 -75.9804
35.630064 99.382 -76.6274
35.888254 99.461 -77.2726
36.148315 99.533 -77.9168
36.410261 99.600 -78.5610
36.674104 99.660 -79.2064
36.939860 99.714 -79.8540
37.207542 99.763 -80.5048
37.477163 99.808 -81.1592
37.748738 99.849 -81.8171
38.022281 99.888 -82.4780
38.297806 99.924 -83.1407
38.575327 99.958 -83.8039
38.854860 99.991 -84.4662
39.136419 100.024 -85.1263
39.420017 100.056 -85.7834
39.705671 100.087 -86.4369
39.993395 100.119 -87.0868
40.283203 100.150 -87.7334
40.575112 100.182 -88.3776
40.869136 100.213 -89.0205
41.165290 100.245 -89.6635
41.463591 100.278 -90.3081
41.764053 100.311 -90.9562
42.066693 100.345 -91.6095
42.371525 100.381 -92.2695
42.678567 100.418 -92.9373
42.987834 100.458 -93.6137
43.299341 100.499 -94.2990
43.613106 100.543 -94.9929
43.929145 100.589 -95.6951
44.247473 100.638 -96.4049
44.568109 100.690 -97.1215
44.891068 100.744 -97.8442
45.216367 100.801 -98.5724
45.544023 100.859 -99.3056
45.874054 100.919 -100.0433
46.206476 100.980 -100.7850
46.541307 101.042 -101.5305
46.878565 101.103 -102.2794
47.218266 101.164 -103.0315
47.560429 101.225 -103.7865
47.905072 101.284 -104.5444
48.252212 101.343 -105.3049
48.601867 101.400 -106.0683
48.954056 101.456 -106.8345
49.308798 101.512 -107.6040
49.666109 101.566 -108.3766
50.026010 101.619 -109.1526
50.388520 101.670 -109.9319
50.753656 101.721 -110.7145
51.121437 101.771 -111.5007
51.491884 101.819 -112.2907
51.865016 101.866 -113.0846
52.240851 101.912 -113.8828
52.619410 101.956 -114.6849
53.000712 101.997 -115.4905
53.384777 102.037 -116.2986
53.771625 102.073 -117.1082
54.161276 102.107 -117.9180
54.553751 102.137 -118.7271
54.949070 102.164 -119.5347
55.347254 102.187 -120.3405
55.748323 102.207 -121.1445
56.152298 102.224 -121.9471
56.559201 102.237 -122.7487
56.969052 102.248 -123.5496
57.381873 102.257 -124.3496
57.797686 102.266 -125.1478
58.216512 102.273 -125.9425
58.638373 102.281 -126.7312
59.063291 102.290 -127.5111
59.491288 102.301 -128.2790
59.922386 102.312 -129.0329
60.356608 102.324 -129.7720
60.793977 102.337 -130.4972
61.234515 102.351 -131.2111
61.678246 102.364 -131.9170
62.125192 102.377 -132.6188
62.575377 102.388 -133.3197
63.028824 102.398 -134.0221
63.485557 102.406 -134.7270
63.945599 102.412 -135.4344
64.408975 102.415 -136.1437
64.875709 102.416 -136.8536
65.345825 102.414 -137.5625
65.819348 102.410 -138.2692
66.296302 102.404 -138.9725
66.776713 102.396 -139.6714
67.260604 102.386 -140.3654
67.748002 102.375 -141.0543
68.238932 102.362 -141.7382
68.733420 102.349 -142.4173
69.231490 102.335 -143.0921
69.733170 102.321 -143.7626
70.238485 102.307 -144.4290
70.747463 102.292 -145.0911
71.260128 102.276 -145.7488
71.776508 102.261 -146.4019
72.296630 102.244 -147.0503
72.820521 102.227 -147.6938
73.348209 102.210 -148.3323
73.879720 102.192 -148.9657
74.415083 102.173 -149.5935
74.954326 102.154 -150.2157
75.497475 102.135 -150.8320
76.044561 102.115 -151.4425
76.595612 102.094 -152.0473
77.150655 102.073 -152.6465
77.709720 102.052 -153.2404
78.272837 102.029 -153.8294
78.840034 102.006 -154.4137
79.411342 101.982 -154.9934
79.986789 101.957 -155.5687
80.566406 101.932 -156.1395
81.150224 101.906 -156.7056
81.738272 101.878 -157.2665
82.330581 101.851 -157.8219
82.927182 101.823 -158.3714
83.528107 101.794 -158.9145
84.133386 101.765 -159.4508
84.743051 101.736 -159.9798
85.357134 101.706 -160.5011
85.975667 101.677 -161.0142
86.598682 101.648 -161.5188
87.226212 101.619 -162.0147
87.858289 101.591 -162.5020
88.494946 101.564 -162.9808
89.136217 101.537 -163.4516
89.782135 101.512 -163.9149
90.432733 101.487 -164.3716
91.088046 101.464 -164.8222
91.748108 101.441 -165.2677
92.412952 101.419 -165.7086
93.082615 101.397 -166.1455
93.757130 101.375 -166.5787
94.436533 101.352 -167.0087
95.120859 101.328 -167.4353
95.810144 101.303 -167.8587
96.504423 101.276 -168.2784
97.203734 101.247 -168.6942
97.908112 101.216 -169.1057
98.617595 101.182 -169.5125
99.332219 101.146 -169.9142
100.052021 101.107 -170.3107
100.777039 101.067 -170.7019
101.507311 101.026 -171.0875
102.242875 100.983 -171.4676
102.983769 100.940 -171.8420
103.730032 100.897 -172.2109
104.481702 100.855 -172.5745
105.238820 100.813 -172.9328
106.001424 100.772 -173.2863
106.769554 100.732 -173.6352
107.543250 100.695 -173.9793
108.322553 100.658 -174.3190
109.107503 100.624 -174.6543
109.898141 100.591 -174.9854
110.694508 100.559 -175.3125
111.496646 100.529 -175.6358
112.304596 100.500 -175.9555
113.118402 100.471 -176.2716
113.938104 100.443 -176.5843
114.763747 100.414 -176.8938
115.595372 100.385 -177.2001
116.433024 100.355 -177.5035
117.276746 100.325 -177.8041
118.126581 100.293 -178.1022
118.982575 100.260 -178.3980
119.844772 100.225 -178.6915
120.713217 100.190 -178.9827
121.587954 100.155 -179.2714
122.469031 100.118 -179.5577
123.356492 100.082 -179.8415
124.250384 100.046 179.8768
125.150753 100.011 179.5966
126.057647 99.977 179.3173
126.971113 99.944 179.0377
127.891198 99.912 178.7569
128.817950 99.882 178.4738
129.751418 99.854 178.1874
130.691651 99.826 177.8968
131.638696 99.799 177.6011
132.592604 99.773 177.2997
133.553425 99.747 176.9921
134.521208 99.719 176.6779
135.496004 99.690 176.3573
136.477864 99.658 176.0309
137.466839 99.624 175.7002
138.462981 99.584 175.3671
139.466340 99.540 175.0345
140.476971 99.490 174.7062
141.494925 99.434 174.3867
142.520256 99.372 174.0813
143.553016 99.303 173.7955
144.593260 99.229 173.5347
145.641043 99.150 173.3038
146.696418 99.068 173.1064
147.759441 98.983 172.9449
148.830166 98.897 172.8202
149.908651 98.813 172.7312
150.994951 98.730 172.6757
152.089123 98.650 172.6503
153.191223 98.574 172.6508
154.301310 98.502 172.6726
155.419441 98.435 172.7117
156.545674 98.371 172.7643
157.680069 98.311 172.8275
158.822683 98.254 172.8993
159.973578 98.199 172.9786
161.132813 98.146 173.0656
162.300447 98.095 173.1609
163.476543 98.044 173.2659
164.661162 97.994 173.3825
165.854364 97.944 173.5126
167.056213 97.896 173.6584
168.266772 97.848 173.8220
169.486102 97.802 174.0048
170.714268 97.758 174.2081
171.951334 97.716 174.4322
173.197364 97.677 174.6766
174.452424 97.641 174.9400
175.716578 97.609 175.2200
176.989893 97.581 175.5135
178.272434 97.558 175.8164
179.564270 97.539 176.1238
180.865467 97.526 176.4303
182.176092 97.517 176.7301
183.496216 97.512 177.0175
184.825905 97.512 177.2867
186.165229 97.515 177.5330
187.514259 97.520 177.7518
188.873065 97.527 177.9399
190.241717 97.534 178.0950
191.620287 97.542 178.2157
193.008847 97.548 178.3016
194.407468 97.553 178.3533
195.816225 97.556 178.3725
197.235190 97.556 178.3615
198.664438 97.553 178.3236
200.104042 97.547 178.2621
201.554078 97.537 178.1805
203.014622 97.525 178.0822
204.485750 97.511 177.9703
205.967538 97.494 177.8477
207.460064 97.476 177.7169
208.963405 97.458 177.5806
210.477640 97.440 177.4407
212.002848 97.422 177.2992
213.539108 97.407 177.1577
215.086500 97.394 177.0175
216.645105 97.383 176.8795
218.215005 97.376 176.7442
219.796281 97.372 176.6121
221.389015 97.371 176.4834
222.993292 97.374 176.3583
224.609193 97.379 176.2369
226.236804 97.387 176.1194
227.876209 97.398 176.0060
229.527494 97.410 175.8966
231.190745 97.425 175.7916
232.866048 97.440 175.6907
234.553491 97.457 175.5941
236.253163 97.475 175.5016
237.965150 97.493 175.4130
239.689544 97.511 175.3282
241.426433 97.530 175.2471
243.175909 97.547 175.1698
244.938062 97.564 175.0961
246.712984 97.580 175.0261
248.500768 97.595 174.9596
250.301507 97.609 174.8967
252.115295 97.621 174.8371
253.942226 97.632 174.7809
255.782396 97.641 174.7279
257.635901 97.649 174.6781
259.502837 97.656 174.6312
261.383301 97.662 174.5872
263.277392 97.667 174.5458
265.185209 97.671 174.5070
267.106850 97.674 174.4706
269.042417 97.675 174.4369
270.992009 97.674 174.4058
272.955729 97.672 174.3772
274.933678 97.667 174.3512
276.925961 97.659 174.3275
278.932681 97.648 174.3059
280.953942 97.633 174.2864
282.989850 97.613 174.2690
285.040511 97.590 174.2538
287.106032 97.562 174.2410
289.186521 97.530 174.2306
291.282086 97.493 174.2227
293.392836 97.453 174.2171
295.518881 97.409 174.2137
297.660333 97.362 174.2122
299.817302 97.313 174.2123
301.989902 97.262 174.2137
304.178245 97.210 174.2162
306.382446 97.157 174.2194
308.602620 97.105 174.2233
310.838882 97.053 174.2275
313.091348 97.003 174.2318
315.360137 96.955 174.2361
317.645367 96.910 174.2401
319.947156 96.869 174.2439
322.265625 96.831 174.2474
324.600895 96.797 174.2505
326.953086 96.769 174.2535
329.322323 96.745 174.2564
331.708729 96.726 174.2593
334.112427 96.713 174.2625
336.533543 96.705 174.2660
338.972204 96.703 174.2700
341.428536 96.705 174.2749
343.902668 96.713 174.2809
346.394729 96.725 174.2882
348.904848 96.741 174.2970
351.433156 96.760 174.3073
353.979786 96.781 174.3192
356.544869 96.804 174.3325
359.128540 96.828 174.3470
361.730934 96.851 174.3625
364.352185 96.873 174.3785
366.992431 96.893 174.3947
369.651810 96.910 174.4107
372.330459 96.923 174.4263
375.028519 96.932 174.4413
377.746130 96.936 174.4557
380.483434 96.936 174.4693
383.240574 96.930 174.4822
386.017693 96.919 174.4943
388.814937 96.904 174.5053
391.632450 96.885 174.5154
394.470380 96.863 174.5244
397.328875 96.838 174.5328
400.208084 96.812 174.5412
403.108157 96.785 174.5505
406.029245 96.760 174.5620
408.971500 96.735 174.5769
411.935076 96.714 174.5967
414.920127 96.696 174.6224
417.926810 96.683 174.6542
420.955280 96.675 174.6913
424.005695 96.671 174.7322
427.078215 96.673 174.7750
430.173000 96.679 174.8178
433.290211 96.688 174.8591
436.430010 96.700 174.8979
439.592562 96.712 174.9340
442.778031 96.725 174.9675
445.986583 96.736 174.9991
449.218386 96.746 175.0297
452.473607 96.752 175.0600
455.752418 96.756 175.0911
459.054987 96.758 175.1237
462.381489 96.756 175.1586
465.732096 96.752 175.1960
469.106983 96.746 175.2360
472.506325 96.738 175.2783
475.930301 96.729 175.3225
479.379088 96.719 175.3684
482.852867 96.709 175.4155
486.351817 96.699 175.4637
489.876123 96.689 175.5129
493.425968 96.680 175.5631
497.001536 96.672 175.6141
500.603014 96.666 175.6659
504.230589 96.663 175.7184
507.884452 96.663 175.7717
511.564792 96.668 175.8255
515.271802 96.678 175.8799
519.005673 96.693 175.9347
522.766602 96.715 175.9897
526.554785 96.743 176.0449
530.370418 96.778 176.1001
534.213700 96.818 176.1554
538.084833 96.863 176.2107
541.984018 96.913 176.2662
545.911457 96.965 176.3217
549.867357 97.018 176.3773
553.851922 97.071 176.4328
557.865362 97.121 176.4879
561.907884 97.169 176.5427
565.979700 97.211 176.5967
570.081022 97.248 176.6502
574.212064 97.278 176.7029
578.373042 97.299 176.7551
582.564171 97.312 176.8065
586.785671 97.316 176.8572
591.037762 97.309 176.9073
595.320665 97.293 176.9567
599.634604 97.266 177.0057
603.979804 97.230 177.0547
608.356491 97.185 177.1040
612.764893 97.132 177.1543
617.205240 97.072 177.2060
621.677763 97.007 177.2592
626.182696 96.939 177.3141
630.720274 96.870 177.3703
635.290733 96.801 177.4279
639.894312 96.735 177.4866
644.531250 96.674 177.5466
649.201789 96.618 177.6080
653.906173 96.569 177.6704
658.644647 96.527 177.7338
663.417457 96.495 177.7976
668.224854 96.472 177.8612
673.067086 96.458 177.9241
677.944408 96.454 177.9856
682.857073 96.459 178.0454
687.805336 96.474 178.1035
692.789457 96.498 178.1599
697.809695 96.529 178.2150
702.866312 96.568 178.2696
707.959571 96.614 178.3238
713.089738 96.664 178.3773
718.257080 96.719 178.4288
723.461867 96.776 178.4766
728.704370 96.833 178.5187
733.984862 96.890 178.5535
739.303619 96.945 178.5795
744.660918 96.997 178.5957
750.057038 97.045 178.6019
755.492260 97.089 178.5981
760.966869 97.129 178.5853
766.481148 97.165 178.5641
772.035387 97.198 178.5361
777.629873 97.226 178.5023
783.264900 97.251 178.4640
788.940760 97.273 178.4221
794.657750 97.291 178.3771
800.416168 97.305 178.3288
806.216313 97.313 178.2766
812.058489 97.316 178.2196
817.943000 97.311 178.1569
823.870152 97.300 178.0878
829.840255 97.281 178.0117
835.853619 97.255 177.9285
841.910559 97.223 177.8383
848.011390 97.185 177.7411
854.156430 97.145 177.6373
860.346000 97.103 177.5267
866.580422 97.064 177.4094
872.860020 97.028 177.2854
879.185124 96.998 177.1545
885.556062 96.976 177.0167
891.973166 96.964 176.8720
898.436771 96.961 176.7206
904.947215 96.969 176.5632
911.504835 96.987 176.4005
918.109975 97.015 176.2330
924.762978 97.049 176.0615
931.464192 97.091 175.8859
938.213966 97.136 175.7061
945.012651 97.185 175.5217
951.860602 97.234 175.3323
958.758176 97.283 175.1379
965.705733 97.330 174.9388
972.703635 97.373 174.7363
979.752246 97.412 174.5320
986.851935 97.448 174.3278
994.003071 97.479 174.1251
1001.206027 97.507 173.9248
1008.461179 97.533 173.7269
1015.768904 97.558 173.5308
1023.129584 97.582 173.3357
1030.543603 97.607 173.1410
1038.011347 97.635 172.9461
1045.533205 97.665 172.7508
1053.109569 97.700 172.5548
1060.740836 97.738 172.3581
1068.427401 97.781 172.1605
1076.169666 97.828 171.9615
1083.968035 97.877 171.7604
1091.822915 97.929 171.5561
1099.734713 97.981 171.3477
1107.703844 98.032 171.1343
1115.730723 98.080 170.9161
1123.815768 98.123 170.6937
1131.959400 98.161 170.4682
1140.162045 98.191 170.2408
1148.424129 98.215 170.0130
1156.746083 98.231 169.7859
1165.128342 98.240 169.5607
1173.571343 98.244 169.3384
1182.075524 98.244 169.1206
1190.641331 98.240 168.9086
1199.269209 98.234 168.7040
1207.959608 98.229 168.5082
1216.712981 98.225 168.3222
1225.529785 98.225 168.1461
1234.410479 98.228 167.9794
1243.355526 98.236 167.8209
1252.365393 98.249 167.6697
1261.440549 98.267 167.5247
1270.581467 98.290 167.3853
1279.788624 98.316 167.2508
1289.062500 98.346 167.1212
1298.403578 98.377 166.9961
1307.812346 98.409 166.8760
1317.289293 98.441 166.7616
1326.834914 98.472 166.6544
1336.449707 98.501 166.5557
1346.134173 98.527 166.4669
1355.888816 98.550 166.3882
1365.714145 98.569 166.3194
1375.610673 98.585 166.2597
1385.578915 98.597 166.2085
1395.619391 98.604 166.1651
1405.732624 98.607 166.1294
1415.919142 98.605 166.1014
1426.179476 98.599 166.0819
1436.514160 98.589 166.0715
1446.923734 98.576 166.0708
1457.408740 98.559 166.0803
1467.969724 98.538 166.1001
1478.607238 98.515 166.1304
1489.321836 98.489 166.1714
1500.114076 98.459 166.2241
1510.984521 98.426 166.2900
1521.933737 98.389 166.3715
1532.962297 98.348 166.4714
1544.070773 98.303 166.5921
1555.259747 98.255 166.7349
1566.529800 98.204 166.9004
1577.881521 98.151 167.0875
1589.315501 98.097 167.2948
1600.832336 98.043 167.5198
1612.432627 97.988 167.7604
1624.116978 97.934 168.0152
1635.886000 97.881 168.2841
1647.740304 97.829 168.5684
1659.680509 97.779 168.8702
1671.707238 97.731 169.1917
1683.821118 97.684 169.5340
1696.022780 97.641 169.8971
1708.312860 97.601 170.2791
1720.692000 97.565 170.6765
1733.160843 97.534 171.0844
1745.720041 97.507 171.4976
1758.370248 97.486 171.9111
1771.112124 97.471 172.3221
1783.946332 97.460 172.7292
1796.873543 97.455 173.1323
1809.894429 97.456 173.5320
1823.009670 97.461 173.9293
1836.219950 97.471 174.3253
1849.525956 97.486 174.7211
1862.928384 97.504 175.1176
1876.427931 97.526 175.5142
1890.025301 97.551 175.9084
1903.721204 97.579 176.2958
1917.516352 97.610 176.6707
1931.411466 97.643 177.0271
1945.407270 97.678 177.3591
1959.504493 97.713 177.6611
1973.703870 97.749 177.9284
1988.006142 97.785 178.1582
2002.412054 97.821 178.3498
2016.922357 97.857 178.5047
2031.537808 97.892 178.6259
2046.259169 97.927 178.7163
2061.087206 97.964 178.7791
2076.022694 98.001 178.8172
2091.066410 98.041 178.8331
2106.219139 98.083 178.8288
2121.481671 98.129 178.8047
2136.854802 98.180 178.7596
2152.339333 98.234 178.6913
2167.936071 98.294 178.5974
2183.645829 98.357 178.4764
2199.469427 98.425 178.3274
2215.407689 98.497 178.1508
2231.461446 98.572 177.9480
2247.631536 98.649 177.7216
2263.918800 98.729 177.4753
2280.324089 98.811 177.2139
2296.848258 98.895 176.9424
2313.492167 98.981 176.6652
2330.256685 99.068 176.3853
2347.142685 99.157 176.1052
2364.151049 99.247 175.8264
2381.282662 99.338 175.5498
2398.538418 99.429 175.2756
2415.919216 99.519 175.0034
2433.425962 99.608 174.7325
2451.059570 99.694 174.4618
2468.820958 99.777 174.1906
2486.711052 99.856 173.9180
2504.730786 99.930 173.6439
2522.881098 99.997 173.3688
2541.162934 100.056 173.0939
2559.577248 100.108 172.8208
2578.125000 100.150 172.5510
2596.807157 100.183 172.2858
2615.624692 100.207 172.0268
2634.578586 100.220 171.7753
2653.669829 100.223 171.5327
2672.899414 100.216 171.3008
2692.268345 100.197 171.0818
2711.777632 100.167 170.8782
2731.428290 100.127 170.6937
2751.221345 100.075 170.5324
2771.157829 100.012 170.3996
2791.238781 99.938 170.3010
2811.465248 99.855 170.2430
2831.838284 99.762 170.2316
2852.358952 99.660 170.2726
2873.028321 99.551 170.3712
2893.847468 99.436 170.5316
2914.817480 99.316 170.7574
2935.939449 99.193 171.0510
2957.214476 99.068 171.4133
2978.643672 98.943 171.8442
3000.228152 98.820 172.3423
3021.969041 98.701 172.9039
3043.867475 98.588 173.5237
3065.924593 98.481 174.1944
3088.141547 98.385 174.9064
3110.519493 98.299 175.6479
3133.059600 98.226 176.4049
3155.763041 98.166 177.1620
3178.631001 98.119 177.9023
3201.664672 98.087 178.6097
3224.865254 98.067 179.2689
3248.233957 98.058 179.8675
3271.771999 98.059 -179.6035
3295.480608 98.069 -179.1487
3319.361019 98.084 -178.7681
3343.414477 98.102 -178.4568
3367.642236 98.123 -178.2059
3392.045560 98.145 -178.0033
3416.625721 98.168 -177.8354
3441.383999 98.191 -177.6888
3466.321686 98.216 -177.5517
3491.440082 98.243 -177.4159
3516.740496 98.275 -177.2773
3542.224247 98.313 -177.1371
3567.892664 98.358 -177.0014
3593.747085 98.411 -176.8799
3619.788858 98.471 -176.7852
3646.019340 98.539 -176.7301
3672.439900 98.611 -176.7261
3699.051913 98.687 -176.7815
3725.856768 98.763 -176.9006
3752.855862 98.838 -177.0831
3780.050603 98.908 -177.3243
3807.442408 98.971 -177.6161
3835.032705 99.026 -177.9474
3862.822933 99.072 -178.3050
3890.814540 99.107 -178.6750
3919.008986 99.133 -179.0437
3947.407741 99.148 -179.3979
3976.012284 99.153 -179.7258
4004.824108 99.148 179.9829
4033.844715 99.136 179.7367
4063.075616 99.115 179.5425
4092.518337 99.088 179.4056
4122.174412 99.055 179.3300
4152.045387 99.016 179.3185
4182.132820 98.974 179.3730
4212.438278 98.928 179.4949
4242.963342 98.880 179.6851
4273.709604 98.830 179.9446
4304.678665 98.779 -179.7253
4335.872141 98.729 -179.3234
4367.291658 98.681 -178.8484
4398.938854 98.636 -178.2993
4430.815378 98.596 -177.6756
4462.922893 98.562 -176.9780
4495.263072 98.537 -176.2082
4527.837601 98.520 -175.3697
4560.648179 98.515 -174.4669
4593.696515 98.521 -173.5058
4626.984334 98.541 -172.4934
4660.513370 98.575 -171.4375
4694.285371 98.623 -170.3467
4728.302098 98.686 -169.2303
4762.565324 98.764 -168.0985
4797.076835 98.858 -166.9616
4831.838432 98.966 -165.8307
4866.851925 99.088 -164.7168
4902.119140 99.224 -163.6312
4937.641916 99.373 -162.5848
4973.422105 99.534 -161.5887
5009.461572 99.706 -160.6533
5045.762195 99.888 -159.7885
5082.325868 100.077 -159.0034
5119.154496 100.273 -158.3061
5156.250000 100.472 -157.7033
5193.614313 100.674 -157.2001
5231.249383 100.875 -156.7997
5269.157173 101.074 -156.5034
5307.339658 101.269 -156.3107
5345.798829 101.456 -156.2189
5384.536691 101.635 -156.2240
5423.555263 101.804 -156.3200
5462.856580 101.962 -156.4996
5502.442691 102.108 -156.7547
5542.315659 102.241 -157.0758
5582.477563 102.361 -157.4531
5622.930497 102.470 -157.8766
5663.676569 102.567 -158.3366
5704.717904 102.654 -158.8241
5746.056642 102.734 -159.3313
5787.694937 102.806 -159.8519
5829.634960 102.875 -160.3814
5871.878898 102.940 -160.9175
5914.428953 103.005 -161.4600
5957.287343 103.069 -162.0107
6000.456303 103.135 -162.5734
6043.938083 103.203 -163.1525
6087.734950 103.273 -163.7535
6131.849187 103.344 -164.3816
6176.283094 103.415 -165.0415
6221.038987 103.487 -165.7370
6266.119200 103.557 -166.4710
6311.526083 103.626 -167.2455
6357.262002 103.693 -168.0621
6403.329344 103.759 -168.9225
6449.730508 103.823 -169.8291
6496.467914 103.888 -170.7855
6543.543998 103.955 -171.7967
6590.961215 104.024 -172.8699
6638.722037 104.099 -174.0140
6686.828954 104.181 -175.2401
6735.284473 104.270 -176.5611
6784.091120 104.367 -177.9913
6833.251441 104.472 -179.5458
6882.767998 104.584 178.7600
6932.643372 104.700 176.9119
6982.880164 104.818 174.8978
7033.480992 104.932 172.7087
7084.448495 105.037 170.3402
7135.785329 105.127 167.7931
7187.494171 105.196 165.0741
7239.577717 105.238 162.1966
7292.038681 105.246 159.1800
7344.879799 105.216 156.0494
7398.103826 105.143 152.8345
7451.713536 105.024 149.5677
7505.711724 104.857 146.2820
7560.101205 104.643 143.0094
7614.884815 104.382 139.7774
7670.065409 104.078 136.6069
7725.645865 103.736 133.5087
7781.629080 103.361 130.4817
7838.017972 102.960 127.5101
7894.815481 102.542 124.5631
7952.024569 102.115 121.5956
8009.648217 101.685 118.5505
8067.689429 101.260 115.3627
8126.151233 100.841 111.9636
8185.036674 100.430 108.2852
8244.348824 100.025 104.2624
8304.090774 99.619 99.8326
8364.265639 99.209 94.9316
8424.876556 98.786 89.4856
8485.926684 98.346 83.3968
8547.419207 97.886 76.5224
8609.357330 97.406 68.6442
8671.744282 96.914 59.4317
8734.583316 96.420 48.4149
8797.877707 95.944 35.0360
8861.630756 95.510 18.9436
8925.845785 95.146 0.6550
8990.526143 94.881 -18.0223
9055.675202 94.739 -34.9442
9121.296357 94.731 -49.0598
9187.393031 94.855 -60.4937
9253.968668 95.093 -69.8412
9321.026740 95.418 -77.7034
9388.570742 95.800 -84.5516
9456.604196 96.210 -90.7258
9525.130648 96.623 -96.4633
9594.153671 97.018 -101.9263
9663.676863 97.381 -107.2225
9733.703850 97.699 -112.4186
9804.238280 97.964 -117.5518
9875.283832 98.172 -122.6378
9946.844210 98.320 -127.6779
10018.923143 98.408 -132.6653
10091.524390 98.437 -137.5897
10164.651736 98.411 -142.4407
10238.308993 98.332 -147.2098
10312.500000 98.203 -151.8898
10387.228626 98.025 -156.4718
10462.498767 97.800 -160.9428
10538.314345 97.526 -165.2805
10614.679315 97.200 -169.4490
10691.597657 96.821 -173.3954
10769.073381 96.387 -177.0464
10847.110526 95.894 179.6914
10925.713161 95.344 176.9288
11004.885382 94.741 174.7844
11084.631318 94.091 173.3652
11164.955126 93.407 172.7357
11245.860993 92.704 172.8772
11327.353138 92.001 173.6561
11409.435808 91.318 174.8239
11492.113283 90.673 176.0677
11575.389873 90.080 177.0922
11659.269920 89.544 177.6857
11743.757796 89.065 177.7433
11828.857906 88.637 177.2477
11914.574686 88.249 176.2340
12000.912606 87.893 174.7582
12087.876166 87.560 172.8755
12175.469900 87.241 170.6298
12263.698373 86.933 168.0487
12352.566187 86.629 165.1447
12442.077974 86.328 161.9183
12532.238400 86.023 158.3636
12623.052165 85.710 154.4735
12714.524005 85.382 150.2444
12806.658687 85.033 145.6796
12899.461015 84.657 140.7898
12992.935827 84.253 135.5901
13087.087996 83.824 130.0938
13181.922430 83.378 124.3040
13277.444074 82.937 118.2051
13373.657907 82.531 111.7557
13470.568945 82.199 104.8879
13568.182241 81.986 97.5150
13666.502883 81.930 89.5515
13765.535996 82.050 80.9425
13865.286744 82.339 71.6923
13965.760328 82.766 61.8756
14066.961984 83.286 51.6238
14168.896989 83.853 41.0879
14271.570658 84.427 30.4030
14374.988342 84.978 19.6664
14479.155433 85.483 8.9379
14584.077362 85.930 -1.7506
14689.759598 86.309 -12.3837
14796.207652 86.618 -22.9545
14903.427072 86.856 -33.4626
15011.423448 87.026 -43.9128
15120.202410 87.128 -54.3134
15229.769630 87.164 -64.6758
15340.130819 87.136 -75.0118
15451.291730 87.045 -85.3318
15563.258160 86.889 -95.6437
15676.035944 86.668 -105.9519
15789.630962 86.380 -116.2554
15904.049137 86.023 -126.5486
16019.296433 85.595 -136.8215
16135.378859 85.094 -147.0616
16252.302465 84.521 -157.2599
16370.073348 83.877 -167.4147
16488.697648 83.164 -177.5375
16608.181548 82.386 172.3467
16728.531278 81.549 162.1990
16849.753112 80.656 151.9683
16971.853368 79.714 141.5925
17094.838414 78.727 130.9985
17218.714660 77.701 120.1002
17343.488565 76.641 108.7975
17469.166632 75.553 96.9763
17595.755415 74.446 84.5256
17723.261512 73.327 71.3931
17851.691571 72.210 57.7170
17981.052287 71.110 44.0852
18111.350404 70.045 31.8998
18242.592715 69.035 23.5972
18374.786062 68.098 21.7932
18507.937336 67.247 25.6669
18642.053479 66.484 29.1010
18777.141484 65.802 28.1108
18913.208391 65.184 23.4968
19050.261296 64.610 17.0850
19188.307342 64.062 10.1815
19327.353727 63.530 3.5831
19467.407699 63.019 -2.2388
19608.476560 62.545 -7.0225
19750.567664 62.138 -10.6450
19893.688419 61.836 -13.0646
20037.846286 61.675 -14.2743
