* Measurement data measured by REW V5.31.3
* Source: EXCL: Headset (USB-C to 3.5mm Headphone Jack Adapter), MICROPHONE (Master Volume), 0, volume: 0.260
* Format: 256k Log Swept Sine, 1 sweep at -12.0 dBFS with no timing reference
* Dated: Feb 14, 2025 8:25:34 PM
* REW Settings:
*  C-weighting compensation: Off
*  Target level: 75.0 dB
* Note: ; 
* Measurement: Satyr 3 L9
* Smoothing: 1/6 octave
* Frequency Step: 96 ppo
* Start Frequency: 20.0 Hz
*
* Freq(Hz) SPL(dB) Phase(degrees)
20.141602 91.785 -24.6791
20.287556 91.803 -24.8851
20.434568 91.826 -25.1610
20.582645 91.851 -25.4998
20.731796 91.875 -25.8939
20.882027 91.896 -26.3366
21.033346 91.911 -26.8219
21.185763 91.920 -27.3449
21.339284 91.922 -27.9017
21.493917 91.916 -28.4890
21.649671 91.904 -29.1037
21.806553 91.885 -29.7428
21.964572 91.860 -30.4031
22.123737 91.832 -31.0809
22.284054 91.802 -31.7722
22.445534 91.771 -32.4726
22.608183 91.741 -33.1775
22.772012 91.713 -33.8826
22.937027 91.690 -34.5836
23.103238 91.673 -35.2770
23.270654 91.663 -35.9600
23.439282 91.662 -36.6306
23.609133 91.671 -37.2879
23.780215 91.692 -37.9318
23.952536 91.725 -38.5629
24.126106 91.771 -39.1827
24.300934 91.829 -39.7930
24.477028 91.900 -40.3957
24.654399 91.981 -40.9932
24.833055 92.072 -41.5874
25.013005 92.171 -42.1806
25.194260 92.277 -42.7748
25.376828 92.386 -43.3718
25.560719 92.498 -43.9736
25.745942 92.610 -44.5820
25.932508 92.722 -45.1987
26.120426 92.830 -45.8252
26.309705 92.935 -46.4626
26.500356 93.036 -47.1115
26.692388 93.130 -47.7719
26.885812 93.219 -48.4430
27.080638 93.302 -49.1232
27.276876 93.379 -49.8104
27.474535 93.452 -50.5019
27.673627 93.521 -51.1950
27.874161 93.588 -51.8869
28.076149 93.656 -52.5755
28.279600 93.727 -53.2593
28.484526 93.806 -53.9373
28.690937 93.893 -54.6096
28.898843 93.993 -55.2768
29.108256 94.107 -55.9399
29.319186 94.236 -56.6001
29.531645 94.381 -57.2583
29.745644 94.540 -57.9153
29.961193 94.711 -58.5713
30.178304 94.891 -59.2265
30.396989 95.075 -59.8805
30.617258 95.260 -60.5334
30.839123 95.441 -61.1851
31.062596 95.612 -61.8359
31.287688 95.769 -62.4863
31.514412 95.908 -63.1369
31.742778 96.025 -63.7883
31.972800 96.117 -64.4405
32.204488 96.183 -65.0934
32.437855 96.220 -65.7464
32.672913 96.228 -66.3984
32.909674 96.209 -67.0485
33.148151 96.163 -67.6956
33.388356 96.093 -68.3392
33.630302 96.003 -68.9791
33.874001 95.895 -69.6156
34.119466 95.774 -70.2491
34.366710 95.644 -70.8800
34.615745 95.509 -71.5085
34.866585 95.374 -72.1342
35.119243 95.242 -72.7567
35.373731 95.119 -73.3752
35.630064 95.007 -73.9893
35.888254 94.909 -74.5988
36.148315 94.830 -75.2043
36.410261 94.770 -75.8068
36.674104 94.733 -76.4079
36.939860 94.719 -77.0090
37.207542 94.728 -77.6114
37.477163 94.761 -78.2160
37.748738 94.818 -78.8230
38.022281 94.898 -79.4320
38.297806 95.000 -80.0426
38.575327 95.124 -80.6539
38.854860 95.269 -81.2657
39.136419 95.433 -81.8778
39.420017 95.616 -82.4906
39.705671 95.816 -83.1047
39.993395 96.032 -83.7210
40.283203 96.263 -84.3405
40.575112 96.507 -84.9640
40.869136 96.763 -85.5924
41.165290 97.028 -86.2263
41.463591 97.302 -86.8663
41.764053 97.581 -87.5128
42.066693 97.864 -88.1659
42.371525 98.148 -88.8260
42.678567 98.432 -89.4928
42.987834 98.712 -90.1662
43.299341 98.986 -90.8458
43.613106 99.252 -91.5311
43.929145 99.507 -92.2214
44.247473 99.750 -92.9161
44.568109 99.979 -93.6147
44.891068 100.192 -94.3170
45.216367 100.389 -95.0230
45.544023 100.569 -95.7331
45.874054 100.731 -96.4476
46.206476 100.875 -97.1666
46.541307 101.002 -97.8901
46.878565 101.111 -98.6178
47.218266 101.202 -99.3492
47.560429 101.278 -100.0837
47.905072 101.338 -100.8209
48.252212 101.383 -101.5603
48.601867 101.416 -102.3018
48.954056 101.437 -103.0451
49.308798 101.449 -103.7904
49.666109 101.452 -104.5375
50.026010 101.449 -105.2862
50.388520 101.441 -106.0366
50.753656 101.430 -106.7884
51.121437 101.418 -107.5415
51.491884 101.407 -108.2957
51.865016 101.396 -109.0508
52.240851 101.388 -109.8066
52.619410 101.382 -110.5628
53.000712 101.379 -111.3192
53.384777 101.380 -112.0758
53.771625 101.382 -112.8325
54.161276 101.387 -113.5896
54.553751 101.392 -114.3471
54.949070 101.398 -115.1052
55.347254 101.403 -115.8637
55.748323 101.406 -116.6224
56.152298 101.407 -117.3809
56.559201 101.404 -118.1387
56.969052 101.398 -118.8953
57.381873 101.388 -119.6505
57.797686 101.374 -120.4040
58.216512 101.357 -121.1556
58.638373 101.336 -121.9053
59.063291 101.312 -122.6530
59.491288 101.285 -123.3989
59.922386 101.255 -124.1430
60.356608 101.223 -124.8853
60.793977 101.189 -125.6263
61.234515 101.154 -126.3661
61.678246 101.117 -127.1053
62.125192 101.079 -127.8442
62.575377 101.041 -128.5830
63.028824 101.002 -129.3217
63.485557 100.964 -130.0600
63.945599 100.926 -130.7976
64.408975 100.889 -131.5338
64.875709 100.854 -132.2681
65.345825 100.821 -132.9998
65.819348 100.790 -133.7281
66.296302 100.761 -134.4522
66.776713 100.734 -135.1714
67.260604 100.710 -135.8852
67.748002 100.688 -136.5931
68.238932 100.667 -137.2949
68.733420 100.649 -137.9904
69.231490 100.631 -138.6798
69.733170 100.615 -139.3631
70.238485 100.600 -140.0405
70.747463 100.585 -140.7122
71.260128 100.572 -141.3786
71.776508 100.560 -142.0398
72.296630 100.548 -142.6962
72.820521 100.536 -143.3479
73.348209 100.525 -143.9951
73.879720 100.515 -144.6376
74.415083 100.504 -145.2751
74.954326 100.493 -145.9075
75.497475 100.481 -146.5342
76.044561 100.468 -147.1549
76.595612 100.454 -147.7693
77.150655 100.438 -148.3769
77.709720 100.420 -148.9774
78.272837 100.399 -149.5706
78.840034 100.375 -150.1563
79.411342 100.348 -150.7346
79.986789 100.316 -151.3055
80.566406 100.281 -151.8693
81.150224 100.241 -152.4261
81.738272 100.198 -152.9763
82.330581 100.152 -153.5200
82.927182 100.104 -154.0574
83.528107 100.055 -154.5886
84.133386 100.006 -155.1138
84.743051 99.961 -155.6326
85.357134 99.921 -156.1451
85.975667 99.889 -156.6507
86.598682 99.870 -157.1494
87.226212 99.867 -157.6411
87.858289 99.882 -158.1258
88.494946 99.920 -158.6036
89.136217 99.981 -159.0749
89.782135 100.066 -159.5400
90.432733 100.175 -159.9994
91.088046 100.306 -160.4536
91.748108 100.455 -160.9029
92.412952 100.618 -161.3477
93.082615 100.789 -161.7881
93.757130 100.963 -162.2238
94.436533 101.135 -162.6547
95.120859 101.300 -163.0805
95.810144 101.453 -163.5010
96.504423 101.591 -163.9159
97.203734 101.713 -164.3249
97.908112 101.817 -164.7277
98.617595 101.904 -165.1243
99.332219 101.975 -165.5147
100.052021 102.030 -165.8989
100.777039 102.073 -166.2772
101.507311 102.105 -166.6502
102.242875 102.129 -167.0184
102.983769 102.146 -167.3822
103.730032 102.157 -167.7419
104.481702 102.163 -168.0977
105.238820 102.164 -168.4496
106.001424 102.160 -168.7975
106.769554 102.150 -169.1410
107.543250 102.131 -169.4800
108.322553 102.104 -169.8143
109.107503 102.064 -170.1438
109.898141 102.013 -170.4689
110.694508 101.948 -170.7901
111.496646 101.870 -171.1081
112.304596 101.778 -171.4235
113.118402 101.675 -171.7367
113.938104 101.561 -172.0478
114.763747 101.439 -172.3568
115.595372 101.311 -172.6634
116.433024 101.179 -172.9672
117.276746 101.046 -173.2679
118.126581 100.912 -173.5655
118.982575 100.779 -173.8596
119.844772 100.649 -174.1505
120.713217 100.522 -174.4380
121.587954 100.397 -174.7223
122.469031 100.274 -175.0034
123.356492 100.152 -175.2815
124.250384 100.029 -175.5564
125.150753 99.905 -175.8283
126.057647 99.777 -176.0972
126.971113 99.645 -176.3630
127.891198 99.507 -176.6257
128.817950 99.362 -176.8850
129.751418 99.210 -177.1406
130.691651 99.051 -177.3921
131.638696 98.886 -177.6389
132.592604 98.717 -177.8805
133.553425 98.545 -178.1158
134.521208 98.372 -178.3436
135.496004 98.203 -178.5629
136.477864 98.041 -178.7721
137.466839 97.888 -178.9701
138.462981 97.749 -179.1559
139.466340 97.626 -179.3290
140.476971 97.521 -179.4894
141.494925 97.435 -179.6373
142.520256 97.369 -179.7738
143.553016 97.320 -179.8999
144.593260 97.285 179.9826
145.641043 97.262 179.8723
146.696418 97.246 179.7675
147.759441 97.234 179.6672
148.830166 97.221 179.5705
149.908651 97.204 179.4771
150.994951 97.182 179.3873
152.089123 97.152 179.3019
153.191223 97.114 179.2223
154.301310 97.069 179.1501
155.419441 97.019 179.0877
156.545674 96.964 179.0373
157.680069 96.906 179.0013
158.822683 96.848 178.9818
159.973578 96.791 178.9807
161.132813 96.736 178.9990
162.300447 96.685 179.0375
163.476543 96.640 179.0960
164.661162 96.600 179.1738
165.854364 96.566 179.2692
167.056213 96.540 179.3801
168.266772 96.521 179.5036
169.486102 96.510 179.6365
170.714268 96.509 179.7750
171.951334 96.516 179.9152
173.197364 96.532 -179.9471
174.452424 96.556 -179.8156
175.716578 96.589 -179.6943
176.989893 96.629 -179.5867
178.272434 96.675 -179.4957
179.564270 96.724 -179.4239
180.865467 96.777 -179.3729
182.176092 96.830 -179.3438
183.496216 96.882 -179.3369
184.825905 96.932 -179.3518
186.165229 96.979 -179.3875
187.514259 97.022 -179.4425
188.873065 97.062 -179.5151
190.241717 97.098 -179.6033
191.620287 97.131 -179.7050
193.008847 97.162 -179.8183
194.407468 97.190 -179.9412
195.816225 97.217 179.9280
197.235190 97.241 179.7908
198.664438 97.264 179.6485
200.104042 97.285 179.5021
201.554078 97.303 179.3524
203.014622 97.319 179.2005
204.485750 97.331 179.0470
205.967538 97.339 178.8928
207.460064 97.344 178.7387
208.963405 97.343 178.5856
210.477640 97.339 178.4343
212.002848 97.330 178.2856
213.539108 97.318 178.1399
215.086500 97.302 177.9977
216.645105 97.284 177.8592
218.215005 97.263 177.7244
219.796281 97.240 177.5930
221.389015 97.214 177.4650
222.993292 97.186 177.3401
224.609193 97.154 177.2184
226.236804 97.118 177.0994
227.876209 97.077 176.9834
229.527494 97.031 176.8701
231.190745 96.980 176.7596
232.866048 96.923 176.6519
234.553491 96.861 176.5469
236.253163 96.794 176.4444
237.965150 96.724 176.3445
239.689544 96.650 176.2469
241.426433 96.575 176.1519
243.175909 96.499 176.0591
244.938062 96.423 175.9687
246.712984 96.348 175.8806
248.500768 96.274 175.7950
250.301507 96.204 175.7120
252.115295 96.137 175.6315
253.942226 96.074 175.5538
255.782396 96.015 175.4785
257.635901 95.962 175.4055
259.502837 95.914 175.3345
261.383301 95.872 175.2651
263.277392 95.836 175.1971
265.185209 95.807 175.1302
267.106850 95.784 175.0643
269.042417 95.767 174.9993
270.992009 95.757 174.9355
272.955729 95.751 174.8729
274.933678 95.751 174.8117
276.925961 95.754 174.7521
278.932681 95.761 174.6941
280.953942 95.770 174.6377
282.989850 95.783 174.5829
285.040511 95.798 174.5295
287.106032 95.815 174.4775
289.186521 95.837 174.4268
291.282086 95.863 174.3774
293.392836 95.893 174.3293
295.518881 95.930 174.2828
297.660333 95.972 174.2380
299.817302 96.020 174.1950
301.989902 96.072 174.1538
304.178245 96.128 174.1146
306.382446 96.187 174.0772
308.602620 96.245 174.0418
310.838882 96.302 174.0082
313.091348 96.356 173.9766
315.360137 96.406 173.9467
317.645367 96.449 173.9185
319.947156 96.484 173.8919
322.265625 96.512 173.8668
324.600895 96.531 173.8430
326.953086 96.540 173.8203
329.322323 96.539 173.7988
331.708729 96.528 173.7783
334.112427 96.506 173.7588
336.533543 96.474 173.7403
338.972204 96.432 173.7228
341.428536 96.381 173.7064
343.902668 96.322 173.6912
346.394729 96.255 173.6772
348.904848 96.183 173.6647
351.433156 96.108 173.6537
353.979786 96.032 173.6443
356.544869 95.956 173.6366
359.128540 95.885 173.6308
361.730934 95.820 173.6268
364.352185 95.766 173.6248
366.992431 95.723 173.6246
369.651810 95.696 173.6259
372.330459 95.686 173.6287
375.028519 95.694 173.6325
377.746130 95.720 173.6372
380.483434 95.763 173.6427
383.240574 95.822 173.6489
386.017693 95.895 173.6558
388.814937 95.979 173.6633
391.632450 96.072 173.6712
394.470380 96.171 173.6794
397.328875 96.273 173.6875
400.208084 96.375 173.6952
403.108157 96.477 173.7021
406.029245 96.577 173.7078
408.971500 96.675 173.7121
411.935076 96.768 173.7149
414.920127 96.859 173.7163
417.926810 96.948 173.7165
420.955280 97.034 173.7159
424.005695 97.120 173.7147
427.078215 97.205 173.7134
430.173000 97.290 173.7123
433.290211 97.375 173.7115
436.430010 97.461 173.7115
439.592562 97.546 173.7122
442.778031 97.630 173.7139
445.986583 97.711 173.7166
449.218386 97.788 173.7203
452.473607 97.859 173.7253
455.752418 97.923 173.7316
459.054987 97.978 173.7393
462.381489 98.023 173.7487
465.732096 98.058 173.7599
469.106983 98.083 173.7731
472.506325 98.097 173.7884
475.930301 98.102 173.8057
479.379088 98.098 173.8252
482.852867 98.086 173.8466
486.351817 98.067 173.8699
489.876123 98.044 173.8952
493.425968 98.015 173.9224
497.001536 97.983 173.9515
500.603014 97.948 173.9824
504.230589 97.910 174.0149
507.884452 97.870 174.0486
511.564792 97.827 174.0833
515.271802 97.782 174.1182
519.005673 97.736 174.1531
522.766602 97.689 174.1875
526.554785 97.643 174.2208
530.370418 97.599 174.2527
534.213700 97.559 174.2829
538.084833 97.525 174.3112
541.984018 97.498 174.3375
545.911457 97.481 174.3618
549.867357 97.472 174.3841
553.851922 97.474 174.4046
557.865362 97.485 174.4233
561.907884 97.503 174.4401
565.979700 97.528 174.4547
570.081022 97.556 174.4673
574.212064 97.586 174.4776
578.373042 97.616 174.4859
582.564171 97.643 174.4921
586.785671 97.667 174.4960
591.037762 97.686 174.4977
595.320665 97.698 174.4969
599.634604 97.704 174.4938
603.979804 97.703 174.4886
608.356491 97.696 174.4816
612.764893 97.682 174.4731
617.205240 97.663 174.4635
621.677763 97.639 174.4526
626.182696 97.613 174.4401
630.720274 97.587 174.4251
635.290733 97.561 174.4069
639.894312 97.538 174.3846
644.531250 97.520 174.3572
649.201789 97.508 174.3243
653.906173 97.503 174.2856
658.644647 97.506 174.2411
663.417457 97.516 174.1909
668.224854 97.533 174.1353
673.067086 97.555 174.0750
677.944408 97.582 174.0102
682.857073 97.611 173.9411
687.805336 97.641 173.8676
692.789457 97.670 173.7892
697.809695 97.698 173.7055
702.866312 97.722 173.6158
707.959571 97.743 173.5197
713.089738 97.759 173.4168
718.257080 97.770 173.3074
723.461867 97.776 173.1917
728.704370 97.778 173.0702
733.984862 97.775 172.9434
739.303619 97.769 172.8118
744.660918 97.761 172.6759
750.057038 97.750 172.5361
755.492260 97.737 172.3928
760.966869 97.724 172.2463
766.481148 97.709 172.0970
772.035387 97.693 171.9447
777.629873 97.675 171.7891
783.264900 97.654 171.6297
788.940760 97.630 171.4661
794.657750 97.602 171.2977
800.416168 97.568 171.1242
806.216313 97.529 170.9450
812.058489 97.483 170.7597
817.943000 97.431 170.5676
823.870152 97.372 170.3683
829.840255 97.307 170.1617
835.853619 97.236 169.9481
841.910559 97.159 169.7278
848.011390 97.079 169.5013
854.156430 96.995 169.2691
860.346000 96.909 169.0318
866.580422 96.822 168.7895
872.860020 96.736 168.5425
879.185124 96.651 168.2908
885.556062 96.568 168.0345
891.973166 96.490 167.7734
898.436771 96.416 167.5076
904.947215 96.348 167.2368
911.504835 96.287 166.9611
918.109975 96.233 166.6807
924.762978 96.187 166.3959
931.464192 96.150 166.1075
938.213966 96.121 165.8163
945.012651 96.101 165.5234
951.860602 96.088 165.2293
958.758176 96.084 164.9341
965.705733 96.086 164.6379
972.703635 96.094 164.3404
979.752246 96.107 164.0417
986.851935 96.125 163.7425
994.003071 96.146 163.4440
1001.206027 96.170 163.1476
1008.461179 96.197 162.8547
1015.768904 96.229 162.5660
1023.129584 96.264 162.2813
1030.543603 96.305 161.9994
1038.011347 96.351 161.7182
1045.533205 96.404 161.4355
1053.109569 96.464 161.1495
1060.740836 96.530 160.8592
1068.427401 96.601 160.5646
1076.169666 96.678 160.2665
1083.968035 96.758 159.9661
1091.822915 96.841 159.6645
1099.734713 96.924 159.3625
1107.703844 97.007 159.0603
1115.730723 97.086 158.7580
1123.815768 97.160 158.4555
1131.959400 97.228 158.1528
1140.162045 97.289 157.8503
1148.424129 97.341 157.5492
1156.746083 97.385 157.2509
1165.128342 97.421 156.9571
1173.571343 97.449 156.6699
1182.075524 97.471 156.3911
1190.641331 97.489 156.1223
1199.269209 97.503 155.8646
1207.959608 97.515 155.6193
1216.712981 97.526 155.3874
1225.529785 97.536 155.1694
1234.410479 97.545 154.9656
1243.355526 97.555 154.7757
1252.365393 97.564 154.5992
1261.440549 97.572 154.4354
1270.581467 97.578 154.2832
1279.788624 97.582 154.1413
1289.062500 97.584 154.0079
1298.403578 97.583 153.8807
1307.812346 97.579 153.7575
1317.289293 97.572 153.6360
1326.834914 97.561 153.5148
1336.449707 97.547 153.3935
1346.134173 97.529 153.2732
1355.888816 97.507 153.1559
1365.714145 97.482 153.0445
1375.610673 97.452 152.9415
1385.578915 97.418 152.8498
1395.619391 97.381 152.7717
1405.732624 97.340 152.7093
1415.919142 97.296 152.6640
1426.179476 97.250 152.6367
1436.514160 97.203 152.6270
1446.923734 97.155 152.6342
1457.408740 97.107 152.6569
1467.969724 97.061 152.6934
1478.607238 97.017 152.7421
1489.321836 96.976 152.8017
1500.114076 96.938 152.8710
1510.984521 96.904 152.9493
1521.933737 96.873 153.0364
1532.962297 96.846 153.1327
1544.070773 96.822 153.2395
1555.259747 96.800 153.3590
1566.529800 96.780 153.4937
1577.881521 96.761 153.6459
1589.315501 96.744 153.8177
1600.832336 96.728 154.0103
1612.432627 96.713 154.2245
1624.116978 96.700 154.4604
1635.886000 96.688 154.7171
1647.740304 96.678 154.9926
1659.680509 96.670 155.2836
1671.707238 96.666 155.5860
1683.821118 96.665 155.8946
1696.022780 96.667 156.2047
1708.312860 96.671 156.5128
1720.692000 96.678 156.8173
1733.160843 96.687 157.1192
1745.720041 96.698 157.4215
1758.370248 96.709 157.7278
1771.112124 96.722 158.0418
1783.946332 96.735 158.3661
1796.873543 96.749 158.7032
1809.894429 96.764 159.0548
1823.009670 96.779 159.4224
1836.219950 96.795 159.8055
1849.525956 96.813 160.2018
1862.928384 96.833 160.6063
1876.427931 96.856 161.0135
1890.025301 96.881 161.4184
1903.721204 96.909 161.8175
1917.516352 96.939 162.2083
1931.411466 96.971 162.5889
1945.407270 97.003 162.9580
1959.504493 97.036 163.3156
1973.703870 97.069 163.6628
1988.006142 97.099 164.0007
2002.412054 97.128 164.3296
2016.922357 97.153 164.6489
2031.537808 97.175 164.9566
2046.259169 97.192 165.2503
2061.087206 97.204 165.5269
2076.022694 97.212 165.7835
2091.066410 97.213 166.0171
2106.219139 97.210 166.2252
2121.481671 97.202 166.4052
2136.854802 97.189 166.5554
2152.339333 97.173 166.6749
2167.936071 97.154 166.7635
2183.645829 97.133 166.8223
2199.469427 97.110 166.8530
2215.407689 97.087 166.8580
2231.461446 97.064 166.8407
2247.631536 97.041 166.8044
2263.918800 97.020 166.7524
2280.324089 97.000 166.6866
2296.848258 96.982 166.6079
2313.492167 96.966 166.5160
2330.256685 96.952 166.4100
2347.142685 96.940 166.2886
2364.151049 96.929 166.1510
2381.282662 96.918 165.9965
2398.538418 96.909 165.8251
2415.919216 96.899 165.6371
2433.425962 96.889 165.4328
2451.059570 96.879 165.2127
2468.820958 96.868 164.9768
2486.711052 96.858 164.7246
2504.730786 96.848 164.4550
2522.881098 96.838 164.1665
2541.162934 96.829 163.8576
2559.577248 96.821 163.5273
2578.125000 96.812 163.1752
2596.807157 96.804 162.8029
2615.624692 96.796 162.4142
2634.578586 96.787 162.0154
2653.669829 96.778 161.6146
2672.899414 96.769 161.2220
2692.268345 96.760 160.8481
2711.777632 96.752 160.5036
2731.428290 96.744 160.1979
2751.221345 96.739 159.9391
2771.157829 96.735 159.7335
2791.238781 96.733 159.5859
2811.465248 96.733 159.4999
2831.838284 96.733 159.4782
2852.358952 96.733 159.5229
2873.028321 96.732 159.6356
2893.847468 96.729 159.8175
2914.817480 96.724 160.0694
2935.939449 96.716 160.3911
2957.214476 96.705 160.7811
2978.643672 96.692 161.2365
3000.228152 96.677 161.7526
3021.969041 96.660 162.3223
3043.867475 96.643 162.9364
3065.924593 96.627 163.5838
3088.141547 96.612 164.2518
3110.519493 96.600 164.9267
3133.059600 96.592 165.5944
3155.763041 96.587 166.2411
3178.631001 96.586 166.8545
3201.664672 96.588 167.4248
3224.865254 96.592 167.9457
3248.233957 96.596 168.4160
3271.771999 96.599 168.8397
3295.480608 96.600 169.2263
3319.361019 96.598 169.5899
3343.414477 96.592 169.9473
3367.642236 96.585 170.3163
3392.045560 96.576 170.7130
3416.625721 96.570 171.1492
3441.383999 96.570 171.6301
3466.321686 96.579 172.1528
3491.440082 96.602 172.7054
3516.740496 96.641 173.2681
3542.224247 96.699 173.8147
3567.892664 96.778 174.3156
3593.747085 96.876 174.7410
3619.788858 96.991 175.0641
3646.019340 97.120 175.2632
3672.439900 97.260 175.3238
3699.051913 97.405 175.2387
3725.856768 97.551 175.0087
3752.855862 97.693 174.6408
3780.050603 97.828 174.1479
3807.442408 97.951 173.5466
3835.032705 98.061 172.8564
3862.822933 98.156 172.0979
3890.814540 98.234 171.2916
3919.008986 98.295 170.4576
3947.407741 98.338 169.6144
3976.012284 98.363 168.7790
4004.824108 98.372 167.9669
4033.844715 98.364 167.1918
4063.075616 98.340 166.4659
4092.518337 98.301 165.8002
4122.174412 98.249 165.2037
4152.045387 98.184 164.6844
4182.132820 98.107 164.2491
4212.438278 98.020 163.9034
4242.963342 97.924 163.6522
4273.709604 97.821 163.4993
4304.678665 97.710 163.4481
4335.872141 97.595 163.5005
4367.291658 97.475 163.6582
4398.938854 97.352 163.9212
4430.815378 97.226 164.2885
4462.922893 97.100 164.7578
4495.263072 96.973 165.3255
4527.837601 96.845 165.9876
4560.648179 96.718 166.7398
4593.696515 96.591 167.5782
4626.984334 96.466 168.4996
4660.513370 96.341 169.5018
4694.285371 96.219 170.5837
4728.302098 96.101 171.7448
4762.565324 95.987 172.9849
4797.076835 95.881 174.3041
4831.838432 95.783 175.7012
4866.851925 95.698 177.1739
4902.119140 95.627 178.7178
4937.641916 95.575 -179.6736
4973.422105 95.543 -178.0095
5009.461572 95.534 -176.3013
5045.762195 95.551 -174.5625
5082.325868 95.595 -172.8085
5119.154496 95.668 -171.0565
5156.250000 95.770 -169.3248
5193.614313 95.902 -167.6328
5231.249383 96.063 -166.0001
5269.157173 96.252 -164.4467
5307.339658 96.468 -162.9917
5345.798829 96.709 -161.6539
5384.536691 96.972 -160.4502
5423.555263 97.255 -159.3965
5462.856580 97.556 -158.5064
5502.442691 97.873 -157.7917
5542.315659 98.202 -157.2623
5582.477563 98.541 -156.9258
5622.930497 98.888 -156.7879
5663.676569 99.240 -156.8520
5704.717904 99.594 -157.1192
5746.056642 99.948 -157.5885
5787.694937 100.299 -158.2563
5829.634960 100.643 -159.1172
5871.878898 100.978 -160.1633
5914.428953 101.301 -161.3847
5957.287343 101.608 -162.7692
6000.456303 101.896 -164.3026
6043.938083 102.162 -165.9683
6087.734950 102.403 -167.7480
6131.849187 102.617 -169.6211
6176.283094 102.801 -171.5655
6221.038987 102.953 -173.5576
6266.119200 103.072 -175.5725
6311.526083 103.158 -177.5852
6357.262002 103.209 -179.5705
6403.329344 103.229 178.4955
6449.730508 103.217 176.6352
6496.467914 103.177 174.8681
6543.543998 103.113 173.2103
6590.961215 103.028 171.6733
6638.722037 102.928 170.2637
6686.828954 102.818 168.9819
6735.284473 102.705 167.8219
6784.091120 102.595 166.7709
6833.251441 102.494 165.8096
6882.767998 102.408 164.9130
6932.643372 102.341 164.0519
6982.880164 102.299 163.1947
7033.480992 102.282 162.3091
7084.448495 102.292 161.3638
7135.785329 102.328 160.3290
7187.494171 102.390 159.1776
7239.577717 102.474 157.8843
7292.038681 102.577 156.4265
7344.879799 102.696 154.7828
7398.103826 102.823 152.9340
7451.713536 102.955 150.8627
7505.711724 103.084 148.5540
7560.101205 103.203 145.9962
7614.884815 103.305 143.1823
7670.065409 103.381 140.1109
7725.645865 103.424 136.7874
7781.629080 103.426 133.2249
7838.017972 103.379 129.4437
7894.815481 103.278 125.4714
7952.024569 103.116 121.3405
8009.648217 102.893 117.0857
8067.689429 102.604 112.7413
8126.151233 102.252 108.3370
8185.036674 101.836 103.8945
8244.348824 101.361 99.4245
8304.090774 100.831 94.9236
8364.265639 100.251 90.3718
8424.876556 99.628 85.7301
8485.926684 98.968 80.9380
8547.419207 98.281 75.9102
8609.357330 97.575 70.5327
8671.744282 96.862 64.6584
8734.583316 96.156 58.1018
8797.877707 95.470 50.6371
8861.630756 94.822 42.0063
8925.845785 94.233 31.9574
8990.526143 93.723 20.3413
9055.675202 93.313 7.2816
9121.296357 93.021 -6.6721
9187.393031 92.859 -20.6123
9253.968668 92.829 -33.6381
9321.026740 92.925 -45.2148
9388.570742 93.132 -55.2366
9456.604196 93.427 -63.8686
9525.130648 93.787 -71.3769
9594.153671 94.190 -78.0314
9663.676863 94.612 -84.0670
9733.703850 95.034 -89.6745
9804.238280 95.440 -95.0029
9875.283832 95.813 -100.1626
9946.844210 96.140 -105.2296
10018.923143 96.409 -110.2476
10091.524390 96.609 -115.2302
10164.651736 96.733 -120.1636
10238.308993 96.774 -125.0095
10312.500000 96.728 -129.7109
10387.228626 96.597 -134.1989
10462.498767 96.384 -138.4011
10538.314345 96.096 -142.2505
10614.679315 95.743 -145.6921
10691.597657 95.338 -148.6886
10769.073381 94.895 -151.2242
10847.110526 94.433 -153.3083
10925.713161 93.966 -154.9765
11004.885382 93.513 -156.2915
11084.631318 93.089 -157.3405
11164.955126 92.706 -158.2296
11245.860993 92.373 -159.0746
11327.353138 92.091 -159.9902
11409.435808 91.855 -161.0776
11492.113283 91.657 -162.4157
11575.389873 91.480 -164.0535
11659.269920 91.309 -166.0087
11743.757796 91.127 -168.2688
11828.857906 90.919 -170.7960
11914.574686 90.672 -173.5336
12000.912606 90.377 -176.4113
12087.876166 90.026 -179.3501
12175.469900 89.618 177.7366
12263.698373 89.148 174.9453
12352.566187 88.617 172.3856
12442.077974 88.025 170.1850
12532.238400 87.375 168.4897
12623.052165 86.672 167.4587
12714.524005 85.925 167.2440
12806.658687 85.148 167.9503
12899.461015 84.358 169.5762
12992.935827 83.576 171.9564
13087.087996 82.827 174.7485
13181.922430 82.135 177.4993
13277.444074 81.524 179.7701
13373.657907 81.007 -178.7527
13470.568945 80.595 -178.2191
13568.182241 80.288 -178.6416
13666.502883 80.080 -179.9446
13765.535996 79.964 177.9976
13865.286744 79.935 175.3486
13965.760328 79.984 172.3458
14066.961984 80.103 169.4885
14168.896989 80.284 168.8407
14271.570658 80.511 -125.7704
14374.988342 80.768 -38.8666
14479.155433 81.033 -40.1379
14584.077362 81.285 -44.5924
14689.759598 81.505 -49.9172
14796.207652 81.675 -55.5956
14903.427072 81.781 -61.4055
15011.423448 81.815 -67.2101
15120.202410 81.773 -72.9071
15229.769630 81.654 -78.4170
15340.130819 81.462 -83.6799
15451.291730 81.205 -88.6566
15563.258160 80.894 -93.3286
15676.035944 80.539 -97.6981
15789.630962 80.153 -101.7853
15904.049137 79.746 -105.6267
16019.296433 79.330 -109.2707
16135.378859 78.908 -112.7693
16252.302465 78.484 -116.1679
16370.073348 78.053 -119.4935
16488.697648 77.610 -122.7479
16608.181548 77.146 -125.9069
16728.531278 76.655 -128.9285
16849.753112 76.137 -131.7658
16971.853368 75.593 -134.3822
17094.838414 75.031 -136.7663
17218.714660 74.463 -138.9436
17343.488565 73.905 -140.9816
17469.166632 73.373 -142.9834
17595.755415 72.879 -145.0714
17723.261512 72.432 -147.3638
17851.691571 72.029 -149.9521
17981.052287 71.664 -152.8876
18111.350404 71.323 -156.1756
18242.592715 70.993 -159.7785
18374.786062 70.659 -163.6218
18507.937336 70.312 -167.6019
18642.053479 69.946 -171.5938
18777.141484 69.566 -175.4631
18913.208391 69.179 -179.0831
19050.261296 68.802 177.6428
19188.307342 68.454 174.7585
19327.353727 68.151 172.2512
19467.407699 67.907 170.0770
19608.476560 67.724 168.2104
19750.567664 67.600 166.6805
19893.688419 67.524 165.5709
20037.846286 67.489 164.9822
