* Measurement data measured by REW V5.31.3
* Source: EXCL: Headset (USB-C to 3.5mm Headphone Jack Adapter), MICROPHONE (Master Volume), 0, volume: 0.260
* Format: 256k Log Swept Sine, 1 sweep at -12.0 dBFS with no timing reference
* Dated: Feb 14, 2025 1:43:32 PM
* REW Settings:
*  C-weighting compensation: Off
*  Target level: 75.0 dB
* Note: ; 
* Measurement: Satyr 3 L1
* Smoothing: 1/6 octave
* Frequency Step: 96 ppo
* Start Frequency: 20.0 Hz
*
* Freq(Hz) SPL(dB) Phase(degrees)
20.141602 92.197 -24.2430
20.287556 92.214 -24.4684
20.434568 92.234 -24.7698
20.582645 92.256 -25.1384
20.731796 92.276 -25.5647
20.882027 92.291 -26.0395
21.033346 92.301 -26.5542
21.185763 92.304 -27.1013
21.339284 92.298 -27.6742
21.493917 92.286 -28.2675
21.649671 92.267 -28.8763
21.806553 92.243 -29.4968
21.964572 92.215 -30.1254
22.123737 92.186 -30.7592
22.284054 92.157 -31.3954
22.445534 92.130 -32.0320
22.608183 92.107 -32.6671
22.772012 92.090 -33.2993
22.937027 92.080 -33.9277
23.103238 92.079 -34.5519
23.270654 92.086 -35.1718
23.439282 92.103 -35.7881
23.609133 92.131 -36.4015
23.780215 92.169 -37.0133
23.952536 92.218 -37.6247
24.126106 92.278 -38.2373
24.300934 92.347 -38.8522
24.477028 92.426 -39.4704
24.654399 92.513 -40.0924
24.833055 92.607 -40.7182
25.013005 92.707 -41.3474
25.194260 92.810 -41.9787
25.376828 92.916 -42.6107
25.560719 93.024 -43.2417
25.745942 93.131 -43.8698
25.932508 93.237 -44.4934
26.120426 93.341 -45.1116
26.309705 93.443 -45.7239
26.500356 93.541 -46.3308
26.692388 93.636 -46.9337
26.885812 93.726 -47.5347
27.080638 93.813 -48.1364
27.276876 93.895 -48.7418
27.474535 93.974 -49.3533
27.673627 94.051 -49.9730
27.874161 94.125 -50.6024
28.076149 94.200 -51.2415
28.279600 94.277 -51.8898
28.484526 94.360 -52.5458
28.690937 94.451 -53.2075
28.898843 94.553 -53.8728
29.108256 94.670 -54.5398
29.319186 94.804 -55.2071
29.531645 94.955 -55.8741
29.745644 95.123 -56.5409
29.961193 95.306 -57.2081
30.178304 95.500 -57.8767
30.396989 95.702 -58.5476
30.617258 95.906 -59.2215
30.839123 96.106 -59.8984
31.062596 96.296 -60.5777
31.287688 96.472 -61.2585
31.514412 96.628 -61.9396
31.742778 96.761 -62.6197
31.972800 96.867 -63.2978
32.204488 96.944 -63.9736
32.437855 96.992 -64.6472
32.672913 97.010 -65.3195
32.909674 97.000 -65.9915
33.148151 96.962 -66.6645
33.388356 96.900 -67.3397
33.630302 96.817 -68.0183
33.874001 96.716 -68.7009
34.119466 96.602 -69.3878
34.366710 96.479 -70.0790
34.615745 96.350 -70.7743
34.866585 96.222 -71.4732
35.119243 96.097 -72.1754
35.373731 95.980 -72.8807
35.630064 95.874 -73.5889
35.888254 95.783 -74.2998
36.148315 95.709 -75.0135
36.410261 95.654 -75.7299
36.674104 95.619 -76.4488
36.939860 95.606 -77.1700
37.207542 95.616 -77.8927
37.477163 95.647 -78.6161
37.748738 95.701 -79.3389
38.022281 95.775 -80.0598
38.297806 95.871 -80.7775
38.575327 95.986 -81.4907
38.854860 96.119 -82.1984
39.136419 96.270 -82.9001
39.420017 96.438 -83.5958
39.705671 96.622 -84.2857
39.993395 96.820 -84.9704
40.283203 97.032 -85.6505
40.575112 97.256 -86.3268
40.869136 97.492 -86.9997
41.165290 97.737 -87.6696
41.463591 97.990 -88.3367
41.764053 98.250 -89.0011
42.066693 98.514 -89.6628
42.371525 98.781 -90.3221
42.678567 99.048 -90.9792
42.987834 99.313 -91.6343
43.299341 99.574 -92.2878
43.613106 99.827 -92.9400
43.929145 100.072 -93.5912
44.247473 100.305 -94.2415
44.568109 100.526 -94.8913
44.891068 100.731 -95.5408
45.216367 100.922 -96.1902
45.544023 101.095 -96.8398
45.874054 101.251 -97.4897
46.206476 101.390 -98.1404
46.541307 101.511 -98.7921
46.878565 101.615 -99.4453
47.218266 101.702 -100.1003
47.560429 101.773 -100.7577
47.905072 101.828 -101.4180
48.252212 101.870 -102.0816
48.601867 101.900 -102.7487
48.954056 101.918 -103.4194
49.308798 101.927 -104.0939
49.666109 101.928 -104.7722
50.026010 101.923 -105.4543
50.388520 101.914 -106.1403
50.753656 101.902 -106.8301
51.121437 101.890 -107.5239
51.491884 101.878 -108.2215
51.865016 101.867 -108.9228
52.240851 101.859 -109.6279
52.619410 101.854 -110.3363
53.000712 101.853 -111.0479
53.384777 101.854 -111.7624
53.771625 101.858 -112.4793
54.161276 101.863 -113.1985
54.553751 101.870 -113.9194
54.949070 101.876 -114.6416
55.347254 101.881 -115.3648
55.748323 101.884 -116.0883
56.152298 101.884 -116.8117
56.559201 101.881 -117.5346
56.969052 101.874 -118.2564
57.381873 101.863 -118.9771
57.797686 101.848 -119.6965
58.216512 101.828 -120.4146
58.638373 101.806 -121.1316
59.063291 101.780 -121.8478
59.491288 101.753 -122.5638
59.922386 101.723 -123.2802
60.356608 101.693 -123.9975
60.793977 101.663 -124.7162
61.234515 101.632 -125.4362
61.678246 101.600 -126.1569
62.125192 101.569 -126.8778
62.575377 101.537 -127.5981
63.028824 101.505 -128.3172
63.485557 101.474 -129.0349
63.945599 101.443 -129.7508
64.408975 101.413 -130.4647
64.875709 101.385 -131.1763
65.345825 101.359 -131.8851
65.819348 101.335 -132.5908
66.296302 101.313 -133.2927
66.776713 101.293 -133.9905
67.260604 101.275 -134.6839
67.748002 101.258 -135.3727
68.238932 101.244 -136.0569
68.733420 101.230 -136.7366
69.231490 101.218 -137.4116
69.733170 101.207 -138.0820
70.238485 101.196 -138.7473
70.747463 101.186 -139.4074
71.260128 101.177 -140.0619
71.776508 101.168 -140.7107
72.296630 101.160 -141.3537
72.820521 101.153 -141.9909
73.348209 101.146 -142.6226
73.879720 101.139 -143.2489
74.415083 101.133 -143.8702
74.954326 101.127 -144.4866
75.497475 101.122 -145.0986
76.044561 101.116 -145.7064
76.595612 101.109 -146.3102
77.150655 101.100 -146.9100
77.709720 101.090 -147.5060
78.272837 101.077 -148.0979
78.840034 101.061 -148.6855
79.411342 101.042 -149.2686
79.986789 101.019 -149.8472
80.566406 100.991 -150.4211
81.150224 100.960 -150.9906
81.738272 100.925 -151.5556
82.330581 100.887 -152.1162
82.927182 100.846 -152.6722
83.528107 100.804 -153.2235
84.133386 100.763 -153.7697
84.743051 100.725 -154.3108
85.357134 100.693 -154.8465
85.975667 100.669 -155.3770
86.598682 100.657 -155.9022
87.226212 100.661 -156.4222
87.858289 100.683 -156.9369
88.494946 100.726 -157.4461
89.136217 100.793 -157.9499
89.782135 100.884 -158.4480
90.432733 100.997 -158.9404
91.088046 101.133 -159.4269
91.748108 101.285 -159.9074
92.412952 101.452 -160.3819
93.082615 101.626 -160.8500
93.757130 101.803 -161.3118
94.436533 101.977 -161.7673
95.120859 102.144 -162.2167
95.810144 102.299 -162.6602
96.504423 102.439 -163.0981
97.203734 102.563 -163.5308
97.908112 102.669 -163.9585
98.617595 102.758 -164.3814
99.332219 102.830 -164.7996
100.052021 102.887 -165.2129
100.777039 102.931 -165.6211
101.507311 102.965 -166.0239
102.242875 102.990 -166.4209
102.983769 103.008 -166.8119
103.730032 103.021 -167.1969
104.481702 103.030 -167.5758
105.238820 103.033 -167.9487
106.001424 103.031 -168.3160
106.769554 103.023 -168.6779
107.543250 103.006 -169.0349
108.322553 102.980 -169.3872
109.107503 102.943 -169.7354
109.898141 102.893 -170.0797
110.694508 102.830 -170.4205
111.496646 102.753 -170.7580
112.304596 102.663 -171.0921
113.118402 102.562 -171.4226
113.938104 102.450 -171.7495
114.763747 102.329 -172.0728
115.595372 102.202 -172.3926
116.433024 102.071 -172.7093
117.276746 101.938 -173.0233
118.126581 101.806 -173.3353
118.982575 101.674 -173.6457
119.844772 101.546 -173.9551
120.713217 101.420 -174.2640
121.587954 101.297 -174.5725
122.469031 101.176 -174.8808
123.356492 101.057 -175.1889
124.250384 100.937 -175.4969
125.150753 100.815 -175.8048
126.057647 100.690 -176.1130
126.971113 100.561 -176.4220
127.891198 100.426 -176.7322
128.817950 100.284 -177.0442
129.751418 100.135 -177.3584
130.691651 99.980 -177.6747
131.638696 99.818 -177.9928
132.592604 99.652 -178.3119
133.553425 99.483 -178.6313
134.521208 99.313 -178.9498
135.496004 99.144 -179.2661
136.477864 98.981 -179.5787
137.466839 98.826 -179.8857
138.462981 98.681 179.8155
139.466340 98.550 179.5276
140.476971 98.433 179.2541
141.494925 98.332 178.9985
142.520256 98.247 178.7648
143.553016 98.177 178.5563
144.593260 98.120 178.3760
145.641043 98.072 178.2257
146.696418 98.032 178.1061
147.759441 97.995 178.0167
148.830166 97.959 177.9557
149.908651 97.921 177.9207
150.994951 97.880 177.9088
152.089123 97.833 177.9170
153.191223 97.782 177.9427
154.301310 97.726 177.9835
155.419441 97.667 178.0381
156.545674 97.606 178.1055
157.680069 97.544 178.1854
158.822683 97.485 178.2778
159.973578 97.428 178.3826
161.132813 97.376 178.4996
162.300447 97.330 178.6280
163.476543 97.290 178.7669
164.661162 97.257 178.9148
165.854364 97.231 179.0698
167.056213 97.214 179.2296
168.266772 97.205 179.3914
169.486102 97.204 179.5521
170.714268 97.213 179.7080
171.951334 97.230 179.8556
173.197364 97.256 179.9910
174.452424 97.291 -179.8889
175.716578 97.332 -179.7872
176.989893 97.380 -179.7061
178.272434 97.433 -179.6471
179.564270 97.488 -179.6111
180.865467 97.545 -179.5983
182.176092 97.601 -179.6081
183.496216 97.655 -179.6395
184.825905 97.705 -179.6909
186.165229 97.752 -179.7608
187.514259 97.795 -179.8470
188.873065 97.833 -179.9476
190.241717 97.867 179.9393
191.620287 97.898 179.8157
193.008847 97.925 179.6834
194.407468 97.951 179.5440
195.816225 97.974 179.3989
197.235190 97.995 179.2493
198.664438 98.014 179.0963
200.104042 98.032 178.9408
201.554078 98.047 178.7837
203.014622 98.059 178.6258
204.485750 98.068 178.4678
205.967538 98.073 178.3107
207.460064 98.075 178.1552
208.963405 98.072 178.0021
210.477640 98.065 177.8520
212.002848 98.055 177.7053
213.539108 98.041 177.5626
215.086500 98.024 177.4241
216.645105 98.004 177.2902
218.215005 97.983 177.1609
219.796281 97.958 177.0361
221.389015 97.932 176.9157
222.993292 97.902 176.7996
224.609193 97.869 176.6873
226.236804 97.833 176.5787
227.876209 97.791 176.4736
229.527494 97.745 176.3716
231.190745 97.693 176.2726
232.866048 97.635 176.1763
234.553491 97.573 176.0824
236.253163 97.506 175.9907
237.965150 97.436 175.9010
239.689544 97.362 175.8131
241.426433 97.287 175.7268
243.175909 97.211 175.6422
244.938062 97.134 175.5594
246.712984 97.059 175.4789
248.500768 96.986 175.4008
250.301507 96.916 175.3255
252.115295 96.848 175.2531
253.942226 96.785 175.1833
255.782396 96.726 175.1162
257.635901 96.673 175.0512
259.502837 96.625 174.9881
261.383301 96.583 174.9265
263.277392 96.548 174.8661
265.185209 96.520 174.8068
267.106850 96.498 174.7485
269.042417 96.483 174.6909
270.992009 96.474 174.6341
272.955729 96.470 174.5780
274.933678 96.471 174.5228
276.925961 96.477 174.4687
278.932681 96.485 174.4157
280.953942 96.497 174.3642
282.989850 96.510 174.3141
285.040511 96.527 174.2656
287.106032 96.546 174.2184
289.186521 96.569 174.1726
291.282086 96.596 174.1280
293.392836 96.628 174.0843
295.518881 96.666 174.0416
297.660333 96.709 173.9998
299.817302 96.758 173.9590
301.989902 96.812 173.9194
304.178245 96.870 173.8809
306.382446 96.930 173.8437
308.602620 96.990 173.8075
310.838882 97.048 173.7723
313.091348 97.104 173.7380
315.360137 97.154 173.7045
317.645367 97.199 173.6719
319.947156 97.236 173.6402
322.265625 97.265 173.6094
324.600895 97.285 173.5794
326.953086 97.295 173.5505
329.322323 97.296 173.5226
331.708729 97.286 173.4962
334.112427 97.266 173.4711
336.533543 97.236 173.4478
338.972204 97.196 173.4260
341.428536 97.147 173.4056
343.902668 97.089 173.3867
346.394729 97.024 173.3688
348.904848 96.955 173.3519
351.433156 96.881 173.3360
353.979786 96.806 173.3207
356.544869 96.733 173.3062
359.128540 96.664 173.2920
361.730934 96.601 173.2781
364.352185 96.549 173.2643
366.992431 96.509 173.2503
369.651810 96.484 173.2360
372.330459 96.476 173.2213
375.028519 96.485 173.2062
377.746130 96.513 173.1909
380.483434 96.558 173.1755
383.240574 96.619 173.1599
386.017693 96.693 173.1443
388.814937 96.779 173.1286
391.632450 96.873 173.1129
394.470380 96.972 173.0971
397.328875 97.074 173.0811
400.208084 97.176 173.0649
403.108157 97.278 173.0485
406.029245 97.377 173.0317
408.971500 97.473 173.0144
411.935076 97.566 172.9968
414.920127 97.655 172.9787
417.926810 97.743 172.9603
420.955280 97.828 172.9418
424.005695 97.913 172.9233
427.078215 97.997 172.9053
430.173000 98.081 172.8880
433.290211 98.166 172.8716
436.430010 98.251 172.8563
439.592562 98.336 172.8420
442.778031 98.419 172.8282
445.986583 98.500 172.8148
449.218386 98.576 172.8014
452.473607 98.647 172.7878
455.752418 98.710 172.7742
459.054987 98.765 172.7607
462.381489 98.810 172.7478
465.732096 98.844 172.7358
469.106983 98.868 172.7250
472.506325 98.881 172.7157
475.930301 98.885 172.7080
479.379088 98.879 172.7018
482.852867 98.866 172.6971
486.351817 98.847 172.6938
489.876123 98.822 172.6916
493.425968 98.792 172.6904
497.001536 98.758 172.6902
500.603014 98.721 172.6907
504.230589 98.681 172.6921
507.884452 98.638 172.6941
511.564792 98.592 172.6966
515.271802 98.544 172.6997
519.005673 98.494 172.7035
522.766602 98.442 172.7081
526.554785 98.391 172.7139
530.370418 98.341 172.7210
534.213700 98.295 172.7296
538.084833 98.254 172.7397
541.984018 98.221 172.7512
545.911457 98.196 172.7639
549.867357 98.181 172.7777
553.851922 98.175 172.7921
557.865362 98.179 172.8066
561.907884 98.190 172.8209
565.979700 98.207 172.8345
570.081022 98.228 172.8470
574.212064 98.251 172.8585
578.373042 98.274 172.8688
582.564171 98.295 172.8779
586.785671 98.312 172.8859
591.037762 98.325 172.8926
595.320665 98.331 172.8981
599.634604 98.332 172.9021
603.979804 98.325 172.9046
608.356491 98.312 172.9055
612.764893 98.294 172.9051
617.205240 98.270 172.9031
621.677763 98.242 172.8998
626.182696 98.211 172.8947
630.720274 98.180 172.8877
635.290733 98.149 172.8782
639.894312 98.121 172.8657
644.531250 98.098 172.8496
649.201789 98.081 172.8293
653.906173 98.071 172.8045
658.644647 98.069 172.7750
663.417457 98.073 172.7408
668.224854 98.085 172.7021
673.067086 98.103 172.6594
677.944408 98.124 172.6133
682.857073 98.148 172.5646
687.805336 98.174 172.5140
692.789457 98.198 172.4617
697.809695 98.222 172.4077
702.866312 98.242 172.3513
707.959571 98.259 172.2917
713.089738 98.273 172.2278
718.257080 98.282 172.1584
723.461867 98.287 172.0824
728.704370 98.288 171.9990
733.984862 98.285 171.9074
739.303619 98.280 171.8071
744.660918 98.272 171.6976
750.057038 98.263 171.5790
755.492260 98.251 171.4517
760.966869 98.238 171.3163
766.481148 98.224 171.1741
772.035387 98.207 171.0262
777.629873 98.187 170.8739
783.264900 98.165 170.7186
788.940760 98.138 170.5612
794.657750 98.106 170.4025
800.416168 98.068 170.2429
806.216313 98.024 170.0821
812.058489 97.974 169.9199
817.943000 97.917 169.7553
823.870152 97.854 169.5873
829.840255 97.785 169.4149
835.853619 97.710 169.2367
841.910559 97.630 169.0523
848.011390 97.547 168.8614
854.156430 97.461 168.6642
860.346000 97.372 168.4613
866.580422 97.283 168.2534
872.860020 97.195 168.0413
879.185124 97.107 167.8251
885.556062 97.023 167.6052
891.973166 96.942 167.3814
898.436771 96.867 167.1536
904.947215 96.798 166.9214
911.504835 96.735 166.6844
918.109975 96.681 166.4425
924.762978 96.634 166.1951
931.464192 96.597 165.9425
938.213966 96.568 165.6851
945.012651 96.547 165.4243
951.860602 96.534 165.1617
958.758176 96.528 164.8990
965.705733 96.529 164.6375
972.703635 96.537 164.3777
979.752246 96.549 164.1194
986.851935 96.566 163.8619
994.003071 96.588 163.6046
1001.206027 96.613 163.3469
1008.461179 96.641 163.0889
1015.768904 96.673 162.8307
1023.129584 96.709 162.5731
1030.543603 96.749 162.3166
1038.011347 96.794 162.0613
1045.533205 96.845 161.8074
1053.109569 96.903 161.5543
1060.740836 96.966 161.3018
1068.427401 97.035 161.0491
1076.169666 97.109 160.7960
1083.968035 97.188 160.5427
1091.822915 97.268 160.2899
1099.734713 97.350 160.0389
1107.703844 97.430 159.7912
1115.730723 97.507 159.5478
1123.815768 97.580 159.3096
1131.959400 97.647 159.0769
1140.162045 97.707 158.8496
1148.424129 97.760 158.6276
1156.746083 97.806 158.4108
1165.128342 97.845 158.1993
1173.571343 97.878 157.9935
1182.075524 97.906 157.7936
1190.641331 97.930 157.5999
1199.269209 97.951 157.4123
1207.959608 97.971 157.2310
1216.712981 97.989 157.0563
1225.529785 98.007 156.8884
1234.410479 98.024 156.7278
1243.355526 98.041 156.5752
1252.365393 98.056 156.4311
1261.440549 98.068 156.2967
1270.581467 98.078 156.1729
1279.788624 98.085 156.0607
1289.062500 98.088 155.9608
1298.403578 98.087 155.8741
1307.812346 98.082 155.8012
1317.289293 98.074 155.7425
1326.834914 98.062 155.6974
1336.449707 98.049 155.6647
1346.134173 98.032 155.6431
1355.888816 98.014 155.6309
1365.714145 97.994 155.6274
1375.610673 97.972 155.6321
1385.578915 97.948 155.6450
1395.619391 97.922 155.6660
1405.732624 97.894 155.6953
1415.919142 97.864 155.7326
1426.179476 97.832 155.7783
1436.514160 97.800 155.8325
1446.923734 97.767 155.8960
1457.408740 97.735 155.9691
1467.969724 97.704 156.0519
1478.607238 97.676 156.1439
1489.321836 97.650 156.2443
1500.114076 97.628 156.3521
1510.984521 97.611 156.4665
1521.933737 97.597 156.5868
1532.962297 97.588 156.7126
1544.070773 97.582 156.8436
1555.259747 97.580 156.9802
1566.529800 97.580 157.1223
1577.881521 97.583 157.2701
1589.315501 97.587 157.4232
1600.832336 97.593 157.5808
1612.432627 97.599 157.7422
1624.116978 97.605 157.9069
1635.886000 97.612 158.0744
1647.740304 97.617 158.2446
1659.680509 97.623 158.4182
1671.707238 97.627 158.5961
1683.821118 97.631 158.7805
1696.022780 97.635 158.9737
1708.312860 97.639 159.1779
1720.692000 97.644 159.3943
1733.160843 97.650 159.6233
1745.720041 97.657 159.8647
1758.370248 97.666 160.1186
1771.112124 97.676 160.3853
1783.946332 97.687 160.6653
1796.873543 97.698 160.9586
1809.894429 97.710 161.2646
1823.009670 97.722 161.5827
1836.219950 97.734 161.9122
1849.525956 97.746 162.2534
1862.928384 97.757 162.6074
1876.427931 97.769 162.9754
1890.025301 97.782 163.3587
1903.721204 97.796 163.7573
1917.516352 97.812 164.1703
1931.411466 97.830 164.5959
1945.407270 97.852 165.0318
1959.504493 97.875 165.4746
1973.703870 97.901 165.9200
1988.006142 97.928 166.3622
2002.412054 97.956 166.7949
2016.922357 97.983 167.2124
2031.537808 98.008 167.6103
2046.259169 98.028 167.9858
2061.087206 98.045 168.3373
2076.022694 98.056 168.6642
2091.066410 98.061 168.9666
2106.219139 98.061 169.2452
2121.481671 98.056 169.5009
2136.854802 98.047 169.7348
2152.339333 98.035 169.9468
2167.936071 98.022 170.1356
2183.645829 98.009 170.2991
2199.469427 97.998 170.4346
2215.407689 97.988 170.5402
2231.461446 97.981 170.6147
2247.631536 97.977 170.6573
2263.918800 97.976 170.6674
2280.324089 97.978 170.6447
2296.848258 97.983 170.5890
2313.492167 97.989 170.5012
2330.256685 97.997 170.3831
2347.142685 98.005 170.2366
2364.151049 98.013 170.0640
2381.282662 98.020 169.8674
2398.538418 98.026 169.6489
2415.919216 98.030 169.4102
2433.425962 98.034 169.1522
2451.059570 98.036 168.8746
2468.820958 98.037 168.5770
2486.711052 98.037 168.2588
2504.730786 98.035 167.9198
2522.881098 98.031 167.5606
2541.162934 98.026 167.1828
2559.577248 98.019 166.7896
2578.125000 98.010 166.3858
2596.807157 98.000 165.9778
2615.624692 97.988 165.5732
2634.578586 97.977 165.1797
2653.669829 97.966 164.8046
2672.899414 97.958 164.4543
2692.268345 97.953 164.1344
2711.777632 97.951 163.8489
2731.428290 97.955 163.6006
2751.221345 97.963 163.3916
2771.157829 97.976 163.2236
2791.238781 97.993 163.0980
2811.465248 98.012 163.0167
2831.838284 98.032 162.9821
2852.358952 98.052 162.9967
2873.028321 98.070 163.0634
2893.847468 98.086 163.1846
2914.817480 98.099 163.3625
2935.939449 98.107 163.5979
2957.214476 98.112 163.8905
2978.643672 98.112 164.2384
3000.228152 98.109 164.6379
3021.969041 98.103 165.0834
3043.867475 98.096 165.5672
3065.924593 98.087 166.0801
3088.141547 98.079 166.6115
3110.519493 98.072 167.1493
3133.059600 98.067 167.6813
3155.763041 98.065 168.1950
3178.631001 98.065 168.6785
3201.664672 98.068 169.1213
3224.865254 98.072 169.5156
3248.233957 98.077 169.8578
3271.771999 98.080 170.1486
3295.480608 98.081 170.3941
3319.361019 98.078 170.6052
3343.414477 98.071 170.7965
3367.642236 98.058 170.9845
3392.045560 98.042 171.1859
3416.625721 98.025 171.4150
3441.383999 98.008 171.6815
3466.321686 97.995 171.9890
3491.440082 97.990 172.3340
3516.740496 97.997 172.7053
3542.224247 98.017 173.0853
3567.892664 98.053 173.4516
3593.747085 98.106 173.7795
3619.788858 98.174 174.0445
3646.019340 98.257 174.2250
3672.439900 98.351 174.3037
3699.051913 98.453 174.2695
3725.856768 98.558 174.1173
3752.855862 98.663 173.8485
3780.050603 98.763 173.4702
3807.442408 98.856 172.9944
3835.032705 98.937 172.4366
3862.822933 99.004 171.8152
3890.814540 99.056 171.1501
3919.008986 99.092 170.4620
3947.407741 99.110 169.7714
3976.012284 99.111 169.0984
4004.824108 99.094 168.4617
4033.844715 99.062 167.8785
4063.075616 99.014 167.3640
4092.518337 98.952 166.9312
4122.174412 98.878 166.5909
4152.045387 98.793 166.3520
4182.132820 98.699 166.2212
4212.438278 98.598 166.2038
4242.963342 98.492 166.3037
4273.709604 98.383 166.5236
4304.678665 98.272 166.8653
4335.872141 98.160 167.3293
4367.291658 98.050 167.9149
4398.938854 97.943 168.6197
4430.815378 97.841 169.4393
4462.922893 97.744 170.3677
4495.263072 97.654 171.3967
4527.837601 97.572 172.5166
4560.648179 97.499 173.7162
4593.696515 97.435 174.9832
4626.984334 97.382 176.3047
4660.513370 97.340 177.6669
4694.285371 97.310 179.0560
4728.302098 97.293 -179.5423
4762.565324 97.290 -178.1422
4797.076835 97.303 -176.7583
4831.838432 97.332 -175.4048
4866.851925 97.377 -174.0961
4902.119140 97.440 -172.8457
4937.641916 97.520 -171.6671
4973.422105 97.618 -170.5725
5009.461572 97.731 -169.5730
5045.762195 97.860 -168.6783
5082.325868 98.003 -167.8964
5119.154496 98.157 -167.2334
5156.250000 98.321 -166.6937
5193.614313 98.492 -166.2796
5231.249383 98.667 -165.9917
5269.157173 98.844 -165.8287
5307.339658 99.020 -165.7878
5345.798829 99.194 -165.8645
5384.536691 99.362 -166.0531
5423.555263 99.522 -166.3461
5462.856580 99.673 -166.7351
5502.442691 99.814 -167.2100
5542.315659 99.942 -167.7595
5582.477563 100.058 -168.3712
5622.930497 100.161 -169.0317
5663.676569 100.251 -169.7266
5704.717904 100.329 -170.4406
5746.056642 100.395 -171.1583
5787.694937 100.451 -171.8637
5829.634960 100.498 -172.5415
5871.878898 100.539 -173.1772
5914.428953 100.576 -173.7575
5957.287343 100.611 -174.2710
6000.456303 100.647 -174.7093
6043.938083 100.685 -175.0672
6087.734950 100.728 -175.3433
6131.849187 100.778 -175.5408
6176.283094 100.836 -175.6670
6221.038987 100.903 -175.7338
6266.119200 100.980 -175.7567
6311.526083 101.066 -175.7551
6357.262002 101.160 -175.7504
6403.329344 101.263 -175.7659
6449.730508 101.373 -175.8245
6496.467914 101.488 -175.9484
6543.543998 101.608 -176.1577
6590.961215 101.731 -176.4698
6638.722037 101.855 -176.8989
6686.828954 101.980 -177.4560
6735.284473 102.104 -178.1487
6784.091120 102.225 -178.9813
6833.251441 102.343 -179.9546
6882.767998 102.455 178.9333
6932.643372 102.562 177.6877
6982.880164 102.661 176.3158
7033.480992 102.753 174.8271
7084.448495 102.836 173.2314
7135.785329 102.911 171.5388
7187.494171 102.977 169.7579
7239.577717 103.035 167.8957
7292.038681 103.086 165.9568
7344.879799 103.128 163.9429
7398.103826 103.161 161.8528
7451.713536 103.186 159.6830
7505.711724 103.201 157.4272
7560.101205 103.205 155.0781
7614.884815 103.196 152.6266
7670.065409 103.172 150.0635
7725.645865 103.130 147.3797
7781.629080 103.067 144.5664
7838.017972 102.982 141.6160
7894.815481 102.869 138.5220
7952.024569 102.728 135.2803
8009.648217 102.553 131.8892
8067.689429 102.343 128.3498
8126.151233 102.095 124.6651
8185.036674 101.806 120.8391
8244.348824 101.477 116.8745
8304.090774 101.107 112.7707
8364.265639 100.696 108.5215
8424.876556 100.246 104.1123
8485.926684 99.760 99.5186
8547.419207 99.240 94.7039
8609.357330 98.689 89.6177
8671.744282 98.111 84.1925
8734.583316 97.511 78.3377
8797.877707 96.892 71.9327
8861.630756 96.264 64.8158
8925.845785 95.634 56.7731
8990.526143 95.017 47.5350
9055.675202 94.428 36.8017
9121.296357 93.886 24.3383
9187.393031 93.412 10.1806
9253.968668 93.027 -5.1214
9321.026740 92.744 -20.5142
9388.570742 92.569 -34.8959
9456.604196 92.498 -47.6228
9525.130648 92.516 -58.5968
9594.153671 92.600 -68.0388
9663.676863 92.725 -76.2622
9733.703850 92.867 -83.5560
9804.238280 93.001 -90.1481
9875.283832 93.109 -96.2008
9946.844210 93.174 -101.8188
10018.923143 93.185 -107.0581
10091.524390 93.131 -111.9325
10164.651736 93.007 -116.4199
10238.308993 92.811 -120.4674
10312.500000 92.546 -123.9952
10387.228626 92.217 -126.9017
10462.498767 91.837 -129.0708
10538.314345 91.423 -130.3858
10614.679315 90.999 -130.7561
10691.597657 90.596 -130.1591
10769.073381 90.247 -128.6927
10847.110526 89.984 -126.6128
10925.713161 89.826 -124.3131
11004.885382 89.780 -122.2340
11084.631318 89.831 -120.7402
11164.955126 89.950 -120.0435
11245.860993 90.105 -120.1988
11327.353138 90.263 -121.1498
11409.435808 90.397 -122.7809
11492.113283 90.490 -124.9574
11575.389873 90.528 -127.5475
11659.269920 90.505 -130.4344
11743.757796 90.420 -133.5197
11828.857906 90.273 -136.7243
11914.574686 90.070 -139.9890
12000.912606 89.815 -143.2717
12087.876166 89.514 -146.5457
12175.469900 89.172 -149.7955
12263.698373 88.794 -153.0138
12352.566187 88.383 -156.1960
12442.077974 87.941 -159.3369
12532.238400 87.471 -162.4280
12623.052165 86.973 -165.4575
12714.524005 86.451 -168.4152
12806.658687 85.911 -171.2994
12899.461015 85.364 -174.1292
12992.935827 84.826 -176.9555
13087.087996 84.320 -179.8718
13181.922430 83.871 176.9854
13277.444074 83.508 173.4421
13373.657907 83.252 169.3018
13470.568945 83.119 164.3592
13568.182241 83.114 158.4109
13666.502883 83.227 151.2614
13765.535996 83.442 142.7315
13865.286744 83.735 132.6818
13965.760328 84.082 121.0614
14066.961984 84.459 107.9783
14168.896989 84.846 93.7565
14271.570658 85.227 78.9156
14374.988342 85.589 64.0389
14479.155433 85.925 49.6027
14584.077362 86.230 35.8782
14689.759598 86.501 22.9424
14796.207652 86.737 10.7458
14903.427072 86.935 -0.8203
15011.423448 87.094 -11.8804
15120.202410 87.209 -22.5504
15229.769630 87.274 -32.9268
15340.130819 87.284 -43.0820
15451.291730 87.230 -53.0626
15563.258160 87.106 -62.8908
15676.035944 86.905 -72.5677
15789.630962 86.623 -82.0757
15904.049137 86.256 -91.3815
16019.296433 85.803 -100.4383
16135.378859 85.264 -109.1877
16252.302465 84.639 -117.5632
16370.073348 83.933 -125.4897
16488.697648 83.148 -132.8782
16608.181548 82.292 -139.6072
16728.531278 81.369 -145.4885
16849.753112 80.387 -150.1868
16971.853368 79.354 -153.0281
17094.838414 78.278 -152.4736
17218.714660 77.168 -144.5739
17343.488565 76.037 -120.6993
17469.166632 74.900 -85.7283
17595.755415 73.776 -66.6190
17723.261512 72.692 -60.6080
17851.691571 71.679 -60.1661
17981.052287 70.777 -62.2060
18111.350404 70.023 -65.4426
18242.592715 69.450 -69.2016
18374.786062 69.073 -72.9875
18507.937336 68.887 -76.2831
18642.053479 68.868 -78.4070
18777.141484 68.980 -78.3926
18913.208391 69.185 -74.9965
19050.261296 69.447 -67.3358
19188.307342 69.733 -56.6489
19327.353727 70.015 -46.7102
19467.407699 70.273 -40.2547
19608.476560 70.492 -37.1669
19750.567664 70.661 -36.1716
19893.688419 70.775 -36.1181
20037.846286 70.833 -36.2666
