* Measurement data measured by REW V5.31.3
* Source: EXCL: Headset (USB-C to 3.5mm Headphone Jack Adapter), MICROPHONE (Master Volume), 0, volume: 0.260
* Format: 256k Log Swept Sine, 1 sweep at -12.0 dBFS with no timing reference
* Dated: Feb 14, 2025 1:47:09 PM
* REW Settings:
*  C-weighting compensation: Off
*  Target level: 75.0 dB
* Note: ; 
* Measurement: Satyr 3 L8
* Smoothing: 1/6 octave
* Frequency Step: 96 ppo
* Start Frequency: 20.0 Hz
*
* Freq(Hz) SPL(dB) Phase(degrees)
20.141602 92.846 -25.6999
20.287556 92.868 -25.9214
20.434568 92.895 -26.2157
20.582645 92.924 -26.5717
20.731796 92.952 -26.9782
20.882027 92.975 -27.4239
21.033346 92.992 -27.8990
21.185763 93.000 -28.3953
21.339284 92.999 -28.9066
21.493917 92.989 -29.4284
21.649671 92.972 -29.9579
21.806553 92.947 -30.4941
21.964572 92.917 -31.0367
22.123737 92.885 -31.5865
22.284054 92.851 -32.1447
22.445534 92.819 -32.7128
22.608183 92.790 -33.2920
22.772012 92.765 -33.8831
22.937027 92.747 -34.4865
23.103238 92.737 -35.1018
23.270654 92.736 -35.7281
23.439282 92.745 -36.3636
23.609133 92.764 -37.0062
23.780215 92.795 -37.6533
23.952536 92.837 -38.3020
24.126106 92.889 -38.9494
24.300934 92.953 -39.5931
24.477028 93.027 -40.2308
24.654399 93.111 -40.8608
24.833055 93.202 -41.4824
25.013005 93.300 -42.0955
25.194260 93.403 -42.7009
25.376828 93.509 -43.3002
25.560719 93.617 -43.8955
25.745942 93.724 -44.4895
25.932508 93.831 -45.0851
26.120426 93.935 -45.6851
26.309705 94.035 -46.2921
26.500356 94.132 -46.9082
26.692388 94.223 -47.5345
26.885812 94.310 -48.1716
27.080638 94.391 -48.8192
27.276876 94.469 -49.4760
27.474535 94.543 -50.1402
27.673627 94.615 -50.8096
27.874161 94.687 -51.4817
28.076149 94.760 -52.1542
28.279600 94.838 -52.8251
28.484526 94.924 -53.4929
28.690937 95.020 -54.1569
28.898843 95.129 -54.8172
29.108256 95.253 -55.4747
29.319186 95.392 -56.1310
29.531645 95.548 -56.7880
29.745644 95.718 -57.4482
29.961193 95.901 -58.1137
30.178304 96.093 -58.7865
30.396989 96.290 -59.4679
30.617258 96.487 -60.1586
30.839123 96.678 -60.8582
31.062596 96.860 -61.5656
31.287688 97.027 -62.2789
31.514412 97.175 -62.9957
31.742778 97.300 -63.7136
31.972800 97.400 -64.4302
32.204488 97.473 -65.1435
32.437855 97.518 -65.8523
32.672913 97.534 -66.5558
32.909674 97.523 -67.2543
33.148151 97.485 -67.9485
33.388356 97.424 -68.6397
33.630302 97.342 -69.3292
33.874001 97.242 -70.0187
34.119466 97.129 -70.7097
34.366710 97.006 -71.4034
34.615745 96.878 -72.1010
34.866585 96.749 -72.8031
35.119243 96.623 -73.5102
35.373731 96.504 -74.2221
35.630064 96.396 -74.9387
35.888254 96.301 -75.6590
36.148315 96.223 -76.3822
36.410261 96.163 -77.1069
36.674104 96.124 -77.8319
36.939860 96.105 -78.5557
37.207542 96.109 -79.2770
37.477163 96.136 -79.9948
37.748738 96.185 -80.7082
38.022281 96.255 -81.4167
38.297806 96.347 -82.1201
38.575327 96.459 -82.8184
38.854860 96.590 -83.5119
39.136419 96.739 -84.2011
39.420017 96.906 -84.8864
39.705671 97.088 -85.5683
39.993395 97.284 -86.2473
40.283203 97.494 -86.9235
40.575112 97.716 -87.5968
40.869136 97.949 -88.2671
41.165290 98.192 -88.9339
41.463591 98.442 -89.5970
41.764053 98.699 -90.2560
42.066693 98.961 -90.9106
42.371525 99.225 -91.5605
42.678567 99.488 -92.2059
42.987834 99.749 -92.8468
43.299341 100.006 -93.4835
43.613106 100.256 -94.1167
43.929145 100.496 -94.7473
44.247473 100.726 -95.3764
44.568109 100.944 -96.0056
44.891068 101.147 -96.6361
45.216367 101.336 -97.2691
45.544023 101.509 -97.9054
45.874054 101.665 -98.5456
46.206476 101.804 -99.1899
46.541307 101.926 -99.8382
46.878565 102.032 -100.4906
47.218266 102.121 -101.1469
47.560429 102.194 -101.8073
47.905072 102.252 -102.4719
48.252212 102.296 -103.1407
48.601867 102.327 -103.8135
48.954056 102.346 -104.4901
49.308798 102.356 -105.1699
49.666109 102.357 -105.8528
50.026010 102.352 -106.5384
50.388520 102.342 -107.2269
50.753656 102.329 -107.9186
51.121437 102.315 -108.6141
51.491884 102.302 -109.3137
51.865016 102.289 -110.0176
52.240851 102.279 -110.7257
52.619410 102.272 -111.4373
53.000712 102.267 -112.1515
53.384777 102.266 -112.8672
53.771625 102.267 -113.5835
54.161276 102.270 -114.2996
54.553751 102.274 -115.0152
54.949070 102.278 -115.7306
55.347254 102.282 -116.4462
55.748323 102.284 -117.1629
56.152298 102.283 -117.8815
56.559201 102.280 -118.6024
56.969052 102.273 -119.3260
57.381873 102.262 -120.0519
57.797686 102.248 -120.7795
58.216512 102.230 -121.5076
58.638373 102.209 -122.2346
59.063291 102.185 -122.9588
59.491288 102.160 -123.6786
59.922386 102.133 -124.3929
60.356608 102.105 -125.1012
60.793977 102.076 -125.8040
61.234515 102.046 -126.5022
61.678246 102.016 -127.1973
62.125192 101.985 -127.8908
62.575377 101.954 -128.5842
63.028824 101.923 -129.2784
63.485557 101.891 -129.9739
63.945599 101.859 -130.6704
64.408975 101.827 -131.3673
64.875709 101.797 -132.0633
65.345825 101.767 -132.7571
65.819348 101.739 -133.4477
66.296302 101.713 -134.1344
66.776713 101.689 -134.8168
67.260604 101.668 -135.4950
67.748002 101.648 -136.1689
68.238932 101.631 -136.8386
68.733420 101.616 -137.5039
69.231490 101.603 -138.1647
69.733170 101.591 -138.8208
70.238485 101.581 -139.4723
70.747463 101.572 -140.1194
71.260128 101.564 -140.7623
71.776508 101.557 -141.4014
72.296630 101.551 -142.0369
72.820521 101.545 -142.6691
73.348209 101.539 -143.2979
73.879720 101.534 -143.9234
74.415083 101.529 -144.5450
74.954326 101.523 -145.1626
75.497475 101.518 -145.7758
76.044561 101.511 -146.3841
76.595612 101.503 -146.9875
77.150655 101.494 -147.5858
77.709720 101.482 -148.1790
78.272837 101.468 -148.7672
78.840034 101.451 -149.3504
79.411342 101.431 -149.9287
79.986789 101.407 -150.5021
80.566406 101.378 -151.0708
81.150224 101.346 -151.6350
81.738272 101.310 -152.1950
82.330581 101.270 -152.7510
82.927182 101.228 -153.3034
83.528107 101.184 -153.8521
84.133386 101.141 -154.3970
84.743051 101.101 -154.9379
85.357134 101.066 -155.4744
85.975667 101.040 -156.0064
86.598682 101.026 -156.5337
87.226212 101.028 -157.0562
87.858289 101.048 -157.5738
88.494946 101.090 -158.0862
89.136217 101.155 -158.5931
89.782135 101.245 -159.0939
90.432733 101.357 -159.5880
91.088046 101.492 -160.0750
91.748108 101.644 -160.5546
92.412952 101.809 -161.0269
93.082615 101.982 -161.4922
93.757130 102.157 -161.9513
94.436533 102.330 -162.4046
95.120859 102.495 -162.8526
95.810144 102.649 -163.2955
96.504423 102.788 -163.7332
97.203734 102.910 -164.1655
97.908112 103.015 -164.5921
98.617595 103.103 -165.0126
99.332219 103.174 -165.4265
100.052021 103.231 -165.8334
100.777039 103.274 -166.2331
101.507311 103.307 -166.6256
102.242875 103.331 -167.0114
102.983769 103.348 -167.3911
103.730032 103.360 -167.7653
104.481702 103.366 -168.1346
105.238820 103.368 -168.4993
106.001424 103.364 -168.8597
106.769554 103.354 -169.2157
107.543250 103.336 -169.5673
108.322553 103.308 -169.9143
109.107503 103.269 -170.2569
109.898141 103.218 -170.5950
110.694508 103.154 -170.9292
111.496646 103.076 -171.2597
112.304596 102.985 -171.5872
113.118402 102.882 -171.9118
113.938104 102.769 -172.2337
114.763747 102.647 -172.5528
115.595372 102.518 -172.8689
116.433024 102.386 -173.1818
117.276746 102.252 -173.4915
118.126581 102.117 -173.7981
118.982575 101.985 -174.1020
119.844772 101.854 -174.4035
120.713217 101.727 -174.7030
121.587954 101.603 -175.0014
122.469031 101.481 -175.2992
123.356492 101.361 -175.5974
124.250384 101.240 -175.8963
125.150753 101.118 -176.1965
126.057647 100.993 -176.4979
126.971113 100.863 -176.8006
127.891198 100.728 -177.1043
128.817950 100.585 -177.4086
129.751418 100.436 -177.7133
130.691651 100.279 -178.0180
131.638696 100.116 -178.3226
132.592604 99.948 -178.6265
133.553425 99.776 -178.9291
134.521208 99.603 -179.2289
135.496004 99.432 -179.5242
136.477864 99.265 -179.8127
137.466839 99.106 179.9084
138.462981 98.958 179.6423
139.466340 98.824 179.3923
140.476971 98.705 179.1617
141.494925 98.603 178.9534
142.520256 98.518 178.7697
143.553016 98.449 178.6121
144.593260 98.395 178.4811
145.641043 98.351 178.3765
146.696418 98.315 178.2970
147.759441 98.284 178.2410
148.830166 98.254 178.2062
149.908651 98.221 178.1905
150.994951 98.185 178.1917
152.089123 98.144 178.2080
153.191223 98.097 178.2383
154.301310 98.046 178.2819
155.419441 97.990 178.3385
156.545674 97.932 178.4080
157.680069 97.874 178.4905
158.822683 97.818 178.5862
159.973578 97.764 178.6946
161.132813 97.716 178.8154
162.300447 97.673 178.9472
163.476543 97.637 179.0884
164.661162 97.608 179.2369
165.854364 97.588 179.3896
167.056213 97.575 179.5436
168.266772 97.571 179.6951
169.486102 97.575 179.8408
170.714268 97.588 179.9771
171.951334 97.609 -179.8995
173.197364 97.638 -179.7919
174.452424 97.675 -179.7027
175.716578 97.718 -179.6338
176.989893 97.766 -179.5866
178.272434 97.818 -179.5616
179.564270 97.873 -179.5589
180.865467 97.928 -179.5778
182.176092 97.982 -179.6173
183.496216 98.034 -179.6758
184.825905 98.082 -179.7518
186.165229 98.126 -179.8432
187.514259 98.166 -179.9482
188.873065 98.201 179.9352
190.241717 98.233 179.8088
191.620287 98.261 179.6744
193.008847 98.286 179.5337
194.407468 98.310 179.3881
195.816225 98.331 179.2390
197.235190 98.351 179.0876
198.664438 98.370 178.9349
200.104042 98.386 178.7822
201.554078 98.400 178.6302
203.014622 98.411 178.4799
204.485750 98.419 178.3317
205.967538 98.424 178.1859
207.460064 98.424 178.0425
208.963405 98.420 177.9017
210.477640 98.411 177.7635
212.002848 98.399 177.6280
213.539108 98.384 177.4953
215.086500 98.366 177.3658
216.645105 98.345 177.2396
218.215005 98.321 177.1169
219.796281 98.296 176.9980
221.389015 98.268 176.8826
222.993292 98.237 176.7706
224.609193 98.204 176.6618
226.236804 98.166 176.5561
227.876209 98.124 176.4531
229.527494 98.077 176.3528
231.190745 98.024 176.2552
232.866048 97.966 176.1602
234.553491 97.903 176.0677
236.253163 97.835 175.9780
237.965150 97.764 175.8909
239.689544 97.689 175.8068
241.426433 97.613 175.7255
243.175909 97.536 175.6470
244.938062 97.459 175.5711
246.712984 97.383 175.4974
248.500768 97.309 175.4254
250.301507 97.237 175.3548
252.115295 97.170 175.2852
253.942226 97.106 175.2163
255.782396 97.047 175.1478
257.635901 96.994 175.0794
259.502837 96.946 175.0112
261.383301 96.904 174.9434
263.277392 96.869 174.8765
265.185209 96.840 174.8112
267.106850 96.818 174.7484
269.042417 96.801 174.6888
270.992009 96.791 174.6333
272.955729 96.786 174.5820
274.933678 96.786 174.5350
276.925961 96.790 174.4918
278.932681 96.797 174.4514
280.953942 96.807 174.4129
282.989850 96.820 174.3756
285.040511 96.835 174.3387
287.106032 96.853 174.3016
289.186521 96.875 174.2640
291.282086 96.901 174.2258
293.392836 96.933 174.1871
295.518881 96.970 174.1480
297.660333 97.013 174.1088
299.817302 97.061 174.0699
301.989902 97.115 174.0316
304.178245 97.172 173.9942
306.382446 97.232 173.9580
308.602620 97.291 173.9232
310.838882 97.350 173.8899
313.091348 97.405 173.8583
315.360137 97.455 173.8284
317.645367 97.498 173.8002
319.947156 97.535 173.7734
322.265625 97.563 173.7480
324.600895 97.583 173.7236
326.953086 97.593 173.7000
329.322323 97.593 173.6769
331.708729 97.582 173.6543
334.112427 97.562 173.6321
336.533543 97.531 173.6104
338.972204 97.490 173.5891
341.428536 97.440 173.5684
343.902668 97.381 173.5483
346.394729 97.316 173.5290
348.904848 97.245 173.5105
351.433156 97.170 173.4928
353.979786 97.094 173.4758
356.544869 97.020 173.4594
359.128540 96.949 173.4431
361.730934 96.885 173.4268
364.352185 96.831 173.4102
366.992431 96.789 173.3930
369.651810 96.762 173.3754
372.330459 96.752 173.3575
375.028519 96.760 173.3397
377.746130 96.785 173.3219
380.483434 96.828 173.3046
383.240574 96.886 173.2877
386.017693 96.958 173.2712
388.814937 97.042 173.2554
391.632450 97.133 173.2401
394.470380 97.230 173.2255
397.328875 97.330 173.2118
400.208084 97.431 173.1992
403.108157 97.530 173.1881
406.029245 97.627 173.1785
408.971500 97.721 173.1704
411.935076 97.812 173.1638
414.920127 97.900 173.1583
417.926810 97.986 173.1540
420.955280 98.070 173.1508
424.005695 98.152 173.1487
427.078215 98.234 173.1478
430.173000 98.316 173.1481
433.290211 98.399 173.1496
436.430010 98.482 173.1521
439.592562 98.564 173.1553
442.778031 98.645 173.1592
445.986583 98.724 173.1635
449.218386 98.799 173.1685
452.473607 98.867 173.1739
455.752418 98.929 173.1800
459.054987 98.982 173.1868
462.381489 99.026 173.1942
465.732096 99.059 173.2024
469.106983 99.083 173.2113
472.506325 99.096 173.2209
475.930301 99.099 173.2313
479.379088 99.093 173.2423
482.852867 99.080 173.2542
486.351817 99.060 173.2668
489.876123 99.035 173.2805
493.425968 99.004 173.2951
497.001536 98.970 173.3110
500.603014 98.932 173.3283
504.230589 98.892 173.3470
507.884452 98.848 173.3674
511.564792 98.802 173.3894
515.271802 98.753 173.4130
519.005673 98.703 173.4379
522.766602 98.652 173.4642
526.554785 98.600 173.4918
530.370418 98.551 173.5205
534.213700 98.506 173.5502
538.084833 98.466 173.5805
541.984018 98.434 173.6113
545.911457 98.411 173.6424
549.867357 98.398 173.6735
553.851922 98.394 173.7046
557.865362 98.400 173.7355
561.907884 98.413 173.7658
565.979700 98.433 173.7953
570.081022 98.457 173.8235
574.212064 98.483 173.8499
578.373042 98.508 173.8744
582.564171 98.532 173.8969
586.785671 98.552 173.9172
591.037762 98.568 173.9354
595.320665 98.577 173.9514
599.634604 98.580 173.9650
603.979804 98.576 173.9761
608.356491 98.566 173.9844
612.764893 98.550 173.9898
617.205240 98.529 173.9921
621.677763 98.504 173.9912
626.182696 98.476 173.9868
630.720274 98.446 173.9788
635.290733 98.418 173.9668
639.894312 98.393 173.9506
644.531250 98.372 173.9299
649.201789 98.357 173.9044
653.906173 98.348 173.8738
658.644647 98.348 173.8382
663.417457 98.354 173.7975
668.224854 98.367 173.7517
673.067086 98.386 173.7012
677.944408 98.409 173.6464
682.857073 98.434 173.5877
687.805336 98.460 173.5255
692.789457 98.485 173.4602
697.809695 98.507 173.3918
702.866312 98.527 173.3201
707.959571 98.543 173.2446
713.089738 98.555 173.1650
718.257080 98.562 173.0807
723.461867 98.564 172.9912
728.704370 98.563 172.8962
733.984862 98.558 172.7953
739.303619 98.550 172.6881
744.660918 98.540 172.5741
750.057038 98.527 172.4529
755.492260 98.514 172.3246
760.966869 98.499 172.1891
766.481148 98.482 172.0470
772.035387 98.463 171.8989
777.629873 98.442 171.7458
783.264900 98.418 171.5884
788.940760 98.390 171.4278
794.657750 98.357 171.2645
800.416168 98.318 171.0992
806.216313 98.273 170.9322
812.058489 98.221 170.7637
817.943000 98.163 170.5934
823.870152 98.098 170.4206
829.840255 98.027 170.2444
835.853619 97.950 170.0634
841.910559 97.869 169.8765
848.011390 97.784 169.6827
854.156430 97.696 169.4815
860.346000 97.606 169.2732
866.580422 97.515 169.0583
872.860020 97.424 168.8379
879.185124 97.334 168.6132
885.556062 97.247 168.3855
891.973166 97.163 168.1557
898.436771 97.083 167.9249
904.947215 97.010 167.6937
911.504835 96.943 167.4625
918.109975 96.883 167.2309
924.762978 96.833 166.9981
931.464192 96.792 166.7629
938.213966 96.759 166.5243
945.012651 96.736 166.2819
951.860602 96.721 166.0360
958.758176 96.713 165.7877
965.705733 96.712 165.5386
972.703635 96.718 165.2903
979.752246 96.728 165.0441
986.851935 96.743 164.8007
994.003071 96.762 164.5598
1001.206027 96.785 164.3208
1008.461179 96.813 164.0825
1015.768904 96.844 163.8434
1023.129584 96.880 163.6024
1030.543603 96.921 163.3586
1038.011347 96.968 163.1112
1045.533205 97.020 162.8600
1053.109569 97.078 162.6051
1060.740836 97.142 162.3470
1068.427401 97.212 162.0863
1076.169666 97.286 161.8237
1083.968035 97.364 161.5598
1091.822915 97.444 161.2955
1099.734713 97.525 161.0316
1107.703844 97.604 160.7693
1115.730723 97.679 160.5099
1123.815768 97.749 160.2547
1131.959400 97.813 160.0053
1140.162045 97.870 159.7632
1148.424129 97.918 159.5303
1156.746083 97.959 159.3079
1165.128342 97.992 159.0976
1173.571343 98.019 158.9001
1182.075524 98.042 158.7157
1190.641331 98.061 158.5437
1199.269209 98.079 158.3824
1207.959608 98.096 158.2302
1216.712981 98.112 158.0849
1225.529785 98.130 157.9450
1234.410479 98.147 157.8099
1243.355526 98.163 157.6794
1252.365393 98.179 157.5542
1261.440549 98.193 157.4354
1270.581467 98.204 157.3239
1279.788624 98.212 157.2203
1289.062500 98.217 157.1251
1298.403578 98.218 157.0386
1307.812346 98.215 156.9617
1317.289293 98.207 156.8956
1326.834914 98.196 156.8412
1336.449707 98.182 156.7996
1346.134173 98.165 156.7704
1355.888816 98.146 156.7532
1365.714145 98.125 156.7466
1375.610673 98.102 156.7493
1385.578915 98.077 156.7601
1395.619391 98.050 156.7780
1405.732624 98.021 156.8027
1415.919142 97.991 156.8339
1426.179476 97.959 156.8715
1436.514160 97.926 156.9157
1446.923734 97.893 156.9670
1457.408740 97.860 157.0262
1467.969724 97.827 157.0945
1478.607238 97.797 157.1727
1489.321836 97.770 157.2612
1500.114076 97.746 157.3601
1510.984521 97.726 157.4686
1521.933737 97.711 157.5854
1532.962297 97.700 157.7091
1544.070773 97.693 157.8382
1555.259747 97.690 157.9710
1566.529800 97.690 158.1062
1577.881521 97.692 158.2427
1589.315501 97.696 158.3799
1600.832336 97.701 158.5176
1612.432627 97.705 158.6564
1624.116978 97.709 158.7977
1635.886000 97.711 158.9437
1647.740304 97.713 159.0972
1659.680509 97.714 159.2602
1671.707238 97.714 159.4343
1683.821118 97.715 159.6198
1696.022780 97.716 159.8165
1708.312860 97.719 160.0237
1720.692000 97.723 160.2406
1733.160843 97.728 160.4663
1745.720041 97.736 160.6998
1758.370248 97.745 160.9399
1771.112124 97.756 161.1859
1783.946332 97.766 161.4373
1796.873543 97.777 161.6953
1809.894429 97.787 161.9624
1823.009670 97.796 162.2416
1836.219950 97.803 162.5363
1849.525956 97.810 162.8489
1862.928384 97.816 163.1809
1876.427931 97.822 163.5331
1890.025301 97.829 163.9057
1903.721204 97.839 164.2979
1917.516352 97.851 164.7073
1931.411466 97.866 165.1301
1945.407270 97.885 165.5605
1959.504493 97.907 165.9922
1973.703870 97.931 166.4189
1988.006142 97.957 166.8354
2002.412054 97.982 167.2375
2016.922357 98.005 167.6219
2031.537808 98.026 167.9860
2046.259169 98.042 168.3282
2061.087206 98.053 168.6479
2076.022694 98.058 168.9453
2091.066410 98.057 169.2214
2106.219139 98.050 169.4771
2121.481671 98.039 169.7127
2136.854802 98.023 169.9274
2152.339333 98.005 170.1196
2167.936071 97.986 170.2873
2183.645829 97.966 170.4286
2199.469427 97.947 170.5424
2215.407689 97.930 170.6273
2231.461446 97.914 170.6827
2247.631536 97.902 170.7081
2263.918800 97.892 170.7040
2280.324089 97.884 170.6713
2296.848258 97.878 170.6113
2313.492167 97.875 170.5252
2330.256685 97.872 170.4140
2347.142685 97.871 170.2789
2364.151049 97.870 170.1212
2381.282662 97.868 169.9417
2398.538418 97.867 169.7411
2415.919216 97.864 169.5196
2433.425962 97.861 169.2773
2451.059570 97.856 169.0145
2468.820958 97.850 168.7313
2486.711052 97.843 168.4278
2504.730786 97.835 168.1042
2522.881098 97.825 167.7613
2541.162934 97.813 167.4008
2559.577248 97.800 167.0259
2578.125000 97.785 166.6415
2596.807157 97.768 166.2534
2615.624692 97.751 165.8685
2634.578586 97.733 165.4948
2653.669829 97.716 165.1403
2672.899414 97.701 164.8121
2692.268345 97.690 164.5166
2711.777632 97.682 164.2587
2731.428290 97.680 164.0419
2751.221345 97.682 163.8687
2771.157829 97.690 163.7404
2791.238781 97.702 163.6583
2811.465248 97.717 163.6232
2831.838284 97.734 163.6363
2852.358952 97.753 163.6990
2873.028321 97.771 163.8126
2893.847468 97.788 163.9781
2914.817480 97.802 164.1959
2935.939449 97.813 164.4656
2957.214476 97.820 164.7857
2978.643672 97.824 165.1536
3000.228152 97.825 165.5652
3021.969041 97.823 166.0152
3043.867475 97.818 166.4963
3065.924593 97.813 166.9995
3088.141547 97.808 167.5141
3110.519493 97.804 168.0283
3133.059600 97.801 168.5290
3155.763041 97.800 169.0038
3178.631001 97.800 169.4412
3201.664672 97.801 169.8328
3224.865254 97.802 170.1741
3248.233957 97.801 170.4659
3271.771999 97.796 170.7137
3295.480608 97.787 170.9283
3319.361019 97.773 171.1244
3343.414477 97.754 171.3187
3367.642236 97.730 171.5290
3392.045560 97.704 171.7711
3416.625721 97.677 172.0574
3441.383999 97.654 172.3940
3466.321686 97.638 172.7805
3491.440082 97.632 173.2082
3516.740496 97.642 173.6608
3542.224247 97.668 174.1156
3567.892664 97.714 174.5454
3593.747085 97.779 174.9212
3619.788858 97.862 175.2151
3646.019340 97.960 175.4028
3672.439900 98.071 175.4659
3699.051913 98.189 175.3927
3725.856768 98.309 175.1796
3752.855862 98.428 174.8302
3780.050603 98.540 174.3542
3807.442408 98.642 173.7670
3835.032705 98.730 173.0871
3862.822933 98.802 172.3357
3890.814540 98.857 171.5352
3919.008986 98.892 170.7085
3947.407741 98.907 169.8781
3976.012284 98.903 169.0659
4004.824108 98.879 168.2927
4033.844715 98.836 167.5773
4063.075616 98.776 166.9371
4092.518337 98.701 166.3870
4122.174412 98.611 165.9398
4152.045387 98.510 165.6062
4182.132820 98.398 165.3946
4212.438278 98.279 165.3113
4242.963342 98.154 165.3607
4273.709604 98.026 165.5455
4304.678665 97.897 165.8668
4335.872141 97.768 166.3237
4367.291658 97.643 166.9137
4398.938854 97.522 167.6318
4430.815378 97.407 168.4706
4462.922893 97.300 169.4202
4495.263072 97.202 170.4685
4527.837601 97.115 171.6015
4560.648179 97.037 172.8040
4593.696515 96.971 174.0600
4626.984334 96.916 175.3537
4660.513370 96.872 176.6695
4694.285371 96.841 177.9926
4728.302098 96.822 179.3091
4762.565324 96.815 -179.3942
4797.076835 96.821 -178.1292
4831.838432 96.841 -176.9070
4866.851925 96.874 -175.7376
4902.119140 96.921 -174.6298
4937.641916 96.981 -173.5912
4973.422105 97.055 -172.6279
5009.461572 97.141 -171.7452
5045.762195 97.238 -170.9467
5082.325868 97.347 -170.2355
5119.154496 97.465 -169.6131
5156.250000 97.591 -169.0808
5193.614313 97.725 -168.6389
5231.249383 97.863 -168.2872
5269.157173 98.005 -168.0252
5307.339658 98.150 -167.8518
5345.798829 98.295 -167.7659
5384.536691 98.439 -167.7659
5423.555263 98.582 -167.8499
5462.856580 98.721 -168.0153
5502.442691 98.855 -168.2589
5542.315659 98.984 -168.5765
5582.477563 99.106 -168.9633
5622.930497 99.222 -169.4130
5663.676569 99.330 -169.9188
5704.717904 99.431 -170.4725
5746.056642 99.526 -171.0652
5787.694937 99.613 -171.6866
5829.634960 99.694 -172.3262
5871.878898 99.768 -172.9722
5914.428953 99.837 -173.6129
5957.287343 99.902 -174.2367
6000.456303 99.962 -174.8327
6043.938083 100.019 -175.3912
6087.734950 100.074 -175.9043
6131.849187 100.127 -176.3662
6176.283094 100.178 -176.7738
6221.038987 100.229 -177.1273
6266.119200 100.280 -177.4297
6311.526083 100.330 -177.6872
6357.262002 100.381 -177.9090
6403.329344 100.433 -178.1067
6449.730508 100.486 -178.2938
6496.467914 100.540 -178.4846
6543.543998 100.596 -178.6941
6590.961215 100.653 -178.9364
6638.722037 100.712 -179.2249
6686.828954 100.773 -179.5719
6735.284473 100.837 -179.9873
6784.091120 100.903 179.5211
6833.251441 100.972 178.9483
6882.767998 101.044 178.2926
6932.643372 101.119 177.5551
6982.880164 101.199 176.7386
7033.480992 101.284 175.8465
7084.448495 101.377 174.8806
7135.785329 101.478 173.8388
7187.494171 101.590 172.7145
7239.577717 101.714 171.4957
7292.038681 101.849 170.1658
7344.879799 101.994 168.7052
7398.103826 102.148 167.0932
7451.713536 102.305 165.3098
7505.711724 102.462 163.3371
7560.101205 102.613 161.1603
7614.884815 102.753 158.7683
7670.065409 102.877 156.1537
7725.645865 102.977 153.3134
7781.629080 103.049 150.2482
7838.017972 103.088 146.9633
7894.815481 103.087 143.4689
7952.024569 103.042 139.7794
8009.648217 102.948 135.9140
8067.689429 102.803 131.8951
8126.151233 102.604 127.7471
8185.036674 102.350 123.4943
8244.348824 102.041 119.1583
8304.090774 101.678 114.7554
8364.265639 101.265 110.2942
8424.876556 100.804 105.7734
8485.926684 100.299 101.1812
8547.419207 99.756 96.4943
8609.357330 99.178 91.6778
8671.744282 98.570 86.6854
8734.583316 97.937 81.4585
8797.877707 97.283 75.9246
8861.630756 96.612 69.9937
8925.845785 95.931 63.5542
8990.526143 95.248 56.4674
9055.675202 94.570 48.5668
9121.296357 93.911 39.6664
9187.393031 93.284 29.5946
9253.968668 92.708 18.2678
9321.026740 92.199 5.8047
9388.570742 91.774 -7.3818
9456.604196 91.443 -20.6298
9525.130648 91.208 -33.2507
9594.153671 91.064 -44.7745
9663.676863 90.994 -55.0304
9733.703850 90.978 -64.0676
9804.238280 90.992 -72.0379
9875.283832 91.013 -79.1061
9946.844210 91.021 -85.4064
10018.923143 91.000 -91.0243
10091.524390 90.937 -95.9937
10164.651736 90.827 -100.2992
10238.308993 90.672 -103.8843
10312.500000 90.479 -106.6636
10387.228626 90.265 -108.5463
10462.498767 90.055 -109.4727
10538.314345 89.880 -109.4657
10614.679315 89.770 -108.6814
10691.597657 89.749 -107.4259
10769.073381 89.828 -106.1038
10847.110526 89.998 -105.1110
10925.713161 90.238 -104.7327
11004.885382 90.516 -105.1025
11084.631318 90.803 -106.2255
11164.955126 91.073 -108.0267
11245.860993 91.307 -110.3955
11327.353138 91.490 -113.2155
11409.435808 91.616 -116.3784
11492.113283 91.678 -119.7906
11575.389873 91.677 -123.3726
11659.269920 91.612 -127.0586
11743.757796 91.487 -130.7949
11828.857906 91.304 -134.5386
11914.574686 91.068 -138.2573
12000.912606 90.785 -141.9285
12087.876166 90.458 -145.5375
12175.469900 90.094 -149.0763
12263.698373 89.695 -152.5402
12352.566187 89.265 -155.9252
12442.077974 88.805 -159.2259
12532.238400 88.318 -162.4347
12623.052165 87.807 -165.5436
12714.524005 87.274 -168.5486
12806.658687 86.727 -171.4570
12899.461015 86.177 -174.2957
12992.935827 85.639 -177.1199
13087.087996 85.132 179.9816
13181.922430 84.676 176.8857
13277.444074 84.295 173.4417
13373.657907 84.004 169.4823
13470.568945 83.815 164.8354
13568.182241 83.731 159.3322
13666.502883 83.744 152.8089
13765.535996 83.841 145.1070
13865.286744 84.007 136.0780
13965.760328 84.222 125.6026
14066.961984 84.470 113.6335
14168.896989 84.735 100.2599
14271.570658 85.005 85.7689
14374.988342 85.269 70.6411
14479.155433 85.521 55.4451
14584.077362 85.754 40.6727
14689.759598 85.965 26.6263
14796.207652 86.148 13.4110
14903.427072 86.299 0.9954
15011.423448 86.413 -10.7187
15120.202410 86.483 -21.8444
15229.769630 86.500 -32.4822
15340.130819 86.458 -42.7050
15451.291730 86.347 -52.5533
15563.258160 86.160 -62.0354
15676.035944 85.892 -71.1284
15789.630962 85.539 -79.7818
15904.049137 85.097 -87.9211
16019.296433 84.567 -95.4539
16135.378859 83.951 -102.2802
16252.302465 83.250 -108.3091
16370.073348 82.472 -113.4802
16488.697648 81.621 -117.7828
16608.181548 80.705 -121.2655
16728.531278 79.731 -124.0259
16849.753112 78.704 -126.1821
16971.853368 77.632 -127.8431
17094.838414 76.519 -129.0938
17218.714660 75.370 -130.0010
17343.488565 74.192 -130.6289
17469.166632 72.993 -131.0502
17595.755415 71.783 -131.3463
17723.261512 70.573 -131.6006
17851.691571 69.384 -131.8857
17981.052287 68.241 -132.2473
18111.350404 67.181 -132.6812
18242.592715 66.247 -133.0936
18374.786062 65.488 -133.2292
18507.937336 64.946 -132.5269
18642.053479 64.638 -129.7977
18777.141484 64.553 -122.5151
18913.208391 64.652 -106.0961
19050.261296 64.881 -79.7532
19188.307342 65.186 -57.6446
19327.353727 65.520 -46.8149
19467.407699 65.847 -42.8406
19608.476560 66.137 -42.0112
19750.567664 66.370 -42.4371
19893.688419 66.533 -43.1440
20037.846286 66.617 -43.6140
