* Measurement data measured by REW V5.31.3
* Source: EXCL: Headset (USB-C to 3.5mm Headphone Jack Adapter), MICROPHONE (Master Volume), 0, volume: 0.260
* Format: 256k Log Swept Sine, 1 sweep at -12.0 dBFS with no timing reference
* Dated: Feb 14, 2025 1:45:26 PM
* REW Settings:
*  C-weighting compensation: Off
*  Target level: 75.0 dB
* Note: ; 
* Measurement: Satyr 3 L5
* Smoothing: 1/6 octave
* Frequency Step: 96 ppo
* Start Frequency: 20.0 Hz
*
* Freq(Hz) SPL(dB) Phase(degrees)
20.141602 92.796 -25.5945
20.287556 92.813 -25.8353
20.434568 92.833 -26.1549
20.582645 92.855 -26.5411
20.731796 92.874 -26.9807
20.882027 92.889 -27.4611
21.033346 92.898 -27.9713
21.185763 92.900 -28.5019
21.339284 92.894 -29.0458
21.493917 92.880 -29.5981
21.649671 92.861 -30.1558
21.806553 92.837 -30.7174
21.964572 92.810 -31.2825
22.123737 92.782 -31.8515
22.284054 92.754 -32.4248
22.445534 92.729 -33.0028
22.608183 92.708 -33.5858
22.772012 92.692 -34.1735
22.937027 92.682 -34.7651
23.103238 92.680 -35.3596
23.270654 92.686 -35.9558
23.439282 92.701 -36.5527
23.609133 92.727 -37.1492
23.780215 92.762 -37.7449
23.952536 92.809 -38.3396
24.126106 92.866 -38.9336
24.300934 92.934 -39.5276
24.477028 93.012 -40.1222
24.654399 93.099 -40.7185
24.833055 93.193 -41.3170
25.013005 93.294 -41.9183
25.194260 93.399 -42.5227
25.376828 93.507 -43.1301
25.560719 93.616 -43.7404
25.745942 93.724 -44.3535
25.932508 93.831 -44.9693
26.120426 93.935 -45.5879
26.309705 94.035 -46.2095
26.500356 94.132 -46.8349
26.692388 94.223 -47.4645
26.885812 94.310 -48.0990
27.080638 94.391 -48.7390
27.276876 94.468 -49.3846
27.474535 94.541 -50.0357
27.673627 94.611 -50.6920
27.874161 94.680 -51.3529
28.076149 94.750 -52.0178
28.279600 94.824 -52.6860
28.484526 94.905 -53.3572
28.690937 94.996 -54.0313
28.898843 95.099 -54.7085
29.108256 95.217 -55.3890
29.319186 95.352 -56.0732
29.531645 95.503 -56.7612
29.745644 95.670 -57.4531
29.961193 95.850 -58.1481
30.178304 96.040 -58.8455
30.396989 96.236 -59.5441
30.617258 96.433 -60.2424
30.839123 96.625 -60.9393
31.062596 96.808 -61.6337
31.287688 96.977 -62.3250
31.514412 97.127 -63.0134
31.742778 97.254 -63.6993
31.972800 97.356 -64.3836
32.204488 97.430 -65.0676
32.437855 97.476 -65.7524
32.672913 97.492 -66.4394
32.909674 97.480 -67.1295
33.148151 97.441 -67.8232
33.388356 97.378 -68.5210
33.630302 97.293 -69.2226
33.874001 97.191 -69.9278
34.119466 97.076 -70.6358
34.366710 96.951 -71.3458
34.615745 96.822 -72.0570
34.866585 96.693 -72.7682
35.119243 96.568 -73.4785
35.373731 96.451 -74.1872
35.630064 96.346 -74.8936
35.888254 96.255 -75.5972
36.148315 96.180 -76.2980
36.410261 96.125 -76.9960
36.674104 96.089 -77.6914
36.939860 96.075 -78.3847
37.207542 96.082 -79.0764
37.477163 96.111 -79.7668
37.748738 96.161 -80.4562
38.022281 96.232 -81.1445
38.297806 96.323 -81.8316
38.575327 96.434 -82.5173
38.854860 96.565 -83.2012
39.136419 96.713 -83.8828
39.420017 96.878 -84.5617
39.705671 97.059 -85.2377
39.993395 97.255 -85.9102
40.283203 97.466 -86.5790
40.575112 97.689 -87.2438
40.869136 97.924 -87.9046
41.165290 98.169 -88.5611
41.463591 98.423 -89.2137
41.764053 98.683 -89.8624
42.066693 98.948 -90.5076
42.371525 99.216 -91.1498
42.678567 99.484 -91.7895
42.987834 99.750 -92.4269
43.299341 100.011 -93.0627
43.613106 100.265 -93.6974
43.929145 100.510 -94.3316
44.247473 100.744 -94.9658
44.568109 100.965 -95.6008
44.891068 101.171 -96.2370
45.216367 101.362 -96.8749
45.544023 101.537 -97.5151
45.874054 101.695 -98.1581
46.206476 101.836 -98.8044
46.541307 101.959 -99.4548
46.878565 102.065 -100.1100
47.218266 102.154 -100.7706
47.560429 102.227 -101.4369
47.905072 102.285 -102.1090
48.252212 102.327 -102.7867
48.601867 102.357 -103.4696
48.954056 102.375 -104.1574
49.308798 102.383 -104.8493
49.666109 102.383 -105.5448
50.026010 102.377 -106.2434
50.388520 102.366 -106.9444
50.753656 102.353 -107.6474
51.121437 102.338 -108.3521
51.491884 102.324 -109.0586
51.865016 102.312 -109.7669
52.240851 102.302 -110.4771
52.619410 102.295 -111.1895
53.000712 102.291 -111.9039
53.384777 102.290 -112.6202
53.771625 102.292 -113.3382
54.161276 102.296 -114.0575
54.553751 102.301 -114.7777
54.949070 102.306 -115.4987
55.347254 102.310 -116.2198
55.748323 102.313 -116.9406
56.152298 102.313 -117.6603
56.559201 102.310 -118.3784
56.969052 102.303 -119.0943
57.381873 102.293 -119.8079
57.797686 102.279 -120.5193
58.216512 102.262 -121.2292
58.638373 102.242 -121.9386
59.063291 102.219 -122.6489
59.491288 102.194 -123.3617
59.922386 102.166 -124.0781
60.356608 102.137 -124.7988
60.793977 102.107 -125.5237
61.234515 102.075 -126.2517
61.678246 102.042 -126.9815
62.125192 102.008 -127.7115
62.575377 101.974 -128.4402
63.028824 101.940 -129.1665
63.485557 101.906 -129.8895
63.945599 101.873 -130.6084
64.408975 101.841 -131.3227
64.875709 101.810 -132.0321
65.345825 101.780 -132.7364
65.819348 101.753 -133.4359
66.296302 101.727 -134.1306
66.776713 101.704 -134.8208
67.260604 101.682 -135.5070
67.748002 101.663 -136.1893
68.238932 101.646 -136.8679
68.733420 101.630 -137.5425
69.231490 101.617 -138.2131
69.733170 101.605 -138.8793
70.238485 101.594 -139.5407
70.747463 101.585 -140.1968
71.260128 101.576 -140.8476
71.776508 101.569 -141.4927
72.296630 101.562 -142.1322
72.820521 101.555 -142.7663
73.348209 101.549 -143.3951
73.879720 101.543 -144.0188
74.415083 101.537 -144.6377
74.954326 101.530 -145.2517
75.497475 101.523 -145.8608
76.044561 101.515 -146.4652
76.595612 101.507 -147.0648
77.150655 101.496 -147.6596
77.709720 101.484 -148.2497
78.272837 101.470 -148.8351
78.840034 101.452 -149.4159
79.411342 101.431 -149.9923
79.986789 101.405 -150.5643
80.566406 101.376 -151.1322
81.150224 101.343 -151.6962
81.738272 101.305 -152.2562
82.330581 101.265 -152.8124
82.927182 101.222 -153.3646
83.528107 101.178 -153.9127
84.133386 101.134 -154.4564
84.743051 101.094 -154.9954
85.357134 101.059 -155.5296
85.975667 101.033 -156.0588
86.598682 101.019 -156.5827
87.226212 101.021 -157.1012
87.858289 101.041 -157.6140
88.494946 101.083 -158.1209
89.136217 101.149 -158.6215
89.782135 101.238 -159.1159
90.432733 101.351 -159.6040
91.088046 101.485 -160.0859
91.748108 101.637 -160.5617
92.412952 101.802 -161.0317
93.082615 101.975 -161.4959
93.757130 102.150 -161.9546
94.436533 102.323 -162.4077
95.120859 102.489 -162.8554
95.810144 102.642 -163.2977
96.504423 102.782 -163.7346
97.203734 102.904 -164.1662
97.908112 103.009 -164.5923
98.617595 103.097 -165.0129
99.332219 103.169 -165.4277
100.052021 103.225 -165.8365
100.777039 103.269 -166.2391
101.507311 103.302 -166.6353
102.242875 103.327 -167.0251
102.983769 103.345 -167.4087
103.730032 103.358 -167.7861
104.481702 103.367 -168.1578
105.238820 103.370 -168.5241
106.001424 103.369 -168.8855
106.769554 103.360 -169.2425
107.543250 103.344 -169.5955
108.322553 103.318 -169.9447
109.107503 103.280 -170.2903
109.898141 103.230 -170.6325
110.694508 103.166 -170.9711
111.496646 103.089 -171.3063
112.304596 102.999 -171.6380
113.118402 102.897 -171.9660
113.938104 102.784 -172.2906
114.763747 102.662 -172.6119
115.595372 102.535 -172.9302
116.433024 102.403 -173.2457
117.276746 102.269 -173.5587
118.126581 102.135 -173.8692
118.982575 102.003 -174.1777
119.844772 101.873 -174.4843
120.713217 101.746 -174.7893
121.587954 101.621 -175.0928
122.469031 101.499 -175.3953
123.356492 101.378 -175.6970
124.250384 101.256 -175.9982
125.150753 101.133 -176.2991
126.057647 101.007 -176.5997
126.971113 100.876 -176.9002
127.891198 100.740 -177.2002
128.817950 100.597 -177.4994
129.751418 100.447 -177.7976
130.691651 100.291 -178.0943
131.638696 100.128 -178.3891
132.592604 99.960 -178.6815
133.553425 99.789 -178.9711
134.521208 99.617 -179.2568
135.496004 99.447 -179.5376
136.477864 99.282 -179.8116
137.466839 99.125 179.9231
138.462981 98.979 179.6692
139.466340 98.848 179.4294
140.476971 98.732 179.2068
141.494925 98.634 179.0038
142.520256 98.553 178.8227
143.553016 98.489 178.6647
144.593260 98.438 178.5303
145.641043 98.398 178.4192
146.696418 98.366 178.3300
147.759441 98.338 178.2609
148.830166 98.311 178.2101
149.908651 98.282 178.1757
150.994951 98.248 178.1559
152.089123 98.209 178.1497
153.191223 98.164 178.1562
154.301310 98.114 178.1751
155.419441 98.060 178.2063
156.545674 98.003 178.2502
157.680069 97.946 178.3072
158.822683 97.889 178.3777
159.973578 97.836 178.4619
161.132813 97.787 178.5595
162.300447 97.743 178.6696
163.476543 97.706 178.7908
164.661162 97.676 178.9210
165.854364 97.654 179.0577
167.056213 97.640 179.1978
168.266772 97.634 179.3380
169.486102 97.636 179.4744
170.714268 97.647 179.6037
171.951334 97.667 179.7221
173.197364 97.694 179.8265
174.452424 97.730 179.9139
175.716578 97.772 179.9822
176.989893 97.820 -179.9703
178.272434 97.871 -179.9446
179.564270 97.926 -179.9409
180.865467 97.981 -179.9590
182.176092 98.035 -179.9983
183.496216 98.087 179.9424
184.825905 98.135 179.8647
186.165229 98.180 179.7703
187.514259 98.220 179.6610
188.873065 98.256 179.5389
190.241717 98.287 179.4061
191.620287 98.316 179.2645
193.008847 98.341 179.1162
194.407468 98.364 178.9628
195.816225 98.386 178.8059
197.235190 98.405 178.6468
198.664438 98.423 178.4866
200.104042 98.438 178.3263
201.554078 98.452 178.1667
203.014622 98.462 178.0083
204.485750 98.469 177.8518
205.967538 98.473 177.6976
207.460064 98.473 177.5461
208.963405 98.468 177.3974
210.477640 98.459 177.2518
212.002848 98.447 177.1094
213.539108 98.431 176.9706
215.086500 98.412 176.8354
216.645105 98.390 176.7039
218.215005 98.366 176.5764
219.796281 98.340 176.4528
221.389015 98.312 176.3331
222.993292 98.281 176.2170
224.609193 98.247 176.1043
226.236804 98.209 175.9945
227.876209 98.166 175.8875
229.527494 98.119 175.7829
231.190745 98.067 175.6807
232.866048 98.010 175.5809
234.553491 97.947 175.4834
236.253163 97.880 175.3884
237.965150 97.810 175.2960
239.689544 97.736 175.2064
241.426433 97.660 175.1196
243.175909 97.584 175.0359
244.938062 97.507 174.9552
246.712984 97.432 174.8773
248.500768 97.358 174.8022
250.301507 97.287 174.7296
252.115295 97.219 174.6593
253.942226 97.155 174.5911
255.782396 97.095 174.5247
257.635901 97.041 174.4600
259.502837 96.993 174.3969
261.383301 96.951 174.3349
263.277392 96.915 174.2738
265.185209 96.886 174.2132
267.106850 96.863 174.1529
269.042417 96.847 174.0927
270.992009 96.837 174.0327
272.955729 96.832 173.9728
274.933678 96.833 173.9134
276.925961 96.837 173.8546
278.932681 96.845 173.7967
280.953942 96.856 173.7397
282.989850 96.870 173.6837
285.040511 96.886 173.6286
287.106032 96.905 173.5747
289.186521 96.928 173.5221
291.282086 96.955 173.4710
293.392836 96.987 173.4217
295.518881 97.025 173.3741
297.660333 97.068 173.3284
299.817302 97.117 173.2843
301.989902 97.171 173.2418
304.178245 97.228 173.2006
306.382446 97.287 173.1605
308.602620 97.346 173.1215
310.838882 97.404 173.0833
313.091348 97.459 173.0462
315.360137 97.509 173.0100
317.645367 97.553 172.9749
319.947156 97.590 172.9408
322.265625 97.618 172.9078
324.600895 97.638 172.8758
326.953086 97.648 172.8446
329.322323 97.648 172.8141
331.708729 97.638 172.7839
334.112427 97.617 172.7540
336.533543 97.586 172.7242
338.972204 97.546 172.6945
341.428536 97.496 172.6648
343.902668 97.437 172.6353
346.394729 97.372 172.6062
348.904848 97.301 172.5776
351.433156 97.226 172.5497
353.979786 97.150 172.5229
356.544869 97.075 172.4973
359.128540 97.003 172.4734
361.730934 96.939 172.4513
364.352185 96.884 172.4312
366.992431 96.841 172.4132
369.651810 96.813 172.3969
372.330459 96.802 172.3822
375.028519 96.808 172.3688
377.746130 96.833 172.3568
380.483434 96.875 172.3462
383.240574 96.933 172.3371
386.017693 97.005 172.3297
388.814937 97.088 172.3239
391.632450 97.180 172.3194
394.470380 97.277 172.3160
397.328875 97.377 172.3130
400.208084 97.478 172.3098
403.108157 97.579 172.3058
406.029245 97.678 172.3005
408.971500 97.773 172.2937
411.935076 97.866 172.2855
414.920127 97.956 172.2759
417.926810 98.043 172.2653
420.955280 98.129 172.2541
424.005695 98.214 172.2427
427.078215 98.298 172.2316
430.173000 98.382 172.2209
433.290211 98.467 172.2109
436.430010 98.552 172.2019
439.592562 98.636 172.1937
442.778031 98.720 172.1862
445.986583 98.801 172.1789
449.218386 98.877 172.1715
452.473607 98.948 172.1638
455.752418 99.011 172.1556
459.054987 99.065 172.1471
462.381489 99.110 172.1383
465.732096 99.144 172.1299
469.106983 99.167 172.1221
472.506325 99.180 172.1155
475.930301 99.183 172.1105
479.379088 99.177 172.1072
482.852867 99.164 172.1059
486.351817 99.143 172.1066
489.876123 99.117 172.1094
493.425968 99.086 172.1146
497.001536 99.052 172.1220
500.603014 99.014 172.1319
504.230589 98.973 172.1442
507.884452 98.930 172.1587
511.564792 98.884 172.1750
515.271802 98.836 172.1929
519.005673 98.787 172.2115
522.766602 98.737 172.2307
526.554785 98.687 172.2498
530.370418 98.639 172.2686
534.213700 98.595 172.2869
538.084833 98.557 172.3044
541.984018 98.526 172.3209
545.911457 98.505 172.3364
549.867357 98.493 172.3510
553.851922 98.490 172.3646
557.865362 98.497 172.3774
561.907884 98.512 172.3893
565.979700 98.532 172.4001
570.081022 98.557 172.4095
574.212064 98.584 172.4175
578.373042 98.610 172.4238
582.564171 98.634 172.4285
586.785671 98.654 172.4315
591.037762 98.670 172.4325
595.320665 98.680 172.4313
599.634604 98.683 172.4276
603.979804 98.679 172.4209
608.356491 98.669 172.4113
612.764893 98.653 172.3985
617.205240 98.631 172.3826
621.677763 98.606 172.3638
626.182696 98.577 172.3419
630.720274 98.548 172.3169
635.290733 98.519 172.2885
639.894312 98.493 172.2565
644.531250 98.471 172.2204
649.201789 98.455 172.1801
653.906173 98.445 172.1352
658.644647 98.443 172.0858
663.417457 98.449 172.0319
668.224854 98.461 171.9735
673.067086 98.479 171.9111
677.944408 98.501 171.8451
682.857073 98.525 171.7759
687.805336 98.550 171.7039
692.789457 98.575 171.6291
697.809695 98.598 171.5512
702.866312 98.618 171.4694
707.959571 98.635 171.3826
713.089738 98.647 171.2898
718.257080 98.655 171.1903
723.461867 98.659 171.0835
728.704370 98.658 170.9694
733.984862 98.653 170.8479
739.303619 98.645 170.7193
744.660918 98.635 170.5839
750.057038 98.622 170.4420
755.492260 98.608 170.2943
760.966869 98.592 170.1412
766.481148 98.574 169.9839
772.035387 98.554 169.8231
777.629873 98.532 169.6596
783.264900 98.507 169.4941
788.940760 98.477 169.3270
794.657750 98.443 169.1584
800.416168 98.404 168.9882
806.216313 98.359 168.8159
812.058489 98.307 168.6409
817.943000 98.249 168.4626
823.870152 98.184 168.2798
829.840255 98.113 168.0916
835.853619 98.037 167.8973
841.910559 97.956 167.6966
848.011390 97.871 167.4893
854.156430 97.783 167.2757
860.346000 97.693 167.0563
866.580422 97.603 166.8316
872.860020 97.512 166.6019
879.185124 97.423 166.3674
885.556062 97.337 166.1281
891.973166 97.254 165.8839
898.436771 97.176 165.6347
904.947215 97.104 165.3804
911.504835 97.039 165.1210
918.109975 96.981 164.8569
924.762978 96.931 164.5882
931.464192 96.890 164.3156
938.213966 96.856 164.0398
945.012651 96.831 163.7622
951.860602 96.814 163.4844
958.758176 96.804 163.2078
965.705733 96.801 162.9332
972.703635 96.804 162.6609
979.752246 96.813 162.3901
986.851935 96.826 162.1203
994.003071 96.843 161.8505
1001.206027 96.865 161.5804
1008.461179 96.889 161.3099
1015.768904 96.917 161.0394
1023.129584 96.949 160.7693
1030.543603 96.985 160.5001
1038.011347 97.027 160.2315
1045.533205 97.074 159.9637
1053.109569 97.127 159.6962
1060.740836 97.185 159.4290
1068.427401 97.250 159.1620
1076.169666 97.319 158.8956
1083.968035 97.393 158.6306
1091.822915 97.468 158.3680
1099.734713 97.545 158.1089
1107.703844 97.620 157.8544
1115.730723 97.693 157.6052
1123.815768 97.761 157.3615
1131.959400 97.823 157.1232
1140.162045 97.879 156.8903
1148.424129 97.928 156.6623
1156.746083 97.969 156.4394
1165.128342 98.004 156.2217
1173.571343 98.032 156.0096
1182.075524 98.055 155.8034
1190.641331 98.074 155.6037
1199.269209 98.090 155.4106
1207.959608 98.104 155.2245
1216.712981 98.117 155.0459
1225.529785 98.129 154.8754
1234.410479 98.140 154.7139
1243.355526 98.151 154.5624
1252.365393 98.160 154.4218
1261.440549 98.166 154.2933
1270.581467 98.170 154.1775
1279.788624 98.171 154.0749
1289.062500 98.169 153.9858
1298.403578 98.163 153.9109
1307.812346 98.153 153.8504
1317.289293 98.140 153.8045
1326.834914 98.123 153.7729
1336.449707 98.105 153.7545
1346.134173 98.084 153.7478
1355.888816 98.061 153.7516
1365.714145 98.037 153.7650
1375.610673 98.011 153.7872
1385.578915 97.983 153.8177
1395.619391 97.953 153.8559
1405.732624 97.922 153.9015
1415.919142 97.889 153.9542
1426.179476 97.854 154.0143
1436.514160 97.818 154.0824
1446.923734 97.782 154.1594
1457.408740 97.747 154.2459
1467.969724 97.712 154.3421
1478.607238 97.680 154.4478
1489.321836 97.651 154.5623
1500.114076 97.626 154.6850
1510.984521 97.604 154.8153
1521.933737 97.587 154.9529
1532.962297 97.574 155.0977
1544.070773 97.565 155.2496
1555.259747 97.559 155.4088
1566.529800 97.556 155.5750
1577.881521 97.556 155.7480
1589.315501 97.558 155.9272
1600.832336 97.561 156.1120
1612.432627 97.565 156.3019
1624.116978 97.570 156.4962
1635.886000 97.575 156.6939
1647.740304 97.581 156.8942
1659.680509 97.586 157.0964
1671.707238 97.592 157.3008
1683.821118 97.598 157.5087
1696.022780 97.604 157.7214
1708.312860 97.611 157.9402
1720.692000 97.619 158.1654
1733.160843 97.627 158.3972
1745.720041 97.637 158.6357
1758.370248 97.648 158.8818
1771.112124 97.660 159.1370
1783.946332 97.671 159.4034
1796.873543 97.683 159.6829
1809.894429 97.694 159.9769
1823.009670 97.704 160.2863
1836.219950 97.715 160.6119
1849.525956 97.725 160.9545
1862.928384 97.735 161.3150
1876.427931 97.746 161.6933
1890.025301 97.759 162.0880
1903.721204 97.774 162.4963
1917.516352 97.792 162.9143
1931.411466 97.813 163.3380
1945.407270 97.837 163.7635
1959.504493 97.864 164.1867
1973.703870 97.892 164.6030
1988.006142 97.920 165.0079
2002.412054 97.948 165.3978
2016.922357 97.973 165.7708
2031.537808 97.994 166.1260
2046.259169 98.011 166.4639
2061.087206 98.022 166.7852
2076.022694 98.027 167.0904
2091.066410 98.027 167.3796
2106.219139 98.021 167.6523
2121.481671 98.011 167.9075
2136.854802 97.998 168.1434
2152.339333 97.983 168.3573
2167.936071 97.967 168.5462
2183.645829 97.951 168.7072
2199.469427 97.937 168.8377
2215.407689 97.924 168.9365
2231.461446 97.914 169.0032
2247.631536 97.906 169.0385
2263.918800 97.901 169.0431
2280.324089 97.898 169.0183
2296.848258 97.897 168.9659
2313.492167 97.898 168.8882
2330.256685 97.900 168.7872
2347.142685 97.903 168.6646
2364.151049 97.907 168.5211
2381.282662 97.912 168.3568
2398.538418 97.917 168.1713
2415.919216 97.921 167.9634
2433.425962 97.926 167.7316
2451.059570 97.930 167.4743
2468.820958 97.934 167.1902
2486.711052 97.936 166.8788
2504.730786 97.937 166.5406
2522.881098 97.935 166.1777
2541.162934 97.932 165.7933
2559.577248 97.925 165.3925
2578.125000 97.917 164.9812
2596.807157 97.907 164.5665
2615.624692 97.895 164.1556
2634.578586 97.884 163.7558
2653.669829 97.873 163.3738
2672.899414 97.865 163.0155
2692.268345 97.860 162.6860
2711.777632 97.858 162.3894
2731.428290 97.861 162.1293
2751.221345 97.869 161.9088
2771.157829 97.880 161.7308
2791.238781 97.895 161.5982
2811.465248 97.912 161.5135
2831.838284 97.931 161.4792
2852.358952 97.950 161.4974
2873.028321 97.968 161.5698
2893.847468 97.984 161.6974
2914.817480 97.997 161.8806
2935.939449 98.008 162.1185
2957.214476 98.015 162.4091
2978.643672 98.018 162.7492
3000.228152 98.019 163.1338
3021.969041 98.016 163.5568
3043.867475 98.012 164.0104
3065.924593 98.006 164.4859
3088.141547 98.000 164.9733
3110.519493 97.995 165.4614
3133.059600 97.990 165.9389
3155.763041 97.987 166.3940
3178.631001 97.986 166.8156
3201.664672 97.985 167.1950
3224.865254 97.985 167.5267
3248.233957 97.983 167.8099
3271.771999 97.978 168.0493
3295.480608 97.968 168.2545
3319.361019 97.954 168.4396
3343.414477 97.934 168.6217
3367.642236 97.910 168.8188
3392.045560 97.882 169.0475
3416.625721 97.855 169.3209
3441.383999 97.830 169.6464
3466.321686 97.812 170.0240
3491.440082 97.804 170.4455
3516.740496 97.811 170.8949
3542.224247 97.835 171.3494
3567.892664 97.878 171.7819
3593.747085 97.940 172.1635
3619.788858 98.021 172.4667
3646.019340 98.117 172.6679
3672.439900 98.225 172.7492
3699.051913 98.341 172.6992
3725.856768 98.460 172.5141
3752.855862 98.578 172.1965
3780.050603 98.690 171.7554
3807.442408 98.793 171.2047
3835.032705 98.883 170.5622
3862.822933 98.958 169.8485
3890.814540 99.016 169.0857
3919.008986 99.055 168.2967
3947.407741 99.075 167.5040
3976.012284 99.076 166.7291
4004.824108 99.059 165.9922
4033.844715 99.024 165.3116
4063.075616 98.972 164.7035
4092.518337 98.906 164.1822
4122.174412 98.826 163.7595
4152.045387 98.736 163.4452
4182.132820 98.636 163.2467
4212.438278 98.529 163.1698
4242.963342 98.416 163.2183
4273.709604 98.302 163.3939
4304.678665 98.186 163.6970
4335.872141 98.071 164.1256
4367.291658 97.960 164.6757
4398.938854 97.853 165.3412
4430.815378 97.753 166.1138
4462.922893 97.661 166.9826
4495.263072 97.577 167.9349
4527.837601 97.502 168.9563
4560.648179 97.437 170.0311
4593.696515 97.381 171.1433
4626.984334 97.335 172.2771
4660.513370 97.299 173.4174
4694.285371 97.272 174.5504
4728.302098 97.254 175.6634
4762.565324 97.246 176.7456
4797.076835 97.246 177.7875
4831.838432 97.256 178.7817
4866.851925 97.275 179.7222
4902.119140 97.302 -179.3954
4937.641916 97.338 -178.5735
4973.422105 97.382 -177.8131
5009.461572 97.433 -177.1140
5045.762195 97.491 -176.4747
5082.325868 97.557 -175.8928
5119.154496 97.628 -175.3655
5156.250000 97.704 -174.8896
5193.614313 97.786 -174.4622
5231.249383 97.872 -174.0808
5269.157173 97.961 -173.7433
5307.339658 98.055 -173.4486
5345.798829 98.151 -173.1964
5384.536691 98.249 -172.9872
5423.555263 98.350 -172.8217
5462.856580 98.452 -172.7014
5502.442691 98.556 -172.6279
5542.315659 98.660 -172.6026
5582.477563 98.766 -172.6267
5622.930497 98.872 -172.7011
5663.676569 98.980 -172.8263
5704.717904 99.089 -173.0018
5746.056642 99.198 -173.2262
5787.694937 99.309 -173.4972
5829.634960 99.420 -173.8113
5871.878898 99.532 -174.1638
5914.428953 99.645 -174.5498
5957.287343 99.758 -174.9635
6000.456303 99.871 -175.3994
6043.938083 99.983 -175.8526
6087.734950 100.093 -176.3190
6131.849187 100.201 -176.7958
6176.283094 100.305 -177.2812
6221.038987 100.405 -177.7748
6266.119200 100.499 -178.2772
6311.526083 100.585 -178.7895
6357.262002 100.663 -179.3131
6403.329344 100.732 -179.8492
6449.730508 100.790 179.6019
6496.467914 100.838 179.0409
6543.543998 100.874 178.4697
6590.961215 100.900 177.8913
6638.722037 100.917 177.3091
6686.828954 100.925 176.7269
6735.284473 100.928 176.1482
6784.091120 100.928 175.5763
6833.251441 100.928 175.0139
6882.767998 100.931 174.4631
6932.643372 100.942 173.9245
6982.880164 100.966 173.3958
7033.480992 101.006 172.8698
7084.448495 101.068 172.3328
7135.785329 101.156 171.7620
7187.494171 101.272 171.1260
7239.577717 101.417 170.3861
7292.038681 101.589 169.4995
7344.879799 101.782 168.4241
7398.103826 101.992 167.1225
7451.713536 102.208 165.5656
7505.711724 102.423 163.7341
7560.101205 102.628 161.6183
7614.884815 102.815 159.2176
7670.065409 102.974 156.5382
7725.645865 103.101 153.5924
7781.629080 103.188 150.3975
7838.017972 103.230 146.9748
7894.815481 103.223 143.3492
7952.024569 103.162 139.5484
8009.648217 103.045 135.6025
8067.689429 102.869 131.5419
8126.151233 102.635 127.3961
8185.036674 102.344 123.1907
8244.348824 101.996 118.9458
8304.090774 101.596 114.6727
8364.265639 101.148 110.3723
8424.876556 100.657 106.0338
8485.926684 100.128 101.6341
8547.419207 99.566 97.1375
8609.357330 98.978 92.4968
8671.744282 98.367 87.6539
8734.583316 97.739 82.5389
8797.877707 97.097 77.0695
8861.630756 96.446 71.1473
8925.845785 95.791 64.6528
8990.526143 95.136 57.4395
9055.675202 94.488 49.3324
9121.296357 93.857 40.1369
9187.393031 93.254 29.6785
9253.968668 92.693 17.8890
9321.026740 92.187 4.9397
9388.570742 91.750 -8.6642
9456.604196 91.391 -22.1633
9525.130648 91.114 -34.8223
9594.153671 90.915 -46.1885
9663.676863 90.785 -56.1406
9733.703850 90.708 -64.7748
9804.238280 90.665 -72.2739
9875.283832 90.637 -78.8217
9946.844210 90.607 -84.5643
10018.923143 90.560 -89.5979
10091.524390 90.488 -93.9691
10164.651736 90.386 -97.6804
10238.308993 90.257 -100.7021
10312.500000 90.113 -102.9878
10387.228626 89.971 -104.5001
10462.498767 89.854 -105.2450
10538.314345 89.790 -105.3081
10614.679315 89.801 -104.8776
10691.597657 89.900 -104.2307
10769.073381 90.083 -103.6775
10847.110526 90.334 -103.4875
10925.713161 90.628 -103.8370
11004.885382 90.938 -104.7977
11084.631318 91.237 -106.3583
11164.955126 91.506 -108.4571
11245.860993 91.731 -111.0101
11327.353138 91.900 -113.9296
11409.435808 92.010 -117.1326
11492.113283 92.055 -120.5452
11575.389873 92.034 -124.1013
11659.269920 91.948 -127.7430
11743.757796 91.798 -131.4186
11828.857906 91.587 -135.0826
11914.574686 91.317 -138.6966
12000.912606 90.993 -142.2282
12087.876166 90.620 -145.6513
12175.469900 90.202 -148.9443
12263.698373 89.742 -152.0880
12352.566187 89.246 -155.0637
12442.077974 88.718 -157.8521
12532.238400 88.161 -160.4346
12623.052165 87.581 -162.7980
12714.524005 86.989 -164.9426
12806.658687 86.396 -166.8949
12899.461015 85.819 -168.7186
12992.935827 85.277 -170.5223
13087.087996 84.789 -172.4554
13181.922430 84.374 -174.6940
13277.444074 84.044 -177.4185
13373.657907 83.803 179.2042
13470.568945 83.649 175.0293
13568.182241 83.575 169.9280
13666.502883 83.571 163.7734
13765.535996 83.627 156.4231
13865.286744 83.734 147.7099
13965.760328 83.880 137.4462
14066.961984 84.057 125.4606
14168.896989 84.255 111.6844
14271.570658 84.465 96.2903
14374.988342 84.680 79.8026
14479.155433 84.894 63.0311
14584.077362 85.099 46.7854
14689.759598 85.291 31.5883
14796.207652 85.464 17.6102
14903.427072 85.612 4.7809
15011.423448 85.725 -7.0695
15120.202410 85.796 -18.1185
15229.769630 85.813 -28.5085
15340.130819 85.768 -38.3301
15451.291730 85.650 -47.6188
15563.258160 85.452 -56.3577
15676.035944 85.169 -64.4818
15789.630962 84.798 -71.8859
15904.049137 84.340 -78.4384
16019.296433 83.801 -84.0043
16135.378859 83.187 -88.4847
16252.302465 82.509 -91.8722
16370.073348 81.778 -94.3036
16488.697648 81.004 -96.0731
16608.181548 80.197 -97.5673
16728.531278 79.362 -99.1426
16849.753112 78.503 -101.0237
16971.853368 77.621 -103.2811
17094.838414 76.714 -105.8751
17218.714660 75.785 -108.7150
17343.488565 74.833 -111.7018
17469.166632 73.860 -114.7485
17595.755415 72.870 -117.7861
17723.261512 71.870 -120.7610
17851.691571 70.870 -123.6296
17981.052287 69.883 -126.3484
18111.350404 68.929 -128.8564
18242.592715 68.035 -131.0461
18374.786062 67.233 -132.7101
18507.937336 66.559 -133.4520
18642.053479 66.045 -132.5251
18777.141484 65.711 -128.5690
18913.208391 65.558 -119.4371
19050.261296 65.565 -103.6194
19188.307342 65.694 -85.0114
19327.353727 65.901 -71.0715
19467.407699 66.143 -63.5111
19608.476560 66.381 -60.1647
19750.567664 66.586 -59.0062
19893.688419 66.734 -58.7941
20037.846286 66.812 -58.8425
