* Measurement data measured by REW V5.31.3
* Source: EXCL: Headset (USB-C to 3.5mm Headphone Jack Adapter), MICROPHONE (Master Volume), 0, volume: 0.750
* Format: 256k Log Swept Sine, 1 sweep at -12.0 dBFS with no timing reference
* Dated: Apr 7, 2025 4:44:46 PM
* REW Settings:
*  C-weighting compensation: Off
*  Target level: 75.0 dB
* Note: ; 
* Measurement: Satyr 3 (Centered) R1
* Smoothing: 1/6 octave
* Frequency Step: 96 ppo
* Start Frequency: 20.0 Hz
*
* Freq(Hz) SPL(dB) Phase(degrees)
20.187378 79.725 -100.0442
20.333664 79.755 -100.0321
20.481010 79.797 -100.0221
20.629424 79.849 -100.0225
20.778913 79.910 -100.0430
20.929486 79.981 -100.0936
21.081150 80.060 -100.1835
21.233912 80.145 -100.3206
21.387782 80.235 -100.5103
21.542767 80.327 -100.7556
21.698874 80.421 -101.0562
21.856113 80.515 -101.4092
22.014492 80.607 -101.8090
22.174018 80.697 -102.2482
22.334700 80.783 -102.7181
22.496546 80.867 -103.2091
22.659566 80.947 -103.7120
22.823766 81.026 -104.2183
22.989157 81.102 -104.7208
23.155745 81.178 -105.2139
23.323542 81.254 -105.6939
23.492554 81.330 -106.1591
23.662790 81.408 -106.6093
23.834261 81.487 -107.0458
24.006973 81.567 -107.4706
24.180938 81.649 -107.8864
24.356163 81.729 -108.2954
24.532658 81.809 -108.6995
24.710431 81.886 -109.0998
24.889493 81.959 -109.4964
25.069853 82.027 -109.8884
25.251519 82.089 -110.2746
25.434502 82.144 -110.6532
25.618811 82.192 -111.0228
25.804456 82.233 -111.3823
25.991445 82.266 -111.7319
26.179790 82.294 -112.0730
26.369500 82.317 -112.4087
26.560584 82.336 -112.7436
26.753053 82.354 -113.0837
26.946917 82.371 -113.4356
27.142185 82.390 -113.8062
27.338869 82.411 -114.2018
27.536977 82.435 -114.6268
27.736522 82.462 -115.0836
27.937512 82.492 -115.5718
28.139959 82.526 -116.0881
28.343872 82.562 -116.6262
28.549264 82.600 -117.1782
28.756143 82.640 -117.7344
28.964522 82.680 -118.2850
29.174411 82.721 -118.8210
29.385821 82.762 -119.3350
29.598763 82.804 -119.8221
29.813248 82.846 -120.2802
30.029287 82.888 -120.7103
30.246891 82.932 -121.1161
30.466073 82.977 -121.5035
30.686842 83.023 -121.8800
30.909212 83.071 -122.2537
31.133193 83.122 -122.6323
31.358797 83.175 -123.0227
31.586035 83.231 -123.4304
31.814921 83.289 -123.8587
32.045465 83.350 -124.3091
32.277680 83.415 -124.7813
32.511577 83.482 -125.2732
32.747169 83.554 -125.7818
32.984469 83.628 -126.3032
33.223488 83.707 -126.8331
33.464239 83.788 -127.3674
33.706735 83.873 -127.9023
33.950987 83.961 -128.4346
34.197010 84.052 -128.9617
34.444816 84.145 -129.4818
34.694417 84.240 -129.9936
34.945827 84.336 -130.4966
35.199059 84.433 -130.9904
35.454126 84.530 -131.4748
35.711041 84.626 -131.9496
35.969818 84.721 -132.4145
36.230470 84.814 -132.8689
36.493011 84.905 -133.3122
36.757455 84.994 -133.7439
37.023814 85.079 -134.1637
37.292104 85.160 -134.5719
37.562338 85.239 -134.9695
37.834530 85.314 -135.3580
38.108695 85.386 -135.7399
38.384846 85.455 -136.1179
38.662999 85.522 -136.4950
38.943167 85.588 -136.8742
39.225365 85.652 -137.2581
39.509608 85.715 -137.6488
39.795911 85.777 -138.0472
40.084289 85.840 -138.4536
40.374756 85.903 -138.8676
40.667328 85.966 -139.2881
40.962020 86.029 -139.7139
41.258848 86.092 -140.1444
41.557827 86.155 -140.5790
41.858972 86.218 -141.0179
42.162299 86.279 -141.4614
42.467824 86.339 -141.9101
42.775564 86.396 -142.3643
43.085533 86.451 -142.8242
43.397749 86.503 -143.2900
43.712227 86.552 -143.7623
44.028983 86.600 -144.2420
44.348036 86.647 -144.7301
44.669400 86.691 -145.2273
44.993093 86.735 -145.7336
45.319131 86.778 -146.2471
45.647532 86.820 -146.7650
45.978313 86.860 -147.2836
46.311491 86.899 -147.7992
46.647083 86.937 -148.3098
46.985107 86.974 -148.8150
47.325581 87.009 -149.3165
47.668521 87.042 -149.8168
48.013947 87.072 -150.3186
48.361876 87.100 -150.8236
48.712326 87.123 -151.3323
49.065315 87.143 -151.8441
49.420863 87.159 -152.3578
49.778987 87.171 -152.8726
50.139706 87.179 -153.3878
50.503039 87.185 -153.9034
50.869005 87.188 -154.4198
51.237623 87.189 -154.9369
51.608912 87.189 -155.4545
51.982891 87.187 -155.9715
52.359580 87.185 -156.4864
52.739000 87.182 -156.9971
53.121168 87.179 -157.5014
53.506106 87.175 -157.9972
53.893833 87.172 -158.4831
54.284370 87.168 -158.9582
54.677737 87.165 -159.4223
55.073955 87.160 -159.8756
55.473043 87.156 -160.3184
55.875024 87.150 -160.7505
56.279917 87.143 -161.1719
56.687745 87.135 -161.5828
57.098527 87.126 -161.9843
57.512287 87.117 -162.3786
57.929045 87.108 -162.7696
58.348822 87.100 -163.1624
58.771642 87.094 -163.5636
59.197525 87.093 -163.9805
59.626495 87.098 -164.4197
60.058573 87.108 -164.8862
60.493782 87.125 -165.3809
60.932145 87.147 -165.9005
61.373685 87.173 -166.4376
61.818424 87.201 -166.9832
62.266386 87.232 -167.5285
62.717593 87.263 -168.0669
63.172071 87.295 -168.5952
63.629842 87.327 -169.1126
64.090930 87.359 -169.6202
64.555359 87.390 -170.1198
65.023154 87.421 -170.6132
65.494339 87.452 -171.1016
65.968938 87.482 -171.5860
66.446976 87.511 -172.0668
66.928478 87.539 -172.5443
67.413469 87.565 -173.0183
67.901975 87.589 -173.4885
68.394021 87.612 -173.9542
68.889632 87.632 -174.4146
69.388835 87.651 -174.8688
69.891655 87.667 -175.3157
70.398118 87.681 -175.7544
70.908252 87.692 -176.1841
71.422083 87.701 -176.6046
71.939636 87.707 -177.0162
72.460941 87.710 -177.4201
72.986023 87.710 -177.8179
73.514909 87.707 -178.2115
74.047629 87.702 -178.6027
74.584208 87.694 -178.9930
75.124676 87.684 -179.3831
75.669061 87.671 -179.7737
76.217390 87.657 179.8354
76.769692 87.640 179.4448
77.325997 87.622 179.0550
77.886333 87.602 178.6670
78.450730 87.581 178.2817
79.019216 87.558 177.8997
79.591822 87.534 177.5213
80.168577 87.509 177.1465
80.749512 87.483 176.7748
81.334656 87.457 176.4059
81.924040 87.429 176.0396
82.517696 87.401 175.6760
83.115653 87.372 175.3152
83.717943 87.343 174.9574
84.324598 87.314 174.6029
84.935649 87.286 174.2516
85.551128 87.257 173.9031
86.171066 87.229 173.5569
86.795497 87.202 173.2123
87.424453 87.174 172.8693
88.057967 87.147 172.5277
88.696071 87.120 172.1880
89.338800 87.093 171.8506
89.986185 87.066 171.5157
90.638262 87.038 171.1837
91.295065 87.011 170.8546
91.956626 86.982 170.5287
92.622982 86.953 170.2063
93.294166 86.924 169.8875
93.970214 86.893 169.5723
94.651161 86.862 169.2604
95.337042 86.830 168.9511
96.027894 86.799 168.6438
96.723752 86.767 168.3380
97.424652 86.736 168.0338
98.130631 86.706 167.7315
98.841726 86.677 167.4323
99.557974 86.648 167.1370
100.279412 86.621 166.8464
101.006078 86.595 166.5610
101.738010 86.570 166.2803
102.475245 86.545 166.0035
103.217823 86.522 165.7289
103.965782 86.498 165.4547
104.719161 86.475 165.1794
105.477999 86.453 164.9017
106.242336 86.430 164.6209
107.012212 86.408 164.3369
107.787666 86.386 164.0503
108.568740 86.366 163.7621
109.355474 86.346 163.4736
110.147909 86.328 163.1861
110.946086 86.310 162.9008
111.750047 86.294 162.6187
112.559834 86.280 162.3403
113.375489 86.266 162.0662
114.197055 86.252 161.7963
115.024574 86.239 161.5309
115.858089 86.226 161.2698
116.697645 86.212 161.0128
117.543284 86.199 160.7595
118.395051 86.185 160.5090
119.252990 86.170 160.2609
120.117147 86.155 160.0143
120.987565 86.138 159.7689
121.864291 86.122 159.5245
122.747370 86.105 159.2814
123.636848 86.087 159.0399
124.532771 86.068 158.8004
125.435187 86.049 158.5630
126.344142 86.029 158.3280
127.259684 86.007 158.0948
128.181860 85.985 157.8630
129.110718 85.961 157.6317
130.046308 85.936 157.3997
130.988677 85.909 157.1658
131.937875 85.881 156.9291
132.893951 85.850 156.6890
133.856956 85.817 156.4462
134.826938 85.782 156.2018
135.803950 85.746 155.9580
136.788041 85.708 155.7173
137.779264 85.669 155.4826
138.777669 85.628 155.2566
139.783309 85.585 155.0421
140.796237 85.540 154.8414
141.816504 85.493 154.6563
142.844165 85.444 154.4879
143.879273 85.393 154.3364
144.921881 85.340 154.2012
145.972045 85.286 154.0815
147.029819 85.231 153.9763
148.095257 85.175 153.8848
149.168417 85.118 153.8064
150.249353 85.062 153.7404
151.338121 85.005 153.6861
152.434780 84.948 153.6423
153.539385 84.892 153.6083
154.651995 84.837 153.5831
155.772667 84.783 153.5661
156.901460 84.729 153.5568
158.038432 84.677 153.5549
159.183644 84.627 153.5604
160.337154 84.578 153.5734
161.499023 84.530 153.5944
162.669312 84.484 153.6241
163.848081 84.441 153.6633
165.035392 84.399 153.7131
166.231306 84.359 153.7741
167.435887 84.321 153.8468
168.649196 84.286 153.9310
169.871298 84.253 154.0258
171.102255 84.222 154.1297
172.342133 84.194 154.2407
173.590995 84.168 154.3564
174.848907 84.145 154.4745
176.115934 84.125 154.5932
177.392143 84.107 154.7108
178.677599 84.093 154.8261
179.972371 84.081 154.9385
181.276525 84.071 155.0469
182.590129 84.063 155.1499
183.913252 84.056 155.2458
185.245964 84.051 155.3325
186.588332 84.048 155.4077
187.940428 84.045 155.4694
189.302322 84.044 155.5154
190.674085 84.043 155.5433
192.055788 84.043 155.5511
193.447503 84.043 155.5375
194.849303 84.044 155.5027
196.261262 84.046 155.4478
197.683452 84.048 155.3749
199.115948 84.050 155.2866
200.558824 84.053 155.1856
202.012156 84.055 155.0749
203.476019 84.056 154.9574
204.950490 84.056 154.8355
206.435646 84.055 154.7108
207.931564 84.052 154.5837
209.438322 84.047 154.4539
210.955998 84.042 154.3205
212.484672 84.035 154.1826
214.024424 84.028 154.0400
215.575333 84.021 153.8933
217.137481 84.014 153.7440
218.710948 84.007 153.5942
220.295818 84.001 153.4457
221.892172 83.996 153.3003
223.500094 83.992 153.1586
225.119668 83.988 153.0207
226.750978 83.986 152.8864
228.394109 83.984 152.7549
230.049147 83.983 152.6254
231.716178 83.983 152.4968
233.395289 83.983 152.3680
235.086567 83.983 152.2380
236.790102 83.984 152.1065
238.505980 83.984 151.9733
240.234293 83.984 151.8384
241.975130 83.983 151.7021
243.728581 83.982 151.5645
245.494739 83.980 151.4259
247.273695 83.979 151.2867
249.065542 83.977 151.1477
250.870374 83.975 151.0102
252.688284 83.973 150.8755
254.519367 83.970 150.7450
256.363720 83.968 150.6193
258.221437 83.966 150.4979
260.092616 83.964 150.3794
261.977354 83.962 150.2620
263.875750 83.960 150.1442
265.787903 83.959 150.0252
267.713911 83.958 149.9047
269.653877 83.958 149.7833
271.607900 83.958 149.6616
273.576083 83.959 149.5404
275.558528 83.961 149.4201
277.555338 83.964 149.3012
279.566619 83.967 149.1841
281.592474 83.970 149.0691
283.633009 83.973 148.9567
285.688331 83.977 148.8472
287.758546 83.981 148.7408
289.843763 83.985 148.6370
291.944090 83.988 148.5351
294.059638 83.992 148.4340
296.190515 83.995 148.3329
298.336833 83.999 148.2313
300.498705 84.002 148.1286
302.676243 84.006 148.0248
304.869559 84.010 147.9200
307.078770 84.015 147.8143
309.303989 84.021 147.7084
311.545334 84.027 147.6029
313.802919 84.034 147.4987
316.076865 84.042 147.3963
318.367288 84.050 147.2962
320.674309 84.058 147.1981
322.998047 84.067 147.1014
325.338624 84.075 147.0052
327.696162 84.083 146.9084
330.070783 84.090 146.8103
332.462612 84.096 146.7106
334.871773 84.102 146.6096
337.298392 84.106 146.5081
339.742595 84.109 146.4071
342.204510 84.110 146.3077
344.684265 84.111 146.2110
347.181989 84.109 146.1180
349.697813 84.107 146.0297
352.231868 84.103 145.9464
354.784285 84.098 145.8679
357.355198 84.092 145.7935
359.944741 84.085 145.7219
362.553049 84.077 145.6521
365.180258 84.069 145.5833
367.826505 84.060 145.5150
370.491927 84.050 145.4466
373.176665 84.041 145.3778
375.880856 84.032 145.3084
378.604644 84.023 145.2382
381.348169 84.014 145.1666
384.111575 84.005 145.0930
386.895006 83.997 145.0163
389.698607 83.988 144.9356
392.522524 83.979 144.8502
395.366904 83.970 144.7594
398.231895 83.960 144.6633
401.117648 83.949 144.5621
404.024312 83.937 144.4561
406.952038 83.924 144.3458
409.900981 83.909 144.2320
412.871292 83.893 144.1157
415.863128 83.875 143.9987
418.876643 83.854 143.8830
421.911996 83.830 143.7714
424.969344 83.803 143.6671
428.048847 83.774 143.5736
431.150666 83.743 143.4940
434.274961 83.709 143.4305
437.421897 83.675 143.3834
440.591636 83.641 143.3510
443.784345 83.608 143.3293
447.000189 83.575 143.3140
450.239337 83.544 143.3002
453.501956 83.514 143.2845
456.788219 83.484 143.2645
460.098294 83.456 143.2389
463.432356 83.428 143.2077
466.790578 83.400 143.1714
470.173135 83.373 143.1310
473.580203 83.347 143.0876
477.011961 83.321 143.0423
480.468586 83.296 142.9960
483.950259 83.272 142.9491
487.457163 83.249 142.9018
490.989478 83.228 142.8536
494.547390 83.207 142.8040
498.131084 83.189 142.7526
501.740748 83.171 142.6989
505.376568 83.155 142.6430
509.038735 83.141 142.5848
512.727439 83.128 142.5245
516.442874 83.117 142.4622
520.185232 83.108 142.3980
523.954708 83.100 142.3319
527.751500 83.095 142.2644
531.575805 83.091 142.1960
535.427822 83.090 142.1271
539.307753 83.090 142.0582
543.215800 83.093 141.9895
547.152165 83.098 141.9209
551.117055 83.105 141.8522
555.110677 83.113 141.7835
559.133237 83.124 141.7146
563.184947 83.136 141.6456
567.266018 83.150 141.5770
571.376661 83.165 141.5092
575.517092 83.181 141.4427
579.687526 83.198 141.3781
583.888181 83.216 141.3162
588.119275 83.235 141.2575
592.381030 83.254 141.2026
596.673667 83.273 141.1516
600.997410 83.293 141.1045
605.352485 83.312 141.0607
609.739119 83.332 141.0194
614.157540 83.352 140.9789
618.607979 83.372 140.9374
623.090667 83.393 140.8921
627.605839 83.413 140.8403
632.153730 83.434 140.7796
636.734576 83.453 140.7076
641.348617 83.472 140.6232
645.996094 83.490 140.5256
650.677248 83.506 140.4153
655.392323 83.520 140.2932
660.141566 83.531 140.1609
664.925224 83.540 140.0206
669.743546 83.547 139.8745
674.596784 83.550 139.7254
679.485191 83.551 139.5761
684.409020 83.549 139.4292
689.368530 83.546 139.2867
694.363979 83.541 139.1497
699.395626 83.535 139.0179
704.463736 83.529 138.8897
709.568570 83.521 138.7629
714.710396 83.514 138.6351
719.889483 83.505 138.5044
725.106099 83.495 138.3696
730.360516 83.484 138.2303
735.653010 83.471 138.0864
740.983855 83.456 137.9384
746.353329 83.439 137.7871
751.761713 83.420 137.6334
757.209288 83.398 137.4785
762.696339 83.375 137.3239
768.223151 83.349 137.1711
773.790013 83.321 137.0218
779.397214 83.291 136.8772
785.045047 83.260 136.7382
790.733808 83.229 136.6053
796.463791 83.196 136.4784
802.235296 83.164 136.3572
808.048623 83.131 136.2412
813.904077 83.099 136.1295
819.801961 83.068 136.0213
825.742584 83.039 135.9155
831.726255 83.011 135.8107
837.753287 82.985 135.7052
843.823992 82.960 135.5972
849.938689 82.938 135.4852
856.097695 82.916 135.3679
862.301332 82.897 135.2450
868.549922 82.878 135.1166
874.843793 82.860 134.9837
881.183272 82.844 134.8475
887.568689 82.828 134.7096
894.000378 82.812 134.5711
900.478673 82.798 134.4329
907.003913 82.784 134.2951
913.576437 82.772 134.1579
920.196588 82.761 134.0212
926.864712 82.751 133.8852
933.581156 82.743 133.7499
940.346270 82.737 133.6159
947.160407 82.732 133.4832
954.023921 82.729 133.3521
960.937172 82.729 133.2225
967.900519 82.731 133.0939
974.914325 82.735 132.9652
981.978956 82.743 132.8351
989.094780 82.753 132.7019
996.262169 82.767 132.5638
1003.481495 82.784 132.4193
1010.753136 82.803 132.2666
1018.077470 82.825 132.1044
1025.454879 82.849 131.9313
1032.885748 82.876 131.7464
1040.370463 82.903 131.5492
1047.909417 82.932 131.3401
1055.503000 82.960 131.1202
1063.151610 82.989 130.8914
1070.855645 83.016 130.6562
1078.615506 83.042 130.4170
1086.431599 83.067 130.1763
1094.304330 83.091 129.9362
1102.234110 83.113 129.6984
1110.221353 83.133 129.4640
1118.266475 83.152 129.2340
1126.369895 83.170 129.0093
1134.532035 83.186 128.7905
1142.753322 83.201 128.5782
1151.034184 83.214 128.3727
1159.375052 83.227 128.1747
1167.776361 83.238 127.9843
1176.238550 83.247 127.8021
1184.762060 83.256 127.6281
1193.347334 83.263 127.4625
1201.994821 83.270 127.3057
1210.704971 83.275 127.1580
1219.478238 83.280 127.0201
1228.315080 83.285 126.8925
1237.215957 83.289 126.7760
1246.181334 83.293 126.6709
1255.211678 83.298 126.5773
1264.307459 83.303 126.4952
1273.469152 83.309 126.4246
1282.697235 83.316 126.3649
1291.992188 83.324 126.3147
1301.354495 83.333 126.2725
1310.784647 83.343 126.2363
1320.283132 83.354 126.2043
1329.850448 83.365 126.1753
1339.487093 83.378 126.1484
1349.193569 83.390 126.1230
1358.970381 83.403 126.0994
1368.818041 83.416 126.0782
1378.737061 83.429 126.0602
1388.727958 83.442 126.0465
1398.791253 83.455 126.0381
1408.927471 83.470 126.0356
1419.137140 83.485 126.0401
1429.420793 83.501 126.0521
1439.778965 83.518 126.0722
1450.212197 83.537 126.1008
1460.721033 83.557 126.1383
1471.306019 83.579 126.1856
1481.967709 83.602 126.2434
1492.706658 83.626 126.3121
1503.523426 83.651 126.3917
1514.418576 83.677 126.4816
1525.392678 83.703 126.5816
1536.446302 83.729 126.6911
1547.580025 83.754 126.8100
1558.794428 83.778 126.9388
1570.090095 83.799 127.0787
1581.467615 83.818 127.2321
1592.927581 83.834 127.4021
1604.470591 83.847 127.5923
1616.097246 83.858 127.8058
1627.808153 83.866 128.0451
1639.603922 83.873 128.3112
1651.485168 83.880 128.6033
1663.452510 83.886 128.9189
1675.506573 83.894 129.2540
1687.647984 83.903 129.6032
1699.877377 83.914 129.9611
1712.195390 83.927 130.3219
1724.602663 83.943 130.6803
1737.099845 83.960 131.0314
1749.687587 83.980 131.3713
1762.366544 84.001 131.6966
1775.137379 84.023 132.0054
1788.000756 84.046 132.2964
1800.957346 84.069 132.5695
1814.007826 84.091 132.8254
1827.152874 84.113 133.0657
1840.393177 84.133 133.2927
1853.729425 84.151 133.5092
1867.162312 84.167 133.7183
1880.692540 84.181 133.9226
1894.320813 84.194 134.1234
1908.047843 84.204 134.3209
1921.874344 84.213 134.5139
1935.801038 84.221 134.7003
1949.828650 84.227 134.8776
1963.957912 84.232 135.0436
1978.189561 84.235 135.1964
1992.524338 84.237 135.3355
2006.962991 84.236 135.4609
2021.506272 84.232 135.5734
2036.154940 84.227 135.6737
2050.909758 84.220 135.7625
2065.771495 84.210 135.8401
2080.740927 84.199 135.9067
2095.818833 84.186 135.9625
2111.006001 84.172 136.0080
2126.303220 84.156 136.0439
2141.711290 84.139 136.0711
2157.231013 84.122 136.0904
2172.863198 84.103 136.1024
2188.608660 84.084 136.1074
2204.468221 84.064 136.1055
2220.442706 84.044 136.0964
2236.532950 84.024 136.0803
2252.739789 84.004 136.0574
2269.064070 83.983 136.0289
2285.506644 83.962 135.9964
2302.068367 83.942 135.9617
2318.750104 83.921 135.9262
2335.552723 83.901 135.8907
2352.477101 83.883 135.8547
2369.524119 83.867 135.8166
2386.694668 83.852 135.7738
2403.989641 83.840 135.7231
2421.409941 83.831 135.6610
2438.956476 83.824 135.5840
2456.630160 83.820 135.4888
2474.431915 83.817 135.3730
2492.362668 83.814 135.2353
2510.423356 83.813 135.0756
2528.614918 83.810 134.8956
2546.938304 83.806 134.6982
2565.394469 83.800 134.4877
2583.984375 83.791 134.2700
2602.708991 83.778 134.0517
2621.569293 83.762 133.8405
2640.566265 83.742 133.6444
2659.700897 83.718 133.4716
2678.974186 83.691 133.3294
2698.387137 83.662 133.2241
2717.940763 83.631 133.1604
2737.636082 83.600 133.1412
2757.474121 83.569 133.1674
2777.455915 83.539 133.2383
2797.582506 83.510 133.3522
2817.854942 83.483 133.5067
2838.274281 83.458 133.6999
2858.841586 83.434 133.9306
2879.557931 83.412 134.1993
2900.424394 83.391 134.5079
2921.442065 83.370 134.8596
2942.612039 83.350 135.2580
2963.935418 83.332 135.7068
2985.413316 83.315 136.2087
3007.046852 83.300 136.7649
3028.837153 83.289 137.3745
3050.785356 83.281 138.0344
3072.892604 83.277 138.7393
3095.160050 83.278 139.4818
3117.588856 83.283 140.2534
3140.180190 83.294 141.0439
3162.935230 83.309 141.8428
3185.855163 83.329 142.6388
3208.941182 83.352 143.4208
3232.194493 83.379 144.1782
3255.616307 83.407 144.9013
3279.207844 83.436 145.5826
3302.970336 83.463 146.2168
3326.905021 83.489 146.8020
3351.013146 83.511 147.3395
3375.295969 83.529 147.8339
3399.754755 83.541 148.2919
3424.390779 83.547 148.7212
3449.205326 83.549 149.1290
3474.199690 83.547 149.5201
3499.375173 83.541 149.8964
3524.733088 83.535 150.2561
3550.274757 83.527 150.5943
3576.001511 83.520 150.9039
3601.914692 83.513 151.1769
3628.015651 83.507 151.4062
3654.305748 83.500 151.5867
3680.786354 83.492 151.7166
3707.458849 83.480 151.7981
3734.324624 83.465 151.8372
3761.385080 83.443 151.8430
3788.641627 83.416 151.8279
3816.095686 83.381 151.8054
3843.748688 83.340 151.7900
3871.602076 83.291 151.7957
3899.657300 83.237 151.8354
3927.915825 83.178 151.9208
3956.379122 83.116 152.0609
3985.048676 83.051 152.2626
4013.925981 82.985 152.5305
4043.012544 82.920 152.8664
4072.309879 82.857 153.2701
4101.819515 82.796 153.7398
4131.542990 82.739 154.2723
4161.481854 82.684 154.8638
4191.637667 82.634 155.5108
4222.012001 82.587 156.2097
4252.606441 82.542 156.9576
4283.422580 82.501 157.7521
4314.462026 82.462 158.5907
4345.726396 82.425 159.4714
4377.217321 82.389 160.3925
4408.936442 82.355 161.3521
4440.885413 82.322 162.3490
4473.065899 82.289 163.3819
4505.479579 82.258 164.4500
4538.128141 82.227 165.5524
4571.013288 82.197 166.6886
4604.136735 82.170 167.8577
4637.500207 82.144 169.0586
4671.105446 82.121 170.2895
4704.954201 82.102 171.5479
4739.048239 82.087 172.8303
4773.389336 82.078 174.1329
4807.979283 82.076 175.4509
4842.819883 82.081 176.7791
4877.912952 82.093 178.1119
4913.260320 82.114 179.4436
4948.863830 82.143 -179.2315
4984.725337 82.182 -177.9193
5020.846712 82.230 -176.6250
5057.229836 82.286 -175.3530
5093.876609 82.350 -174.1067
5130.788938 82.423 -172.8877
5167.968750 82.502 -171.6956
5205.417982 82.588 -170.5280
5243.138586 82.679 -169.3801
5281.132530 82.776 -168.2454
5319.401793 82.879 -167.1160
5357.948371 82.987 -165.9828
5396.774274 83.101 -164.8367
5435.881525 83.222 -163.6685
5475.272163 83.350 -162.4701
5514.948243 83.489 -161.2345
5554.911831 83.638 -159.9569
5595.165012 83.801 -158.6353
5635.709884 83.980 -157.2712
5676.548561 84.175 -155.8703
5717.683172 84.390 -154.4437
5759.115861 84.625 -153.0078
5800.848789 84.882 -151.5846
5842.884130 85.161 -150.2011
5885.224077 85.460 -148.8881
5927.870837 85.778 -147.6783
5970.826633 86.111 -146.6040
6014.093704 86.457 -145.6950
6057.674306 86.811 -144.9762
6101.570711 87.168 -144.4665
6145.785208 87.523 -144.1777
6190.320101 87.872 -144.1144
6235.177712 88.210 -144.2744
6280.360380 88.534 -144.6492
6325.870460 88.839 -145.2247
6371.710325 89.123 -145.9832
6417.882365 89.384 -146.9043
6464.388986 89.622 -147.9671
6511.232613 89.836 -149.1522
6558.415689 90.027 -150.4428
6605.940673 90.196 -151.8262
6653.810042 90.343 -153.2946
6702.026292 90.470 -154.8440
6750.591937 90.576 -156.4740
6799.509509 90.661 -158.1861
6848.781558 90.725 -159.9820
6898.410653 90.766 -161.8623
6948.399380 90.783 -163.8253
6998.750346 90.772 -165.8659
7049.466176 90.733 -167.9752
7100.549514 90.663 -170.1412
7152.003023 90.560 -172.3489
7203.829385 90.424 -174.5815
7256.031302 90.254 -176.8214
7308.611496 90.051 -179.0518
7361.572708 89.814 178.7427
7414.917698 89.545 176.5746
7468.649249 89.246 174.4530
7522.770160 88.919 172.3834
7577.283253 88.566 170.3665
7632.191371 88.188 168.3994
7687.497376 87.788 166.4750
7743.204151 87.367 164.5824
7799.314600 86.928 162.7076
7855.831649 86.470 160.8338
7912.758244 85.996 158.9414
7970.097352 85.505 157.0085
8027.851962 84.998 155.0103
8086.025087 84.476 152.9188
8144.619758 83.937 150.7021
8203.639030 83.383 148.3229
8263.085980 82.814 145.7368
8322.963708 82.230 142.8912
8383.275334 81.632 139.7223
8444.024002 81.023 136.1526
8505.212881 80.406 132.0861
8566.845160 79.787 127.4038
8628.924051 79.177 121.9608
8691.452792 78.589 115.5913
8754.434642 78.044 108.1319
8817.872884 77.568 99.4791
8881.770826 77.191 89.6860
8946.131799 76.943 79.0599
9010.959157 76.845 68.1663
9076.256282 76.907 57.6635
9142.026576 77.121 48.0636
9208.273470 77.467 39.5997
9275.000415 77.914 32.2565
9342.210891 78.432 25.8778
9409.908403 78.990 20.2592
9478.096478 79.566 15.2007
9546.778672 80.140 10.5300
9615.958566 80.697 6.1071
9685.639765 81.224 1.8235
9755.825904 81.713 -2.4018
9826.520640 82.154 -6.6259
9897.727659 82.541 -10.8853
9969.450674 82.868 -15.1989
10041.693423 83.129 -19.5702
10114.459673 83.321 -23.9896
10187.753217 83.441 -28.4374
10261.577877 83.486 -32.8864
10335.937500 83.457 -37.3046
10410.835964 83.354 -41.6589
10486.277173 83.178 -45.9169
10562.265060 82.932 -50.0479
10638.803587 82.618 -54.0238
10715.896743 82.239 -57.8181
10793.548548 81.797 -61.4069
10871.763050 81.296 -64.7677
10950.544327 80.739 -67.8811
11029.896485 80.130 -70.7314
11109.823662 79.471 -73.3085
11190.330024 78.768 -75.6099
11271.419768 78.024 -77.6422
11353.097122 77.245 -79.4229
11435.366344 76.435 -80.9822
11518.231722 75.601 -82.3635
11601.697577 74.748 -83.6256
11685.768261 73.883 -84.8431
11770.448155 73.014 -86.1069
11855.741674 72.150 -87.5239
11941.653265 71.301 -89.2147
12028.187408 70.484 -91.3101
12115.348612 69.716 -93.9447
12203.141422 69.021 -97.2477
12291.570415 68.425 -101.3264
12380.640201 67.955 -106.2433
12470.355424 67.633 -111.9866
12560.720760 67.468 -118.4474
12651.740920 67.453 -125.4196
12743.420650 67.567 -132.6337
12835.764729 67.780 -139.8152
12928.777972 68.058 -146.7399
13022.465227 68.373 -153.2599
13116.831378 68.700 -159.3030
13211.881345 69.022 -164.8526
13307.620084 69.328 -169.9276
13404.052584 69.611 -174.5654
13501.183875 69.865 -178.8103
13599.019019 70.088 177.2923
13697.563116 70.277 173.7006
13796.821305 70.432 170.3779
13896.798760 70.551 167.2932
13997.500692 70.634 164.4213
14098.932352 70.679 161.7427
14201.099028 70.688 159.2423
14304.006046 70.659 156.9087
14407.658770 70.595 154.7329
14512.062604 70.497 152.7065
14617.222992 70.364 150.8215
14723.145416 70.199 149.0705
14829.835397 70.000 147.4494
14937.298497 69.769 145.9602
15045.540320 69.503 144.6129
15154.566507 69.203 143.4272
15264.382743 68.869 142.4343
15374.994752 68.500 141.6775
15486.408302 68.099 141.2135
15598.629201 67.671 141.1121
15711.663298 67.222 141.4514
15825.516487 66.763 142.3096
15940.194703 66.312 143.7460
16055.703925 65.887 145.7710
16172.050174 65.512 148.3082
16289.239516 65.211 151.1636
16407.278061 65.000 154.0334
16526.171961 64.886 156.5649
16645.927415 64.859 158.4483
16766.550667 64.902 159.4856
16888.048005 64.986 159.6053
17010.425762 65.086 158.8333
17133.690320 65.177 157.2515
17257.848103 65.241 154.9641
17382.905584 65.265 152.0760
17508.869284 65.240 148.6821
17635.745768 65.164 144.8617
17763.541652 65.036 140.6759
17892.263597 64.860 136.1660
18021.918315 64.643 131.3525
18152.512564 64.392 126.2346
18284.053153 64.117 120.7904
18416.546939 63.831 114.9783
18550.000830 63.546 108.7361
18684.421783 63.276 101.9854
18819.816805 63.036 94.6400
18956.192956 62.838 86.6318
19093.557344 62.690 77.9656
19231.917131 62.591 68.8000
19371.279531 62.534 59.5308
19511.651807 62.509 50.8003
19653.041280 62.502 43.3867
19795.455318 62.503 38.0135
19938.901348 62.505 35.1984
