* Measurement data measured by REW V5.31.3
* Source: EXCL: Headset (USB-C to 3.5mm Headphone Jack Adapter), MICROPHONE (Master Volume), 0, volume: 0.750
* Format: 256k Log Swept Sine, 1 sweep at -12.0 dBFS with no timing reference
* Dated: Apr 7, 2025 4:45:28 PM
* REW Settings:
*  C-weighting compensation: Off
*  Target level: 75.0 dB
* Note: ; 
* Measurement: Satyr 3 (Centered) R3
* Smoothing: 1/6 octave
* Frequency Step: 96 ppo
* Start Frequency: 20.0 Hz
*
* Freq(Hz) SPL(dB) Phase(degrees)
20.187378 79.634 -101.3363
20.333664 79.672 -101.3626
20.481010 79.724 -101.3978
20.629424 79.788 -101.4414
20.778913 79.865 -101.4937
20.929486 79.953 -101.5558
21.081150 80.052 -101.6304
21.233912 80.159 -101.7207
21.387782 80.273 -101.8310
21.542767 80.392 -101.9657
21.698874 80.515 -102.1294
21.856113 80.639 -102.3259
22.014492 80.762 -102.5584
22.174018 80.883 -102.8287
22.334700 81.000 -103.1376
22.496546 81.111 -103.4845
22.659566 81.216 -103.8676
22.823766 81.314 -104.2838
22.989157 81.404 -104.7295
23.155745 81.485 -105.2002
23.323542 81.559 -105.6911
23.492554 81.626 -106.1975
23.662790 81.686 -106.7145
23.834261 81.740 -107.2375
24.006973 81.790 -107.7623
24.180938 81.835 -108.2849
24.356163 81.877 -108.8016
24.532658 81.916 -109.3086
24.710431 81.954 -109.8028
24.889493 81.991 -110.2809
25.069853 82.028 -110.7399
25.251519 82.064 -111.1773
25.434502 82.100 -111.5914
25.618811 82.136 -111.9812
25.804456 82.172 -112.3471
25.991445 82.208 -112.6905
26.179790 82.245 -113.0146
26.369500 82.282 -113.3235
26.560584 82.320 -113.6225
26.753053 82.357 -113.9174
26.946917 82.394 -114.2145
27.142185 82.431 -114.5195
27.338869 82.467 -114.8374
27.536977 82.504 -115.1723
27.736522 82.540 -115.5270
27.937512 82.577 -115.9028
28.139959 82.614 -116.3002
28.343872 82.653 -116.7181
28.549264 82.693 -117.1550
28.756143 82.736 -117.6082
28.964522 82.781 -118.0748
29.174411 82.829 -118.5510
29.385821 82.880 -119.0330
29.598763 82.934 -119.5169
29.813248 82.990 -119.9987
30.029287 83.047 -120.4753
30.246891 83.106 -120.9442
30.466073 83.166 -121.4046
30.686842 83.226 -121.8568
30.909212 83.286 -122.3033
31.133193 83.347 -122.7476
31.358797 83.406 -123.1943
31.586035 83.466 -123.6482
31.814921 83.525 -124.1137
32.045465 83.584 -124.5935
32.277680 83.642 -125.0887
32.511577 83.701 -125.5980
32.747169 83.760 -126.1181
32.984469 83.820 -126.6441
33.223488 83.883 -127.1698
33.464239 83.950 -127.6893
33.706735 84.020 -128.1968
33.950987 84.094 -128.6878
34.197010 84.174 -129.1593
34.444816 84.258 -129.6097
34.694417 84.346 -130.0394
34.945827 84.437 -130.4498
35.199059 84.531 -130.8441
35.454126 84.626 -131.2262
35.711041 84.721 -131.6010
35.969818 84.815 -131.9736
36.230470 84.908 -132.3490
36.493011 84.999 -132.7310
36.757455 85.087 -133.1223
37.023814 85.172 -133.5238
37.292104 85.255 -133.9345
37.562338 85.334 -134.3523
37.834530 85.411 -134.7742
38.108695 85.487 -135.1972
38.384846 85.561 -135.6188
38.662999 85.634 -136.0372
38.943167 85.706 -136.4514
39.225365 85.776 -136.8607
39.509608 85.844 -137.2645
39.795911 85.910 -137.6622
40.084289 85.974 -138.0529
40.374756 86.035 -138.4360
40.667328 86.093 -138.8115
40.962020 86.150 -139.1800
41.258848 86.204 -139.5428
41.557827 86.258 -139.9018
41.858972 86.310 -140.2586
42.162299 86.360 -140.6151
42.467824 86.409 -140.9729
42.775564 86.456 -141.3335
43.085533 86.502 -141.6995
43.397749 86.545 -142.0741
43.712227 86.587 -142.4615
44.028983 86.627 -142.8663
44.348036 86.666 -143.2925
44.669400 86.704 -143.7427
44.993093 86.741 -144.2176
45.319131 86.777 -144.7154
45.647532 86.814 -145.2328
45.978313 86.851 -145.7652
46.311491 86.889 -146.3082
46.647083 86.928 -146.8580
46.985107 86.966 -147.4118
47.325581 87.003 -147.9675
47.668521 87.039 -148.5241
48.013947 87.072 -149.0804
48.361876 87.102 -149.6352
48.712326 87.129 -150.1874
49.065315 87.152 -150.7354
49.420863 87.173 -151.2781
49.778987 87.190 -151.8144
50.139706 87.207 -152.3440
50.503039 87.221 -152.8672
50.869005 87.235 -153.3847
51.237623 87.248 -153.8977
51.608912 87.261 -154.4072
51.982891 87.272 -154.9141
52.359580 87.282 -155.4183
52.739000 87.291 -155.9193
53.121168 87.297 -156.4161
53.506106 87.301 -156.9076
53.893833 87.303 -157.3931
54.284370 87.301 -157.8730
54.677737 87.297 -158.3481
55.073955 87.290 -158.8197
55.473043 87.279 -159.2892
55.875024 87.266 -159.7576
56.279917 87.249 -160.2252
56.687745 87.230 -160.6918
57.098527 87.209 -161.1573
57.512287 87.185 -161.6215
57.929045 87.161 -162.0845
58.348822 87.138 -162.5472
58.771642 87.117 -163.0107
59.197525 87.101 -163.4775
59.626495 87.092 -163.9508
60.058573 87.092 -164.4338
60.493782 87.103 -164.9290
60.932145 87.123 -165.4362
61.373685 87.151 -165.9523
61.818424 87.186 -166.4720
62.266386 87.225 -166.9890
62.717593 87.266 -167.4982
63.172071 87.308 -167.9964
63.629842 87.350 -168.4826
64.090930 87.391 -168.9566
64.555359 87.432 -169.4186
65.023154 87.473 -169.8685
65.494339 87.512 -170.3056
65.968938 87.549 -170.7298
66.446976 87.586 -171.1415
66.928478 87.621 -171.5423
67.413469 87.653 -171.9343
67.901975 87.683 -172.3201
68.394021 87.711 -172.7016
68.889632 87.735 -173.0806
69.388835 87.755 -173.4580
69.891655 87.772 -173.8349
70.398118 87.785 -174.2128
70.908252 87.794 -174.5935
71.422083 87.798 -174.9792
71.939636 87.799 -175.3718
72.460941 87.796 -175.7729
72.986023 87.789 -176.1831
73.514909 87.779 -176.6021
74.047629 87.767 -177.0286
74.584208 87.753 -177.4600
75.124676 87.737 -177.8934
75.669061 87.720 -178.3250
76.217390 87.701 -178.7511
76.769692 87.682 -179.1681
77.325997 87.662 -179.5736
77.886333 87.641 -179.9665
78.450730 87.620 179.6526
79.019216 87.598 179.2818
79.591822 87.575 178.9182
80.168577 87.552 178.5594
80.749512 87.529 178.2035
81.334656 87.505 177.8500
81.924040 87.481 177.4994
82.517696 87.456 177.1534
83.115653 87.432 176.8135
83.717943 87.408 176.4811
84.324598 87.383 176.1563
84.935649 87.358 175.8383
85.551128 87.332 175.5257
86.171066 87.305 175.2165
86.795497 87.277 174.9089
87.424453 87.248 174.6017
88.057967 87.218 174.2936
88.696071 87.188 173.9836
89.338800 87.157 173.6707
89.986185 87.124 173.3535
90.638262 87.092 173.0312
91.295065 87.059 172.7038
91.956626 87.026 172.3721
92.622982 86.994 172.0381
93.294166 86.963 171.7048
93.970214 86.934 171.3757
94.651161 86.906 171.0547
95.337042 86.879 170.7452
96.027894 86.853 170.4498
96.723752 86.828 170.1687
97.424652 86.802 169.8989
98.130631 86.776 169.6346
98.841726 86.750 169.3686
99.557974 86.724 169.0946
100.279412 86.700 168.8097
101.006078 86.678 168.5157
101.738010 86.660 168.2188
102.475245 86.646 167.9274
103.217823 86.634 167.6487
103.965782 86.623 167.3853
104.719161 86.612 167.1329
105.477999 86.600 166.8831
106.242336 86.587 166.6288
107.012212 86.574 166.3700
107.787666 86.562 166.1151
108.568740 86.550 165.8740
109.355474 86.536 165.6500
110.147909 86.519 165.4360
110.946086 86.499 165.2197
111.750047 86.477 164.9931
112.559834 86.453 164.7576
113.375489 86.429 164.5197
114.197055 86.405 164.2848
115.024574 86.381 164.0523
115.858089 86.357 163.8188
116.697645 86.333 163.5820
117.543284 86.311 163.3428
118.395051 86.290 163.1048
119.252990 86.269 162.8707
120.117147 86.250 162.6410
120.987565 86.230 162.4136
121.864291 86.210 162.1862
122.747370 86.190 161.9577
123.636848 86.170 161.7291
124.532771 86.150 161.5008
125.435187 86.129 161.2718
126.344142 86.107 161.0414
127.259684 86.086 160.8113
128.181860 86.064 160.5862
129.110718 86.041 160.3698
130.046308 86.018 160.1629
130.988677 85.994 159.9641
131.937875 85.967 159.7709
132.893951 85.938 159.5806
133.856956 85.906 159.3895
134.826938 85.871 159.1942
135.803950 85.833 158.9933
136.788041 85.793 158.7880
137.779264 85.751 158.5811
138.777669 85.707 158.3756
139.783309 85.662 158.1749
140.796237 85.615 157.9822
141.816504 85.567 157.7999
142.844165 85.518 157.6299
143.879273 85.468 157.4730
144.921881 85.416 157.3299
145.972045 85.364 157.2009
147.029819 85.311 157.0869
148.095257 85.257 156.9886
149.168417 85.203 156.9061
150.249353 85.147 156.8384
151.338121 85.092 156.7845
152.434780 85.035 156.7430
153.539385 84.979 156.7129
154.651995 84.924 156.6935
155.772667 84.869 156.6851
156.901460 84.815 156.6880
158.038432 84.763 156.7028
159.183644 84.712 156.7296
160.337154 84.662 156.7683
161.499023 84.615 156.8187
162.669312 84.569 156.8799
163.848081 84.526 156.9513
165.035392 84.485 157.0322
166.231306 84.446 157.1220
167.435887 84.409 157.2205
168.649196 84.375 157.3276
169.871298 84.344 157.4431
171.102255 84.316 157.5667
172.342133 84.291 157.6976
173.590995 84.269 157.8344
174.848907 84.250 157.9749
176.115934 84.233 158.1160
177.392143 84.219 158.2543
178.677599 84.208 158.3861
179.972371 84.199 158.5085
181.276525 84.192 158.6198
182.590129 84.188 158.7192
183.913252 84.185 158.8070
185.245964 84.185 158.8831
186.588332 84.185 158.9474
187.940428 84.187 158.9994
189.302322 84.189 159.0386
190.674085 84.192 159.0648
192.055788 84.194 159.0781
193.447503 84.195 159.0784
194.849303 84.196 159.0659
196.261262 84.195 159.0403
197.683452 84.194 159.0016
199.115948 84.193 158.9498
200.558824 84.190 158.8849
202.012156 84.187 158.8072
203.476019 84.182 158.7172
204.950490 84.177 158.6158
206.435646 84.171 158.5042
207.931564 84.165 158.3834
209.438322 84.158 158.2549
210.955998 84.150 158.1199
212.484672 84.143 157.9800
214.024424 84.136 157.8371
215.575333 84.129 157.6925
217.137481 84.123 157.5475
218.710948 84.117 157.4029
220.295818 84.112 157.2594
221.892172 84.107 157.1174
223.500094 84.102 156.9769
225.119668 84.098 156.8373
226.750978 84.094 156.6982
228.394109 84.090 156.5586
230.049147 84.087 156.4181
231.716178 84.085 156.2769
233.395289 84.084 156.1354
235.086567 84.083 155.9944
236.790102 84.083 155.8546
238.505980 84.084 155.7167
240.234293 84.085 155.5810
241.975130 84.086 155.4476
243.728581 84.088 155.3166
245.494739 84.090 155.1880
247.273695 84.092 155.0620
249.065542 84.093 154.9388
250.870374 84.094 154.8190
252.688284 84.094 154.7028
254.519367 84.094 154.5905
256.363720 84.094 154.4821
258.221437 84.093 154.3773
260.092616 84.091 154.2763
261.977354 84.090 154.1789
263.875750 84.087 154.0849
265.787903 84.085 153.9939
267.713911 84.083 153.9052
269.653877 84.081 153.8181
271.607900 84.080 153.7318
273.576083 84.080 153.6463
275.558528 84.080 153.5613
277.555338 84.082 153.4769
279.566619 84.084 153.3928
281.592474 84.087 153.3088
283.633009 84.091 153.2243
285.688331 84.096 153.1387
287.758546 84.101 153.0515
289.843763 84.106 152.9620
291.944090 84.112 152.8701
294.059638 84.119 152.7762
296.190515 84.125 152.6808
298.336833 84.131 152.5850
300.498705 84.136 152.4897
302.676243 84.142 152.3959
304.869559 84.147 152.3049
307.078770 84.153 152.2175
309.303989 84.158 152.1347
311.545334 84.163 152.0566
313.802919 84.168 151.9827
316.076865 84.173 151.9123
318.367288 84.178 151.8440
320.674309 84.183 151.7766
322.998047 84.189 151.7090
325.338624 84.195 151.6401
327.696162 84.200 151.5693
330.070783 84.206 151.4958
332.462612 84.212 151.4195
334.871773 84.217 151.3404
337.298392 84.221 151.2590
339.742595 84.225 151.1762
342.204510 84.227 151.0930
344.684265 84.228 151.0103
347.181989 84.228 150.9285
349.697813 84.226 150.8480
352.231868 84.223 150.7687
354.784285 84.219 150.6905
357.355198 84.213 150.6135
359.944741 84.206 150.5375
362.553049 84.198 150.4631
365.180258 84.189 150.3904
367.826505 84.180 150.3197
370.491927 84.170 150.2511
373.176665 84.159 150.1843
375.880856 84.149 150.1185
378.604644 84.139 150.0529
381.348169 84.129 149.9865
384.111575 84.119 149.9185
386.895006 84.109 149.8480
389.698607 84.099 149.7744
392.522524 84.089 149.6970
395.366904 84.079 149.6158
398.231895 84.068 149.5314
401.117648 84.057 149.4444
404.024312 84.045 149.3560
406.952038 84.032 149.2672
409.900981 84.018 149.1789
412.871292 84.003 149.0914
415.863128 83.985 149.0051
418.876643 83.965 148.9206
421.911996 83.941 148.8391
424.969344 83.914 148.7630
428.048847 83.885 148.6956
431.150666 83.852 148.6406
434.274961 83.818 148.6010
437.421897 83.782 148.5781
440.591636 83.747 148.5705
443.784345 83.712 148.5749
447.000189 83.679 148.5865
450.239337 83.647 148.6002
453.501956 83.617 148.6116
456.788219 83.588 148.6173
460.098294 83.560 148.6157
463.432356 83.532 148.6061
466.790578 83.506 148.5890
470.173135 83.479 148.5653
473.580203 83.453 148.5364
477.011961 83.427 148.5034
480.468586 83.402 148.4676
483.950259 83.377 148.4302
487.457163 83.352 148.3920
490.989478 83.328 148.3538
494.547390 83.305 148.3162
498.131084 83.283 148.2797
501.740748 83.262 148.2446
505.376568 83.243 148.2106
509.038735 83.225 148.1779
512.727439 83.209 148.1462
516.442874 83.195 148.1156
520.185232 83.182 148.0861
523.954708 83.172 148.0579
527.751500 83.163 148.0308
531.575805 83.157 148.0049
535.427822 83.154 147.9800
539.307753 83.153 147.9557
543.215800 83.154 147.9319
547.152165 83.158 147.9082
551.117055 83.164 147.8842
555.110677 83.172 147.8599
559.133237 83.182 147.8351
563.184947 83.195 147.8102
567.266018 83.209 147.7859
571.376661 83.224 147.7625
575.517092 83.242 147.7404
579.687526 83.261 147.7192
583.888181 83.280 147.6982
588.119275 83.301 147.6766
592.381030 83.322 147.6534
596.673667 83.344 147.6277
600.997410 83.365 147.5988
605.352485 83.386 147.5659
609.739119 83.406 147.5285
614.157540 83.426 147.4862
618.607979 83.444 147.4385
623.090667 83.461 147.3853
627.605839 83.477 147.3264
632.153730 83.491 147.2618
636.734576 83.504 147.1920
641.348617 83.516 147.1171
645.996094 83.526 147.0378
650.677248 83.535 146.9547
655.392323 83.543 146.8688
660.141566 83.549 146.7813
664.925224 83.553 146.6935
669.743546 83.555 146.6068
674.596784 83.556 146.5226
679.485191 83.556 146.4423
684.409020 83.553 146.3671
689.368530 83.550 146.2979
694.363979 83.545 146.2343
699.395626 83.540 146.1752
704.463736 83.535 146.1182
709.568570 83.529 146.0604
714.710396 83.524 145.9991
719.889483 83.518 145.9325
725.106099 83.511 145.8596
730.360516 83.503 145.7802
735.653010 83.495 145.6947
740.983855 83.484 145.6039
746.353329 83.473 145.5085
751.761713 83.459 145.4095
757.209288 83.444 145.3077
762.696339 83.428 145.2042
768.223151 83.409 145.0996
773.790013 83.389 144.9949
779.397214 83.368 144.8906
785.045047 83.346 144.7870
790.733808 83.323 144.6842
796.463791 83.299 144.5817
802.235296 83.276 144.4788
808.048623 83.252 144.3749
813.904077 83.229 144.2694
819.801961 83.207 144.1618
825.742584 83.185 144.0519
831.726255 83.164 143.9392
837.753287 83.145 143.8232
843.823992 83.126 143.7032
849.938689 83.108 143.5784
856.097695 83.091 143.4482
862.301332 83.075 143.3123
868.549922 83.059 143.1706
874.843793 83.043 143.0236
881.183272 83.027 142.8724
887.568689 83.012 142.7182
894.000378 82.997 142.5627
900.478673 82.982 142.4076
907.003913 82.967 142.2538
913.576437 82.953 142.1022
920.196588 82.940 141.9530
926.864712 82.927 141.8064
933.581156 82.916 141.6623
940.346270 82.907 141.5209
947.160407 82.899 141.3824
954.023921 82.894 141.2468
960.937172 82.891 141.1139
967.900519 82.891 140.9829
974.914325 82.894 140.8523
981.978956 82.900 140.7198
989.094780 82.909 140.5832
996.262169 82.921 140.4400
1003.481495 82.936 140.2885
1010.753136 82.954 140.1277
1018.077470 82.973 139.9573
1025.454879 82.994 139.7775
1032.885748 83.016 139.5890
1040.370463 83.039 139.3925
1047.909417 83.062 139.1891
1055.503000 83.085 138.9801
1063.151610 83.108 138.7668
1070.855645 83.130 138.5510
1078.615506 83.151 138.3342
1086.431599 83.171 138.1180
1094.304330 83.190 137.9034
1102.234110 83.209 137.6913
1110.221353 83.226 137.4823
1118.266475 83.242 137.2767
1126.369895 83.256 137.0753
1134.532035 83.269 136.8792
1142.753322 83.281 136.6894
1151.034184 83.291 136.5072
1159.375052 83.300 136.3337
1167.776361 83.307 136.1699
1176.238550 83.314 136.0163
1184.762060 83.319 135.8729
1193.347334 83.324 135.7392
1201.994821 83.328 135.6142
1210.704971 83.333 135.4974
1219.478238 83.337 135.3883
1228.315080 83.340 135.2873
1237.215957 83.344 135.1948
1246.181334 83.347 135.1115
1255.211678 83.351 135.0378
1264.307459 83.355 134.9744
1273.469152 83.358 134.9211
1282.697235 83.363 134.8783
1291.992188 83.367 134.8454
1301.354495 83.372 134.8217
1310.784647 83.378 134.8059
1320.283132 83.385 134.7965
1329.850448 83.392 134.7924
1339.487093 83.399 134.7927
1349.193569 83.408 134.7971
1358.970381 83.417 134.8055
1368.818041 83.427 134.8179
1378.737061 83.438 134.8344
1388.727958 83.450 134.8548
1398.791253 83.463 134.8789
1408.927471 83.477 134.9067
1419.137140 83.492 134.9389
1429.420793 83.508 134.9771
1439.778965 83.524 135.0232
1450.212197 83.542 135.0792
1460.721033 83.562 135.1462
1471.306019 83.583 135.2250
1481.967709 83.605 135.3153
1492.706658 83.630 135.4167
1503.523426 83.655 135.5276
1514.418576 83.682 135.6466
1525.392678 83.710 135.7719
1536.446302 83.738 135.9019
1547.580025 83.765 136.0362
1558.794428 83.791 136.1752
1570.090095 83.815 136.3204
1581.467615 83.836 136.4744
1592.927581 83.854 136.6405
1604.470591 83.869 136.8226
1616.097246 83.880 137.0247
1627.808153 83.889 137.2500
1639.603922 83.896 137.5011
1651.485168 83.901 137.7784
1663.452510 83.906 138.0804
1675.506573 83.911 138.4034
1687.647984 83.918 138.7421
1699.877377 83.926 139.0901
1712.195390 83.937 139.4402
1724.602663 83.949 139.7858
1737.099845 83.964 140.1210
1749.687587 83.979 140.4417
1762.366544 83.995 140.7459
1775.137379 84.011 141.0338
1788.000756 84.026 141.3074
1800.957346 84.040 141.5700
1814.007826 84.052 141.8253
1827.152874 84.063 142.0769
1840.393177 84.073 142.3276
1853.729425 84.081 142.5786
1867.162312 84.089 142.8294
1880.692540 84.096 143.0782
1894.320813 84.103 143.3222
1908.047843 84.110 143.5583
1921.874344 84.115 143.7842
1935.801038 84.119 143.9989
1949.828650 84.121 144.2021
1963.957912 84.122 144.3947
1978.189561 84.119 144.5774
1992.524338 84.115 144.7510
2006.962991 84.108 144.9158
2021.506272 84.100 145.0719
2036.154940 84.089 145.2191
2050.909758 84.076 145.3571
2065.771495 84.062 145.4858
2080.740927 84.047 145.6047
2095.818833 84.030 145.7135
2111.006001 84.013 145.8116
2126.303220 83.994 145.8986
2141.711290 83.976 145.9742
2157.231013 83.956 146.0388
2172.863198 83.936 146.0934
2188.608660 83.916 146.1390
2204.468221 83.896 146.1770
2220.442706 83.875 146.2083
2236.532950 83.855 146.2337
2252.739789 83.835 146.2537
2269.064070 83.816 146.2679
2285.506644 83.798 146.2761
2302.068367 83.780 146.2775
2318.750104 83.764 146.2715
2335.552723 83.749 146.2575
2352.477101 83.736 146.2347
2369.524119 83.724 146.2021
2386.694668 83.713 146.1589
2403.989641 83.704 146.1034
2421.409941 83.698 146.0340
2438.956476 83.693 145.9482
2456.630160 83.690 145.8434
2474.431915 83.688 145.7175
2492.362668 83.686 145.5692
2510.423356 83.685 145.3987
2528.614918 83.682 145.2079
2546.938304 83.677 145.0005
2565.394469 83.670 144.7820
2583.984375 83.659 144.5592
2602.708991 83.644 144.3398
2621.569293 83.626 144.1321
2640.566265 83.604 143.9440
2659.700897 83.579 143.7827
2678.974186 83.551 143.6543
2698.387137 83.522 143.5629
2717.940763 83.492 143.5113
2737.636082 83.461 143.5007
2757.474121 83.431 143.5309
2777.455915 83.403 143.6014
2797.582506 83.375 143.7113
2817.854942 83.348 143.8597
2838.274281 83.323 144.0463
2858.841586 83.300 144.2713
2879.557931 83.277 144.5356
2900.424394 83.255 144.8408
2921.442065 83.235 145.1893
2942.612039 83.215 145.5839
2963.935418 83.197 146.0278
2985.413316 83.180 146.5238
3007.046852 83.165 147.0736
3028.837153 83.152 147.6773
3050.785356 83.143 148.3325
3072.892604 83.138 149.0346
3095.160050 83.137 149.7763
3117.588856 83.141 150.5487
3140.180190 83.151 151.3416
3162.935230 83.165 152.1441
3185.855163 83.183 152.9453
3208.941182 83.205 153.7342
3232.194493 83.231 154.5007
3255.616307 83.259 155.2354
3279.207844 83.287 155.9305
3302.970336 83.316 156.5806
3326.905021 83.344 157.1830
3351.013146 83.369 157.7379
3375.295969 83.390 158.2487
3399.754755 83.407 158.7206
3424.390779 83.420 159.1599
3449.205326 83.429 159.5722
3474.199690 83.436 159.9612
3499.375173 83.440 160.3272
3524.733088 83.444 160.6667
3550.274757 83.448 160.9734
3576.001511 83.453 161.2390
3601.914692 83.458 161.4551
3628.015651 83.464 161.6149
3654.305748 83.468 161.7143
3680.786354 83.470 161.7532
3707.458849 83.467 161.7354
3734.324624 83.460 161.6686
3761.385080 83.445 161.5639
3788.641627 83.423 161.4344
3816.095686 83.392 161.2948
3843.748688 83.354 161.1600
3871.602076 83.308 161.0443
3899.657300 83.255 160.9607
3927.915825 83.196 160.9206
3956.379122 83.133 160.9333
3985.048676 83.066 161.0057
4013.925981 82.998 161.1424
4043.012544 82.930 161.3458
4072.309879 82.861 161.6161
4101.819515 82.795 161.9522
4131.542990 82.730 162.3517
4161.481854 82.667 162.8118
4191.637667 82.607 163.3296
4222.012001 82.549 163.9024
4252.606441 82.493 164.5283
4283.422580 82.439 165.2054
4314.462026 82.387 165.9324
4345.726396 82.335 166.7079
4377.217321 82.285 167.5302
4408.936442 82.237 168.3975
4440.885413 82.189 169.3079
4473.065899 82.142 170.2593
4505.479579 82.096 171.2496
4538.128141 82.052 172.2765
4571.013288 82.009 173.3379
4604.136735 81.968 174.4313
4637.500207 81.929 175.5541
4671.105446 81.893 176.7034
4704.954201 81.860 177.8757
4739.048239 81.831 179.0673
4773.389336 81.807 -179.7255
4807.979283 81.787 -178.5063
4842.819883 81.773 -177.2786
4877.912952 81.765 -176.0453
4913.260320 81.762 -174.8083
4948.863830 81.766 -173.5692
4984.725337 81.777 -172.3283
5020.846712 81.794 -171.0849
5057.229836 81.818 -169.8375
5093.876609 81.850 -168.5833
5130.788938 81.889 -167.3184
5167.968750 81.937 -166.0379
5205.417982 81.993 -164.7359
5243.138586 82.059 -163.4061
5281.132530 82.135 -162.0425
5319.401793 82.224 -160.6399
5357.948371 82.327 -159.1947
5396.774274 82.446 -157.7057
5435.881525 82.582 -156.1742
5475.272163 82.738 -154.6047
5514.948243 82.916 -153.0047
5554.911831 83.116 -151.3852
5595.165012 83.340 -149.7601
5635.709884 83.589 -148.1466
5676.548561 83.863 -146.5652
5717.683172 84.162 -145.0393
5759.115861 84.484 -143.5953
5800.848789 84.828 -142.2609
5842.884130 85.192 -141.0649
5885.224077 85.571 -140.0350
5927.870837 85.962 -139.1969
5970.826633 86.360 -138.5720
6014.093704 86.761 -138.1769
6057.674306 87.159 -138.0219
6101.570711 87.549 -138.1109
6145.785208 87.927 -138.4414
6190.320101 88.288 -139.0048
6235.177712 88.627 -139.7868
6280.360380 88.942 -140.7685
6325.870460 89.230 -141.9270
6371.710325 89.489 -143.2370
6417.882365 89.718 -144.6721
6464.388986 89.918 -146.2065
6511.232613 90.090 -147.8166
6558.415689 90.235 -149.4831
6605.940673 90.355 -151.1914
6653.810042 90.454 -152.9327
6702.026292 90.533 -154.7036
6750.591937 90.595 -156.5054
6799.509509 90.640 -158.3435
6848.781558 90.670 -160.2255
6898.410653 90.685 -162.1600
6948.399380 90.684 -164.1549
6998.750346 90.667 -166.2166
7049.466176 90.631 -168.3491
7100.549514 90.575 -170.5532
7152.003023 90.497 -172.8273
7203.829385 90.395 -175.1668
7256.031302 90.267 -177.5653
7308.611496 90.113 179.9852
7361.572708 89.931 177.4934
7414.917698 89.721 174.9685
7468.649249 89.482 172.4193
7522.770160 89.213 169.8536
7577.283253 88.916 167.2783
7632.191371 88.590 164.6982
7687.497376 88.236 162.1161
7743.204151 87.855 159.5326
7799.314600 87.448 156.9449
7855.831649 87.016 154.3475
7912.758244 86.561 151.7308
7970.097352 86.083 149.0817
8027.851962 85.584 146.3824
8086.025087 85.067 143.6097
8144.619758 84.533 140.7348
8203.639030 83.986 137.7213
8263.085980 83.427 134.5251
8322.963708 82.860 131.0938
8383.275334 82.290 127.3661
8444.024002 81.720 123.2735
8505.212881 81.156 118.7407
8566.845160 80.605 113.6891
8628.924051 80.074 108.0424
8691.452792 79.576 101.7373
8754.434642 79.122 94.7408
8817.872884 78.728 87.0747
8881.770826 78.410 78.8397
8946.131799 78.185 70.2257
9010.959157 78.065 61.4932
9076.256282 78.057 52.9220
9142.026576 78.158 44.7488
9208.273470 78.359 37.1246
9275.000415 78.647 30.1037
9342.210891 79.000 23.6633
9409.908403 79.400 17.7313
9478.096478 79.827 12.2126
9546.778672 80.262 7.0081
9615.958566 80.692 2.0257
9685.639765 81.101 -2.8124
9755.825904 81.479 -7.5679
9826.520640 81.815 -12.2850
9897.727659 82.101 -16.9909
9969.450674 82.329 -21.6964
10041.693423 82.493 -26.3983
10114.459673 82.590 -31.0807
10187.753217 82.617 -35.7197
10261.577877 82.573 -40.2856
10335.937500 82.458 -44.7466
10410.835964 82.274 -49.0713
10486.277173 82.023 -53.2297
10562.265060 81.708 -57.1931
10638.803587 81.332 -60.9340
10715.896743 80.896 -64.4250
10793.548548 80.404 -67.6399
10871.763050 79.860 -70.5533
10950.544327 79.266 -73.1439
11029.896485 78.628 -75.3956
11109.823662 77.951 -77.3013
11190.330024 77.239 -78.8646
11271.419768 76.500 -80.1014
11353.097122 75.739 -81.0406
11435.366344 74.963 -81.7249
11518.231722 74.180 -82.2109
11601.697577 73.394 -82.5688
11685.768261 72.615 -82.8819
11770.448155 71.848 -83.2444
11855.741674 71.101 -83.7587
11941.653265 70.379 -84.5317
12028.187408 69.688 -85.6718
12115.348612 69.033 -87.2861
12203.141422 68.417 -89.4801
12291.570415 67.841 -92.3555
12380.640201 67.303 -96.0089
12470.355424 66.801 -100.5253
12560.720760 66.326 -105.9669
12651.740920 65.871 -112.3544
12743.420650 65.427 -119.6382
12835.764729 64.989 -127.6671
12928.777972 64.554 -136.1667
13022.465227 64.126 -144.7539
13116.831378 63.711 -153.0007
13211.881345 63.324 -160.5255
13307.620084 62.983 -167.0671
13404.052584 62.705 -172.5084
13501.183875 62.507 -176.8547
13599.019019 62.400 179.8075
13697.563116 62.388 177.3506
13796.821305 62.469 175.6323
13896.798760 62.634 174.5101
13997.500692 62.872 173.8472
14098.932352 63.171 173.5150
14201.099028 63.518 173.3936
14304.006046 63.901 173.3749
14407.658770 64.308 173.3651
14512.062604 64.728 173.2875
14617.222992 65.154 173.0838
14723.145416 65.576 172.7121
14829.835397 65.990 172.1444
14937.298497 66.389 171.3633
15045.540320 66.770 170.3597
15154.566507 67.128 169.1320
15264.382743 67.461 167.6842
15374.994752 67.769 166.0255
15486.408302 68.050 164.1665
15598.629201 68.305 162.1156
15711.663298 68.535 159.8758
15825.516487 68.742 157.4426
15940.194703 68.924 154.8057
16055.703925 69.079 151.9523
16172.050174 69.204 148.8727
16289.239516 69.295 145.5642
16407.278061 69.347 142.0328
16526.171961 69.357 138.2916
16645.927415 69.323 134.3580
16766.550667 69.245 130.2493
16888.048005 69.123 125.9808
17010.425762 68.958 121.5642
17133.690320 68.751 117.0078
17257.848103 68.504 112.3165
17382.905584 68.219 107.4932
17508.869284 67.894 102.5404
17635.745768 67.529 97.4629
17763.541652 67.125 92.2681
17892.263597 66.681 86.9653
18021.918315 66.198 81.5618
18152.512564 65.682 76.0563
18284.053153 65.141 70.4315
18416.546939 64.588 64.6454
18550.000830 64.041 58.6242
18684.421783 63.521 52.2613
18819.816805 63.051 45.4288
18956.192956 62.649 38.0073
19093.557344 62.326 29.9436
19231.917131 62.082 21.3342
19371.279531 61.908 12.5126
19511.651807 61.790 4.0795
19653.041280 61.714 -3.1846
19795.455318 61.667 -8.5105
19938.901348 61.645 -11.3211
