* Measurement data measured by REW V5.31.3
* Source: EXCL: Headset (USB-C to 3.5mm Headphone Jack Adapter), MICROPHONE (Master Volume), 0, volume: 0.750
* Format: 256k Log Swept Sine, 1 sweep at -12.0 dBFS with no timing reference
* Dated: Apr 7, 2025 4:36:56 PM
* REW Settings:
*  C-weighting compensation: Off
*  Target level: 75.0 dB
* Note: ; 
* Measurement: Satyr 3 (Centered) L10
* Smoothing: 1/6 octave
* Frequency Step: 96 ppo
* Start Frequency: 20.0 Hz
*
* Freq(Hz) SPL(dB) Phase(degrees)
20.187378 79.183 -90.8446
20.333664 79.204 -91.0725
20.481010 79.232 -91.3778
20.629424 79.268 -91.7513
20.778913 79.311 -92.1824
20.929486 79.361 -92.6599
21.081150 79.419 -93.1726
21.233912 79.484 -93.7098
21.387782 79.558 -94.2611
21.542767 79.640 -94.8171
21.698874 79.731 -95.3691
21.856113 79.829 -95.9095
22.014492 79.935 -96.4318
22.174018 80.047 -96.9302
22.334700 80.162 -97.4005
22.496546 80.280 -97.8392
22.659566 80.397 -98.2441
22.823766 80.513 -98.6139
22.989157 80.623 -98.9485
23.155745 80.727 -99.2491
23.323542 80.824 -99.5179
23.492554 80.911 -99.7585
23.662790 80.988 -99.9757
23.834261 81.055 -100.1757
24.006973 81.113 -100.3655
24.180938 81.162 -100.5533
24.356163 81.203 -100.7472
24.532658 81.238 -100.9555
24.710431 81.267 -101.1855
24.889493 81.293 -101.4435
25.069853 81.317 -101.7334
25.251519 81.340 -102.0573
25.434502 81.364 -102.4148
25.618811 81.390 -102.8034
25.804456 81.418 -103.2186
25.991445 81.450 -103.6550
26.179790 81.486 -104.1065
26.369500 81.526 -104.5672
26.560584 81.569 -105.0320
26.753053 81.616 -105.4971
26.946917 81.665 -105.9599
27.142185 81.716 -106.4189
27.338869 81.766 -106.8737
27.536977 81.815 -107.3245
27.736522 81.862 -107.7715
27.937512 81.906 -108.2150
28.139959 81.946 -108.6552
28.343872 81.983 -109.0923
28.549264 82.016 -109.5262
28.756143 82.046 -109.9577
28.964522 82.074 -110.3877
29.174411 82.102 -110.8178
29.385821 82.130 -111.2504
29.598763 82.161 -111.6878
29.813248 82.194 -112.1322
30.029287 82.231 -112.5852
30.246891 82.271 -113.0471
30.466073 82.316 -113.5167
30.686842 82.364 -113.9915
30.909212 82.416 -114.4677
31.133193 82.473 -114.9406
31.358797 82.533 -115.4057
31.586035 82.598 -115.8589
31.814921 82.667 -116.2971
32.045465 82.740 -116.7192
32.277680 82.818 -117.1254
32.511577 82.899 -117.5176
32.747169 82.985 -117.8990
32.984469 83.075 -118.2734
33.223488 83.167 -118.6447
33.464239 83.261 -119.0166
33.706735 83.356 -119.3918
33.950987 83.452 -119.7719
34.197010 83.547 -120.1577
34.444816 83.642 -120.5484
34.694417 83.737 -120.9427
34.945827 83.831 -121.3385
35.199059 83.924 -121.7335
35.454126 84.018 -122.1255
35.711041 84.111 -122.5124
35.969818 84.204 -122.8927
36.230470 84.297 -123.2656
36.493011 84.390 -123.6306
36.757455 84.481 -123.9877
37.023814 84.572 -124.3375
37.292104 84.660 -124.6810
37.562338 84.746 -125.0194
37.834530 84.829 -125.3548
38.108695 84.910 -125.6896
38.384846 84.987 -126.0263
38.662999 85.062 -126.3677
38.943167 85.134 -126.7161
39.225365 85.204 -127.0728
39.509608 85.272 -127.4386
39.795911 85.338 -127.8129
40.084289 85.404 -128.1947
40.374756 85.469 -128.5829
40.667328 85.534 -128.9766
40.962020 85.598 -129.3757
41.258848 85.663 -129.7810
41.557827 85.726 -130.1935
41.858972 85.789 -130.6147
42.162299 85.851 -131.0456
42.467824 85.911 -131.4863
42.775564 85.968 -131.9363
43.085533 86.024 -132.3942
43.397749 86.076 -132.8578
43.712227 86.126 -133.3248
44.028983 86.173 -133.7925
44.348036 86.216 -134.2583
44.669400 86.256 -134.7202
44.993093 86.292 -135.1764
45.319131 86.325 -135.6261
45.647532 86.353 -136.0695
45.978313 86.378 -136.5072
46.311491 86.401 -136.9407
46.647083 86.422 -137.3717
46.985107 86.442 -137.8019
47.325581 86.462 -138.2326
47.668521 86.484 -138.6651
48.013947 86.507 -139.1004
48.361876 86.531 -139.5395
48.712326 86.558 -139.9836
49.065315 86.585 -140.4336
49.420863 86.612 -140.8903
49.778987 86.639 -141.3539
50.139706 86.664 -141.8240
50.503039 86.688 -142.2993
50.869005 86.710 -142.7777
51.237623 86.730 -143.2565
51.608912 86.747 -143.7327
51.982891 86.763 -144.2031
52.359580 86.777 -144.6649
52.739000 86.790 -145.1162
53.121168 86.800 -145.5562
53.506106 86.808 -145.9854
53.893833 86.813 -146.4060
54.284370 86.817 -146.8210
54.677737 86.819 -147.2343
55.073955 86.819 -147.6500
55.473043 86.819 -148.0719
55.875024 86.818 -148.5030
56.279917 86.818 -148.9453
56.687745 86.819 -149.3993
57.098527 86.821 -149.8641
57.512287 86.824 -150.3373
57.929045 86.829 -150.8156
58.348822 86.836 -151.2941
58.771642 86.844 -151.7669
59.197525 86.853 -152.2272
59.626495 86.863 -152.6686
60.058573 86.872 -153.0863
60.493782 86.883 -153.4793
60.932145 86.896 -153.8507
61.373685 86.910 -154.2069
61.818424 86.927 -154.5556
62.266386 86.947 -154.9037
62.717593 86.969 -155.2559
63.172071 86.993 -155.6146
63.629842 87.018 -155.9803
64.090930 87.045 -156.3525
64.555359 87.072 -156.7303
65.023154 87.099 -157.1123
65.494339 87.127 -157.4968
65.968938 87.153 -157.8822
66.446976 87.180 -158.2666
66.928478 87.205 -158.6482
67.413469 87.229 -159.0261
67.901975 87.252 -159.3996
68.394021 87.273 -159.7690
68.889632 87.293 -160.1351
69.388835 87.312 -160.4986
69.891655 87.328 -160.8601
70.398118 87.343 -161.2192
70.908252 87.356 -161.5751
71.422083 87.366 -161.9268
71.939636 87.374 -162.2737
72.460941 87.379 -162.6157
72.986023 87.381 -162.9533
73.514909 87.381 -163.2874
74.047629 87.379 -163.6184
74.584208 87.374 -163.9465
75.124676 87.366 -164.2715
75.669061 87.356 -164.5934
76.217390 87.345 -164.9120
76.769692 87.331 -165.2276
77.325997 87.315 -165.5406
77.886333 87.298 -165.8516
78.450730 87.279 -166.1608
79.019216 87.260 -166.4687
79.591822 87.239 -166.7754
80.168577 87.218 -167.0811
80.749512 87.197 -167.3859
81.334656 87.175 -167.6900
81.924040 87.153 -167.9934
82.517696 87.130 -168.2957
83.115653 87.107 -168.5963
83.717943 87.083 -168.8945
84.324598 87.059 -169.1895
84.935649 87.035 -169.4806
85.551128 87.010 -169.7675
86.171066 86.985 -170.0499
86.795497 86.959 -170.3283
87.424453 86.933 -170.6031
88.057967 86.906 -170.8750
88.696071 86.879 -171.1444
89.338800 86.852 -171.4113
89.986185 86.824 -171.6756
90.638262 86.795 -171.9368
91.295065 86.766 -172.1946
91.956626 86.736 -172.4487
92.622982 86.706 -172.6988
93.294166 86.676 -172.9447
93.970214 86.646 -173.1864
94.651161 86.616 -173.4239
95.337042 86.586 -173.6577
96.027894 86.556 -173.8884
96.723752 86.526 -174.1166
97.424652 86.498 -174.3430
98.130631 86.470 -174.5680
98.841726 86.442 -174.7918
99.557974 86.416 -175.0141
100.279412 86.391 -175.2343
101.006078 86.366 -175.4520
101.738010 86.344 -175.6666
102.475245 86.322 -175.8777
103.217823 86.302 -176.0848
103.965782 86.283 -176.2873
104.719161 86.265 -176.4847
105.477999 86.247 -176.6768
106.242336 86.229 -176.8635
107.012212 86.210 -177.0456
107.787666 86.192 -177.2240
108.568740 86.173 -177.3997
109.355474 86.154 -177.5734
110.147909 86.136 -177.7456
110.946086 86.118 -177.9167
111.750047 86.101 -178.0869
112.559834 86.085 -178.2565
113.375489 86.069 -178.4257
114.197055 86.053 -178.5944
115.024574 86.039 -178.7622
115.858089 86.024 -178.9284
116.697645 86.010 -179.0923
117.543284 85.996 -179.2532
118.395051 85.981 -179.4106
119.252990 85.966 -179.5643
120.117147 85.950 -179.7137
120.987565 85.934 -179.8581
121.864291 85.916 -179.9963
122.747370 85.896 179.8725
123.636848 85.876 179.7493
124.532771 85.854 179.6348
125.435187 85.832 179.5296
126.344142 85.809 179.4340
127.259684 85.786 179.3483
128.181860 85.762 179.2729
129.110718 85.739 179.2084
130.046308 85.716 179.1547
130.988677 85.693 179.1117
131.937875 85.671 179.0784
132.893951 85.649 179.0534
133.856956 85.628 179.0344
134.826938 85.607 179.0189
135.803950 85.586 179.0040
136.788041 85.565 178.9868
137.779264 85.544 178.9645
138.777669 85.522 178.9353
139.783309 85.500 178.8976
140.796237 85.476 178.8510
141.816504 85.451 178.7958
142.844165 85.423 178.7334
143.879273 85.394 178.6653
144.921881 85.362 178.5936
145.972045 85.327 178.5201
147.029819 85.291 178.4467
148.095257 85.253 178.3747
149.168417 85.213 178.3056
150.249353 85.171 178.2408
151.338121 85.128 178.1816
152.434780 85.084 178.1299
153.539385 85.040 178.0881
154.651995 84.995 178.0589
155.772667 84.950 178.0450
156.901460 84.905 178.0493
158.038432 84.860 178.0737
159.183644 84.817 178.1201
160.337154 84.775 178.1887
161.499023 84.735 178.2791
162.669312 84.697 178.3900
163.848081 84.662 178.5191
165.035392 84.630 178.6639
166.231306 84.601 178.8211
167.435887 84.575 178.9874
168.649196 84.554 179.1595
169.871298 84.536 179.3342
171.102255 84.521 179.5089
172.342133 84.511 179.6813
173.590995 84.504 179.8492
174.848907 84.500 -179.9891
176.115934 84.499 -179.8356
177.392143 84.500 -179.6922
178.677599 84.502 -179.5612
179.972371 84.506 -179.4453
181.276525 84.510 -179.3468
182.590129 84.513 -179.2670
183.913252 84.516 -179.2062
185.245964 84.518 -179.1636
186.588332 84.519 -179.1377
187.940428 84.518 -179.1268
189.302322 84.516 -179.1294
190.674085 84.513 -179.1439
192.055788 84.508 -179.1689
193.447503 84.501 -179.2031
194.849303 84.494 -179.2456
196.261262 84.485 -179.2952
197.683452 84.474 -179.3515
199.115948 84.463 -179.4140
200.558824 84.451 -179.4823
202.012156 84.438 -179.5558
203.476019 84.425 -179.6332
204.950490 84.412 -179.7123
206.435646 84.398 -179.7905
207.931564 84.385 -179.8656
209.438322 84.371 -179.9360
210.955998 84.357 179.9990
212.484672 84.343 179.9395
214.024424 84.328 179.8848
215.575333 84.314 179.8344
217.137481 84.300 179.7877
218.710948 84.286 179.7440
220.295818 84.272 179.7034
221.892172 84.259 179.6656
223.500094 84.246 179.6306
225.119668 84.233 179.5983
226.750978 84.222 179.5686
228.394109 84.211 179.5415
230.049147 84.202 179.5170
231.716178 84.194 179.4955
233.395289 84.187 179.4773
235.086567 84.182 179.4633
236.790102 84.177 179.4542
238.505980 84.174 179.4508
240.234293 84.171 179.4527
241.975130 84.170 179.4588
243.728581 84.168 179.4674
245.494739 84.168 179.4764
247.273695 84.168 179.4839
249.065542 84.168 179.4884
250.870374 84.169 179.4894
252.688284 84.171 179.4873
254.519367 84.172 179.4836
256.363720 84.174 179.4806
258.221437 84.176 179.4807
260.092616 84.178 179.4863
261.977354 84.180 179.4990
263.875750 84.182 179.5200
265.787903 84.183 179.5488
267.713911 84.183 179.5842
269.653877 84.183 179.6237
271.607900 84.182 179.6649
273.576083 84.181 179.7057
275.558528 84.180 179.7452
277.555338 84.180 179.7827
279.566619 84.180 179.8181
281.592474 84.180 179.8516
283.633009 84.182 179.8842
285.688331 84.185 179.9170
287.758546 84.188 179.9517
289.843763 84.192 179.9897
291.944090 84.197 -179.9680
294.059638 84.203 -179.9214
296.190515 84.209 -179.8705
298.336833 84.216 -179.8159
300.498705 84.223 -179.7584
302.676243 84.231 -179.6986
304.869559 84.239 -179.6376
307.078770 84.248 -179.5760
309.303989 84.256 -179.5142
311.545334 84.265 -179.4524
313.802919 84.274 -179.3907
316.076865 84.283 -179.3290
318.367288 84.292 -179.2674
320.674309 84.301 -179.2060
322.998047 84.310 -179.1452
325.338624 84.318 -179.0851
327.696162 84.326 -179.0256
330.070783 84.333 -178.9663
332.462612 84.341 -178.9067
334.871773 84.348 -178.8464
337.298392 84.354 -178.7849
339.742595 84.360 -178.7217
342.204510 84.365 -178.6569
344.684265 84.370 -178.5906
347.181989 84.374 -178.5235
349.697813 84.376 -178.4561
352.231868 84.378 -178.3886
354.784285 84.378 -178.3211
357.355198 84.378 -178.2533
359.944741 84.377 -178.1847
362.553049 84.376 -178.1149
365.180258 84.374 -178.0435
367.826505 84.371 -177.9703
370.491927 84.368 -177.8955
373.176665 84.365 -177.8199
375.880856 84.361 -177.7444
378.604644 84.357 -177.6701
381.348169 84.353 -177.5981
384.111575 84.349 -177.5291
386.895006 84.344 -177.4637
389.698607 84.340 -177.4018
392.522524 84.335 -177.3424
395.366904 84.329 -177.2844
398.231895 84.323 -177.2266
401.117648 84.316 -177.1678
404.024312 84.308 -177.1070
406.952038 84.299 -177.0439
409.900981 84.289 -176.9781
412.871292 84.278 -176.9091
415.863128 84.265 -176.8366
418.876643 84.251 -176.7598
421.911996 84.236 -176.6780
424.969344 84.219 -176.5905
428.048847 84.202 -176.4974
431.150666 84.184 -176.3994
434.274961 84.165 -176.2980
437.421897 84.145 -176.1950
440.591636 84.124 -176.0923
443.784345 84.102 -175.9914
447.000189 84.080 -175.8930
450.239337 84.056 -175.7972
453.501956 84.033 -175.7033
456.788219 84.009 -175.6100
460.098294 83.984 -175.5162
463.432356 83.960 -175.4209
466.790578 83.937 -175.3235
470.173135 83.913 -175.2236
473.580203 83.891 -175.1210
477.011961 83.869 -175.0156
480.468586 83.848 -174.9076
483.950259 83.828 -174.7972
487.457163 83.810 -174.6851
490.989478 83.793 -174.5720
494.547390 83.778 -174.4587
498.131084 83.764 -174.3460
501.740748 83.752 -174.2344
505.376568 83.741 -174.1244
509.038735 83.732 -174.0159
512.727439 83.725 -173.9089
516.442874 83.720 -173.8030
520.185232 83.717 -173.6979
523.954708 83.716 -173.5931
527.751500 83.718 -173.4883
531.575805 83.721 -173.3833
535.427822 83.727 -173.2778
539.307753 83.735 -173.1716
543.215800 83.746 -173.0646
547.152165 83.759 -172.9568
551.117055 83.774 -172.8481
555.110677 83.793 -172.7391
559.133237 83.814 -172.6302
563.184947 83.837 -172.5220
567.266018 83.862 -172.4154
571.376661 83.890 -172.3111
575.517092 83.919 -172.2099
579.687526 83.950 -172.1125
583.888181 83.982 -172.0197
588.119275 84.014 -171.9319
592.381030 84.048 -171.8493
596.673667 84.081 -171.7721
600.997410 84.115 -171.7000
605.352485 84.148 -171.6326
609.739119 84.181 -171.5696
614.157540 84.213 -171.5106
618.607979 84.244 -171.4554
623.090667 84.274 -171.4041
627.605839 84.302 -171.3572
632.153730 84.330 -171.3148
636.734576 84.356 -171.2772
641.348617 84.380 -171.2441
645.996094 84.404 -171.2155
650.677248 84.426 -171.1913
655.392323 84.446 -171.1715
660.141566 84.466 -171.1560
664.925224 84.484 -171.1445
669.743546 84.501 -171.1368
674.596784 84.516 -171.1325
679.485191 84.530 -171.1311
684.409020 84.542 -171.1324
689.368530 84.552 -171.1358
694.363979 84.562 -171.1409
699.395626 84.569 -171.1470
704.463736 84.575 -171.1537
709.568570 84.580 -171.1600
714.710396 84.583 -171.1655
719.889483 84.585 -171.1699
725.106099 84.586 -171.1736
730.360516 84.587 -171.1780
735.653010 84.587 -171.1851
740.983855 84.586 -171.1971
746.353329 84.585 -171.2156
751.761713 84.582 -171.2419
757.209288 84.578 -171.2762
762.696339 84.573 -171.3181
768.223151 84.567 -171.3664
773.790013 84.558 -171.4200
779.397214 84.549 -171.4777
785.045047 84.538 -171.5386
790.733808 84.526 -171.6020
796.463791 84.513 -171.6678
802.235296 84.500 -171.7355
808.048623 84.486 -171.8050
813.904077 84.473 -171.8762
819.801961 84.459 -171.9492
825.742584 84.447 -172.0243
831.726255 84.434 -172.1017
837.753287 84.423 -172.1819
843.823992 84.412 -172.2652
849.938689 84.402 -172.3516
856.097695 84.393 -172.4416
862.301332 84.385 -172.5357
868.549922 84.378 -172.6349
874.843793 84.373 -172.7404
881.183272 84.368 -172.8535
887.568689 84.364 -172.9747
894.000378 84.360 -173.1041
900.478673 84.357 -173.2407
907.003913 84.354 -173.3833
913.576437 84.352 -173.5307
920.196588 84.350 -173.6814
926.864712 84.349 -173.8349
933.581156 84.349 -173.9910
940.346270 84.350 -174.1500
947.160407 84.353 -174.3128
954.023921 84.357 -174.4806
960.937172 84.363 -174.6542
967.900519 84.370 -174.8339
974.914325 84.378 -175.0198
981.978956 84.389 -175.2119
989.094780 84.400 -175.4103
996.262169 84.413 -175.6156
1003.481495 84.428 -175.8284
1010.753136 84.443 -176.0493
1018.077470 84.460 -176.2789
1025.454879 84.477 -176.5172
1032.885748 84.494 -176.7637
1040.370463 84.511 -177.0171
1047.909417 84.528 -177.2757
1055.503000 84.543 -177.5375
1063.151610 84.558 -177.8004
1070.855645 84.571 -178.0626
1078.615506 84.584 -178.3230
1086.431599 84.595 -178.5807
1094.304330 84.605 -178.8356
1102.234110 84.614 -179.0874
1110.221353 84.621 -179.3365
1118.266475 84.627 -179.5831
1126.369895 84.631 -179.8271
1134.532035 84.633 179.9322
1142.753322 84.632 179.6959
1151.034184 84.630 179.4659
1159.375052 84.624 179.2446
1167.776361 84.617 179.0340
1176.238550 84.607 178.8359
1184.762060 84.595 178.6516
1193.347334 84.581 178.4815
1201.994821 84.566 178.3259
1210.704971 84.550 178.1848
1219.478238 84.534 178.0582
1228.315080 84.516 177.9465
1237.215957 84.498 177.8505
1246.181334 84.479 177.7706
1255.211678 84.461 177.7075
1264.307459 84.443 177.6609
1273.469152 84.426 177.6300
1282.697235 84.410 177.6129
1291.992188 84.396 177.6068
1301.354495 84.383 177.6084
1310.784647 84.372 177.6144
1320.283132 84.361 177.6221
1329.850448 84.352 177.6294
1339.487093 84.342 177.6357
1349.193569 84.332 177.6415
1358.970381 84.322 177.6481
1368.818041 84.311 177.6569
1378.737061 84.300 177.6693
1388.727958 84.288 177.6870
1398.791253 84.275 177.7109
1408.927471 84.263 177.7427
1419.137140 84.250 177.7837
1429.420793 84.237 177.8355
1439.778965 84.225 177.8993
1450.212197 84.213 177.9760
1460.721033 84.202 178.0665
1471.306019 84.191 178.1717
1481.967709 84.180 178.2928
1492.706658 84.170 178.4308
1503.523426 84.159 178.5875
1514.418576 84.149 178.7649
1525.392678 84.138 178.9652
1536.446302 84.127 179.1911
1547.580025 84.115 179.4446
1558.794428 84.103 179.7271
1570.090095 84.090 -179.9606
1581.467615 84.077 -179.6187
1592.927581 84.064 -179.2486
1604.470591 84.051 -178.8522
1616.097246 84.039 -178.4323
1627.808153 84.027 -177.9919
1639.603922 84.015 -177.5341
1651.485168 84.004 -177.0616
1663.452510 83.993 -176.5776
1675.506573 83.983 -176.0851
1687.647984 83.975 -175.5876
1699.877377 83.968 -175.0883
1712.195390 83.961 -174.5905
1724.602663 83.956 -174.0966
1737.099845 83.952 -173.6079
1749.687587 83.949 -173.1247
1762.366544 83.947 -172.6462
1775.137379 83.945 -172.1708
1788.000756 83.943 -171.6971
1800.957346 83.943 -171.2242
1814.007826 83.944 -170.7524
1827.152874 83.946 -170.2828
1840.393177 83.950 -169.8175
1853.729425 83.955 -169.3592
1867.162312 83.961 -168.9108
1880.692540 83.968 -168.4748
1894.320813 83.976 -168.0532
1908.047843 83.983 -167.6475
1921.874344 83.991 -167.2582
1935.801038 83.997 -166.8856
1949.828650 84.003 -166.5294
1963.957912 84.008 -166.1891
1978.189561 84.012 -165.8649
1992.524338 84.015 -165.5576
2006.962991 84.017 -165.2695
2021.506272 84.019 -165.0029
2036.154940 84.021 -164.7606
2050.909758 84.021 -164.5445
2065.771495 84.021 -164.3563
2080.740927 84.020 -164.1966
2095.818833 84.018 -164.0653
2111.006001 84.014 -163.9616
2126.303220 84.008 -163.8841
2141.711290 84.001 -163.8309
2157.231013 83.993 -163.8003
2172.863198 83.983 -163.7904
2188.608660 83.971 -163.7995
2204.468221 83.958 -163.8257
2220.442706 83.944 -163.8669
2236.532950 83.928 -163.9206
2252.739789 83.910 -163.9848
2269.064070 83.892 -164.0583
2285.506644 83.873 -164.1411
2302.068367 83.853 -164.2332
2318.750104 83.833 -164.3348
2335.552723 83.813 -164.4453
2352.477101 83.792 -164.5635
2369.524119 83.771 -164.6883
2386.694668 83.750 -164.8192
2403.989641 83.730 -164.9567
2421.409941 83.711 -165.1018
2438.956476 83.693 -165.2562
2456.630160 83.676 -165.4217
2474.431915 83.660 -165.5997
2492.362668 83.646 -165.7918
2510.423356 83.632 -165.9990
2528.614918 83.618 -166.2217
2546.938304 83.604 -166.4597
2565.394469 83.589 -166.7114
2583.984375 83.572 -166.9740
2602.708991 83.553 -167.2430
2621.569293 83.531 -167.5131
2640.566265 83.505 -167.7780
2659.700897 83.477 -168.0313
2678.974186 83.444 -168.2663
2698.387137 83.409 -168.4768
2717.940763 83.371 -168.6570
2737.636082 83.330 -168.8013
2757.474121 83.287 -168.9045
2777.455915 83.242 -168.9620
2797.582506 83.196 -168.9696
2817.854942 83.151 -168.9244
2838.274281 83.106 -168.8244
2858.841586 83.062 -168.6684
2879.557931 83.020 -168.4559
2900.424394 82.981 -168.1867
2921.442065 82.945 -167.8606
2942.612039 82.913 -167.4777
2963.935418 82.885 -167.0391
2985.413316 82.862 -166.5473
3007.046852 82.844 -166.0071
3028.837153 82.833 -165.4251
3050.785356 82.829 -164.8100
3072.892604 82.831 -164.1716
3095.160050 82.841 -163.5213
3117.588856 82.856 -162.8715
3140.180190 82.876 -162.2348
3162.935230 82.901 -161.6239
3185.855163 82.928 -161.0492
3208.941182 82.956 -160.5184
3232.194493 82.982 -160.0344
3255.616307 83.004 -159.5953
3279.207844 83.020 -159.1942
3302.970336 83.029 -158.8194
3326.905021 83.031 -158.4564
3351.013146 83.025 -158.0895
3375.295969 83.013 -157.7039
3399.754755 82.997 -157.2880
3424.390779 82.980 -156.8360
3449.205326 82.966 -156.3496
3474.199690 82.957 -155.8392
3499.375173 82.958 -155.3228
3524.733088 82.971 -154.8248
3550.274757 82.996 -154.3729
3576.001511 83.033 -153.9950
3601.914692 83.082 -153.7159
3628.015651 83.140 -153.5548
3654.305748 83.203 -153.5232
3680.786354 83.267 -153.6243
3707.458849 83.329 -153.8533
3734.324624 83.386 -154.1986
3761.385080 83.435 -154.6434
3788.641627 83.473 -155.1677
3816.095686 83.499 -155.7502
3843.748688 83.514 -156.3700
3871.602076 83.516 -157.0075
3899.657300 83.508 -157.6455
3927.915825 83.490 -158.2698
3956.379122 83.463 -158.8689
3985.048676 83.429 -159.4339
4013.925981 83.388 -159.9582
4043.012544 83.342 -160.4371
4072.309879 83.293 -160.8673
4101.819515 83.239 -161.2464
4131.542990 83.183 -161.5728
4161.481854 83.124 -161.8454
4191.637667 83.064 -162.0633
4222.012001 83.001 -162.2260
4252.606441 82.937 -162.3333
4283.422580 82.872 -162.3859
4314.462026 82.805 -162.3848
4345.726396 82.738 -162.3320
4377.217321 82.669 -162.2304
4408.936442 82.600 -162.0835
4440.885413 82.531 -161.8954
4473.065899 82.460 -161.6702
4505.479579 82.389 -161.4120
4538.128141 82.317 -161.1237
4571.013288 82.243 -160.8074
4604.136735 82.167 -160.4634
4637.500207 82.090 -160.0904
4671.105446 82.011 -159.6856
4704.954201 81.930 -159.2444
4739.048239 81.848 -158.7612
4773.389336 81.765 -158.2292
4807.979283 81.683 -157.6414
4842.819883 81.604 -156.9908
4877.912952 81.529 -156.2715
4913.260320 81.460 -155.4789
4948.863830 81.401 -154.6104
4984.725337 81.354 -153.6664
5020.846712 81.323 -152.6502
5057.229836 81.310 -151.5687
5093.876609 81.319 -150.4322
5130.788938 81.351 -149.2544
5167.968750 81.410 -148.0522
5205.417982 81.497 -146.8447
5243.138586 81.613 -145.6535
5281.132530 81.758 -144.5008
5319.401793 81.932 -143.4094
5357.948371 82.133 -142.4019
5396.774274 82.359 -141.5000
5435.881525 82.608 -140.7237
5475.272163 82.877 -140.0917
5514.948243 83.162 -139.6199
5554.911831 83.460 -139.3213
5595.165012 83.765 -139.2057
5635.709884 84.075 -139.2789
5676.548561 84.384 -139.5428
5717.683172 84.688 -139.9951
5759.115861 84.983 -140.6294
5800.848789 85.266 -141.4361
5842.884130 85.534 -142.4022
5885.224077 85.782 -143.5119
5927.870837 86.009 -144.7468
5970.826633 86.213 -146.0862
6014.093704 86.393 -147.5072
6057.674306 86.546 -148.9856
6101.570711 86.673 -150.4960
6145.785208 86.775 -152.0127
6190.320101 86.853 -153.5106
6235.177712 86.908 -154.9657
6280.360380 86.944 -156.3566
6325.870460 86.963 -157.6655
6371.710325 86.971 -158.8791
6417.882365 86.973 -159.9906
6464.388986 86.973 -161.0006
6511.232613 86.977 -161.9180
6558.415689 86.991 -162.7612
6605.940673 87.020 -163.5574
6653.810042 87.067 -164.3415
6702.026292 87.133 -165.1538
6750.591937 87.219 -166.0368
6799.509509 87.324 -167.0318
6848.781558 87.443 -168.1754
6898.410653 87.572 -169.4972
6948.399380 87.706 -171.0179
6998.750346 87.840 -172.7493
7049.466176 87.967 -174.6952
7100.549514 88.084 -176.8529
7152.003023 88.186 -179.2152
7203.829385 88.269 178.2275
7256.031302 88.332 175.4860
7308.611496 88.372 172.5709
7361.572708 88.386 169.4924
7414.917698 88.373 166.2605
7468.649249 88.330 162.8853
7522.770160 88.254 159.3780
7577.283253 88.144 155.7513
7632.191371 87.996 152.0201
7687.497376 87.809 148.2016
7743.204151 87.579 144.3150
7799.314600 87.305 140.3807
7855.831649 86.986 136.4195
7912.758244 86.621 132.4509
7970.097352 86.210 128.4917
8027.851962 85.755 124.5540
8086.025087 85.257 120.6441
8144.619758 84.718 116.7608
8203.639030 84.141 112.8939
8263.085980 83.528 109.0229
8322.963708 82.884 105.1154
8383.275334 82.213 101.1242
8444.024002 81.519 96.9852
8505.212881 80.807 92.6110
8566.845160 80.085 87.8832
8628.924051 79.362 82.6361
8691.452792 78.646 76.6301
8754.434642 77.955 69.5029
8817.872884 77.304 60.6886
8881.770826 76.717 49.3075
8946.131799 76.218 34.1448
9010.959157 75.834 14.2770
9076.256282 75.584 -8.9254
9142.026576 75.480 -31.0789
9208.273470 75.519 -48.9083
9275.000415 75.687 -62.3871
9342.210891 75.958 -72.7396
9409.908403 76.305 -81.0558
9478.096478 76.698 -88.0667
9546.778672 77.113 -94.2354
9615.958566 77.529 -99.8574
9685.639765 77.929 -105.1240
9755.825904 78.299 -110.1594
9826.520640 78.630 -115.0417
9897.727659 78.913 -119.8170
9969.450674 79.144 -124.5066
10041.693423 79.318 -129.1147
10114.459673 79.436 -133.6332
10187.753217 79.496 -138.0464
10261.577877 79.500 -142.3344
10335.937500 79.450 -146.4751
10410.835964 79.350 -150.4468
10486.277173 79.204 -154.2289
10562.265060 79.017 -157.8040
10638.803587 78.795 -161.1594
10715.896743 78.547 -164.2903
10793.548548 78.279 -167.2019
10871.763050 78.001 -169.9118
10950.544327 77.723 -172.4512
11029.896485 77.451 -174.8634
11109.823662 77.191 -177.2009
11190.330024 76.945 -179.5181
11271.419768 76.712 178.1359
11353.097122 76.484 175.7258
11435.366344 76.253 173.2372
11518.231722 76.008 170.6803
11601.697577 75.738 168.0899
11685.768261 75.435 165.5214
11770.448155 75.092 163.0434
11855.741674 74.710 160.7285
11941.653265 74.293 158.6426
12028.187408 73.848 156.8333
12115.348612 73.391 155.3180
12203.141422 72.938 154.0724
12291.570415 72.511 153.0233
12380.640201 72.128 152.0500
12470.355424 71.804 150.9996
12560.720760 71.546 149.7123
12651.740920 71.347 148.0503
12743.420650 71.194 145.9203
12835.764729 71.066 143.2817
12928.777972 70.941 140.1436
13022.465227 70.795 136.5547
13116.831378 70.613 132.5936
13211.881345 70.379 128.3613
13307.620084 70.086 123.9795
13404.052584 69.729 119.5953
13501.183875 69.310 115.3966
13599.019019 68.835 111.6453
13697.563116 68.314 108.7493
13796.821305 67.766 107.4227
13896.798760 67.215 109.0610
13997.500692 66.693 116.5527
14098.932352 66.234 134.5446
14201.099028 65.872 160.7660
14304.006046 65.632 179.7023
14407.658770 65.519 -172.2706
14512.062604 65.520 -170.5505
14617.222992 65.606 -172.1005
14723.145416 65.744 -175.4691
14829.835397 65.899 -179.9368
14937.298497 66.043 174.8877
15045.540320 66.157 169.2396
15154.566507 66.228 163.2719
15264.382743 66.252 157.0898
15374.994752 66.229 150.7649
15486.408302 66.166 144.3398
15598.629201 66.070 137.8302
15711.663298 65.950 131.2287
15825.516487 65.812 124.5118
15940.194703 65.659 117.6509
16055.703925 65.488 110.6217
16172.050174 65.293 103.4134
16289.239516 65.065 96.0318
16407.278061 64.795 88.4999
16526.171961 64.474 80.8560
16645.927415 64.094 73.1531
16766.550667 63.650 65.4575
16888.048005 63.137 57.8481
17010.425762 62.550 50.4144
17133.690320 61.889 43.2511
17257.848103 61.156 36.4510
17382.905584 60.354 30.0993
17508.869284 59.490 24.2654
17635.745768 58.573 18.9948
17763.541652 57.615 14.2943
17892.263597 56.632 10.1099
18021.918315 55.645 6.2997
18152.512564 54.679 2.6165
18284.053153 53.762 -1.2787
18416.546939 52.921 -5.7653
18550.000830 52.179 -11.1948
18684.421783 51.544 -17.8389
18819.816805 51.012 -25.8689
18956.192956 50.566 -35.3472
19093.557344 50.186 -46.1830
19231.917131 49.853 -58.0323
19371.279531 49.558 -70.1848
19511.651807 49.301 -81.5919
19653.041280 49.091 -91.1255
19795.455318 48.941 -97.8984
19938.901348 48.862 -101.3919
