* Measurement data measured by REW V5.31.3
* Source: EXCL: Headset (USB-C to 3.5mm Headphone Jack Adapter), MICROPHONE (Master Volume), 0, volume: 0.260
* Format: 256k Log Swept Sine, 1 sweep at -12.0 dBFS with no timing reference
* Dated: Feb 14, 2025 8:23:01 PM
* REW Settings:
*  C-weighting compensation: Off
*  Target level: 75.0 dB
* Note: ; 
* Measurement: Satyr 3 L1
* Smoothing: 1/6 octave
* Frequency Step: 96 ppo
* Start Frequency: 20.0 Hz
*
* Freq(Hz) SPL(dB) Phase(degrees)
20.141602 91.111 -24.9214
20.287556 91.132 -25.1031
20.434568 91.159 -25.3461
20.582645 91.188 -25.6434
20.731796 91.217 -25.9876
20.882027 91.243 -26.3719
21.033346 91.263 -26.7899
21.185763 91.276 -27.2364
21.339284 91.282 -27.7069
21.493917 91.280 -28.1977
21.649671 91.271 -28.7060
21.806553 91.256 -29.2295
21.964572 91.236 -29.7665
22.123737 91.213 -30.3158
22.284054 91.190 -30.8767
22.445534 91.167 -31.4487
22.608183 91.147 -32.0317
22.772012 91.132 -32.6257
22.937027 91.123 -33.2306
23.103238 91.122 -33.8461
23.270654 91.129 -34.4718
23.439282 91.145 -35.1064
23.609133 91.171 -35.7486
23.780215 91.208 -36.3966
23.952536 91.256 -37.0481
24.126106 91.316 -37.7011
24.300934 91.385 -38.3533
24.477028 91.466 -39.0031
24.654399 91.555 -39.6492
24.833055 91.653 -40.2909
25.013005 91.758 -40.9284
25.194260 91.867 -41.5624
25.376828 91.979 -42.1939
25.560719 92.092 -42.8245
25.745942 92.205 -43.4557
25.932508 92.314 -44.0891
26.120426 92.420 -44.7257
26.309705 92.520 -45.3668
26.500356 92.614 -46.0131
26.692388 92.702 -46.6649
26.885812 92.782 -47.3227
27.080638 92.857 -47.9865
27.276876 92.926 -48.6563
27.474535 92.992 -49.3318
27.673627 93.055 -50.0128
27.874161 93.117 -50.6983
28.076149 93.182 -51.3873
28.279600 93.251 -52.0783
28.484526 93.329 -52.7695
28.690937 93.418 -53.4589
28.898843 93.520 -54.1446
29.108256 93.637 -54.8249
29.319186 93.772 -55.4985
29.531645 93.923 -56.1648
29.745644 94.090 -56.8237
29.961193 94.269 -57.4759
30.178304 94.459 -58.1226
30.396989 94.654 -58.7652
30.617258 94.850 -59.4053
30.839123 95.040 -60.0448
31.062596 95.221 -60.6851
31.287688 95.387 -61.3277
31.514412 95.534 -61.9737
31.742778 95.658 -62.6238
31.972800 95.757 -63.2787
32.204488 95.827 -63.9383
32.437855 95.869 -64.6024
32.672913 95.881 -65.2700
32.909674 95.864 -65.9397
33.148151 95.820 -66.6097
33.388356 95.752 -67.2782
33.630302 95.661 -67.9434
33.874001 95.553 -68.6038
34.119466 95.431 -69.2586
34.366710 95.300 -69.9079
34.615745 95.165 -70.5521
34.866585 95.030 -71.1925
35.119243 94.899 -71.8306
35.373731 94.777 -72.4675
35.630064 94.668 -73.1044
35.888254 94.574 -73.7416
36.148315 94.498 -74.3791
36.410261 94.442 -75.0164
36.674104 94.407 -75.6526
36.939860 94.394 -76.2870
37.207542 94.404 -76.9186
37.477163 94.436 -77.5468
37.748738 94.492 -78.1710
38.022281 94.569 -78.7911
38.297806 94.668 -79.4071
38.575327 94.787 -80.0192
38.854860 94.926 -80.6281
39.136419 95.084 -81.2348
39.420017 95.260 -81.8406
39.705671 95.453 -82.4470
39.993395 95.663 -83.0555
40.283203 95.887 -83.6676
40.575112 96.125 -84.2844
40.869136 96.375 -84.9066
41.165290 96.635 -85.5346
41.463591 96.905 -86.1682
41.764053 97.181 -86.8069
42.066693 97.461 -87.4499
42.371525 97.744 -88.0965
42.678567 98.026 -88.7462
42.987834 98.304 -89.3985
43.299341 98.578 -90.0537
43.613106 98.843 -90.7124
43.929145 99.099 -91.3755
44.247473 99.342 -92.0441
44.568109 99.572 -92.7193
44.891068 99.787 -93.4022
45.216367 99.987 -94.0932
45.544023 100.169 -94.7921
45.874054 100.334 -95.4984
46.206476 100.482 -96.2109
46.541307 100.612 -96.9286
46.878565 100.724 -97.6500
47.218266 100.820 -98.3744
47.560429 100.898 -99.1011
47.905072 100.961 -99.8300
48.252212 101.008 -100.5612
48.601867 101.042 -101.2949
48.954056 101.064 -102.0315
49.308798 101.075 -102.7710
49.666109 101.078 -103.5132
50.026010 101.074 -104.2582
50.388520 101.065 -105.0056
50.753656 101.053 -105.7553
51.121437 101.041 -106.5071
51.491884 101.029 -107.2608
51.865016 101.019 -108.0161
52.240851 101.011 -108.7725
52.619410 101.006 -109.5297
53.000712 101.005 -110.2874
53.384777 101.006 -111.0450
53.771625 101.009 -111.8025
54.161276 101.015 -112.5596
54.553751 101.022 -113.3162
54.949070 101.029 -114.0724
55.347254 101.036 -114.8284
55.748323 101.041 -115.5845
56.152298 101.044 -116.3410
56.559201 101.045 -117.0982
56.969052 101.042 -117.8563
57.381873 101.036 -118.6152
57.797686 101.026 -119.3746
58.216512 101.012 -120.1340
58.638373 100.995 -120.8927
59.063291 100.974 -121.6494
59.491288 100.949 -122.4028
59.922386 100.921 -123.1518
60.356608 100.891 -123.8957
60.793977 100.857 -124.6345
61.234515 100.823 -125.3689
61.678246 100.787 -126.1003
62.125192 100.750 -126.8298
62.575377 100.714 -127.5587
63.028824 100.678 -128.2875
63.485557 100.643 -129.0163
63.945599 100.609 -129.7449
64.408975 100.576 -130.4730
64.875709 100.545 -131.2002
65.345825 100.515 -131.9264
65.819348 100.487 -132.6512
66.296302 100.461 -133.3746
66.776713 100.437 -134.0960
67.260604 100.415 -134.8151
67.748002 100.394 -135.5312
68.238932 100.376 -136.2437
68.733420 100.359 -136.9516
69.231490 100.343 -137.6544
69.733170 100.329 -138.3514
70.238485 100.316 -139.0422
70.747463 100.304 -139.7266
71.260128 100.292 -140.4044
71.776508 100.281 -141.0757
72.296630 100.271 -141.7406
72.820521 100.261 -142.3994
73.348209 100.251 -143.0521
73.879720 100.241 -143.6990
74.415083 100.232 -144.3403
74.954326 100.223 -144.9759
75.497475 100.213 -145.6059
76.044561 100.203 -146.2300
76.595612 100.192 -146.8481
77.150655 100.179 -147.4599
77.709720 100.165 -148.0654
78.272837 100.147 -148.6646
78.840034 100.126 -149.2578
79.411342 100.102 -149.8452
79.986789 100.073 -150.4271
80.566406 100.040 -151.0035
81.150224 100.003 -151.5743
81.738272 99.963 -152.1395
82.330581 99.919 -152.6988
82.927182 99.873 -153.2520
83.528107 99.825 -153.7988
84.133386 99.779 -154.3390
84.743051 99.736 -154.8724
85.357134 99.698 -155.3988
85.975667 99.670 -155.9182
86.598682 99.653 -156.4308
87.226212 99.653 -156.9367
87.858289 99.671 -157.4363
88.494946 99.710 -157.9300
89.136217 99.774 -158.4181
89.782135 99.861 -158.9012
90.432733 99.972 -159.3797
91.088046 100.104 -159.8539
91.748108 100.255 -160.3241
92.412952 100.419 -160.7904
93.082615 100.591 -161.2527
93.757130 100.766 -161.7109
94.436533 100.938 -162.1648
95.120859 101.103 -162.6141
95.810144 101.257 -163.0585
96.504423 101.396 -163.4980
97.203734 101.518 -163.9323
97.908112 101.623 -164.3614
98.617595 101.711 -164.7855
99.332219 101.782 -165.2045
100.052021 101.838 -165.6186
100.777039 101.881 -166.0276
101.507311 101.914 -166.4313
102.242875 101.938 -166.8295
102.983769 101.956 -167.2217
103.730032 101.968 -167.6077
104.481702 101.975 -167.9874
105.238820 101.978 -168.3605
106.001424 101.975 -168.7273
106.769554 101.965 -169.0882
107.543250 101.948 -169.4435
108.322553 101.921 -169.7938
109.107503 101.882 -170.1398
109.898141 101.831 -170.4819
110.694508 101.766 -170.8205
111.496646 101.688 -171.1557
112.304596 101.597 -171.4877
113.118402 101.493 -171.8166
113.938104 101.379 -172.1422
114.763747 101.256 -172.4646
115.595372 101.127 -172.7836
116.433024 100.993 -173.0995
117.276746 100.858 -173.4123
118.126581 100.722 -173.7222
118.982575 100.588 -174.0296
119.844772 100.456 -174.3349
120.713217 100.327 -174.6386
121.587954 100.201 -174.9407
122.469031 100.077 -175.2411
123.356492 99.955 -175.5396
124.250384 99.832 -175.8356
125.150753 99.708 -176.1292
126.057647 99.580 -176.4200
126.971113 99.449 -176.7082
127.891198 99.311 -176.9941
128.817950 99.168 -177.2780
129.751418 99.017 -177.5602
130.691651 98.860 -177.8411
131.638696 98.697 -178.1211
132.592604 98.529 -178.4002
133.553425 98.358 -178.6785
134.521208 98.187 -178.9555
135.496004 98.018 -179.2304
136.477864 97.855 -179.5019
137.466839 97.700 -179.7683
138.462981 97.557 179.9726
139.466340 97.429 179.7232
140.476971 97.316 179.4860
141.494925 97.220 179.2634
142.520256 97.142 179.0578
143.553016 97.079 178.8708
144.593260 97.029 178.7039
145.641043 96.990 178.5573
146.696418 96.957 178.4311
147.759441 96.928 178.3242
148.830166 96.899 178.2352
149.908651 96.868 178.1624
150.994951 96.831 178.1044
152.089123 96.789 178.0596
153.191223 96.741 178.0273
154.301310 96.687 178.0071
155.419441 96.628 177.9990
156.545674 96.566 178.0035
157.680069 96.502 178.0214
158.822683 96.439 178.0536
159.973578 96.378 178.1008
161.132813 96.319 178.1640
162.300447 96.265 178.2437
163.476543 96.217 178.3403
164.661162 96.174 178.4536
165.854364 96.137 178.5831
167.056213 96.108 178.7274
168.266772 96.087 178.8848
169.486102 96.073 179.0528
170.714268 96.068 179.2286
171.951334 96.072 179.4088
173.197364 96.085 179.5894
174.452424 96.107 179.7664
175.716578 96.138 179.9354
176.989893 96.176 -179.9077
178.272434 96.220 -179.7666
179.564270 96.270 -179.6446
180.865467 96.322 -179.5439
182.176092 96.376 -179.4663
183.496216 96.429 -179.4129
184.825905 96.481 -179.3837
186.165229 96.530 -179.3784
187.514259 96.576 -179.3960
188.873065 96.618 -179.4353
190.241717 96.657 -179.4946
191.620287 96.692 -179.5720
193.008847 96.725 -179.6654
194.407468 96.756 -179.7726
195.816225 96.785 -179.8912
197.235190 96.811 179.9808
198.664438 96.836 179.8457
200.104042 96.858 179.7054
201.554078 96.878 179.5618
203.014622 96.895 179.4165
204.485750 96.908 179.2709
205.967538 96.917 179.1261
207.460064 96.922 178.9827
208.963405 96.923 178.8413
210.477640 96.919 178.7022
212.002848 96.912 178.5657
213.539108 96.900 178.4322
215.086500 96.885 178.3017
216.645105 96.867 178.1746
218.215005 96.847 178.0510
219.796281 96.824 177.9311
221.389015 96.799 177.8151
222.993292 96.770 177.7031
224.609193 96.738 177.5952
226.236804 96.702 177.4913
227.876209 96.661 177.3914
229.527494 96.615 177.2951
231.190745 96.564 177.2024
232.866048 96.508 177.1129
234.553491 96.446 177.0262
236.253163 96.380 176.9421
237.965150 96.310 176.8604
239.689544 96.237 176.7809
241.426433 96.162 176.7034
243.175909 96.085 176.6281
244.938062 96.009 176.5549
246.712984 95.934 176.4838
248.500768 95.861 176.4149
250.301507 95.790 176.3481
252.115295 95.722 176.2833
253.942226 95.659 176.2205
255.782396 95.600 176.1595
257.635901 95.547 176.1004
259.502837 95.499 176.0430
261.383301 95.458 175.9875
263.277392 95.422 175.9340
265.185209 95.394 175.8826
267.106850 95.372 175.8334
269.042417 95.357 175.7867
270.992009 95.347 175.7425
272.955729 95.343 175.7007
274.933678 95.344 175.6612
276.925961 95.350 175.6238
278.932681 95.358 175.5883
280.953942 95.370 175.5541
282.989850 95.384 175.5210
285.040511 95.401 175.4886
287.106032 95.421 175.4567
289.186521 95.445 175.4250
291.282086 95.473 175.3936
293.392836 95.506 175.3625
295.518881 95.544 175.3322
297.660333 95.589 175.3027
299.817302 95.639 175.2744
301.989902 95.694 175.2474
304.178245 95.752 175.2220
306.382446 95.813 175.1981
308.602620 95.874 175.1759
310.838882 95.934 175.1552
313.091348 95.990 175.1361
315.360137 96.042 175.1184
317.645367 96.088 175.1020
319.947156 96.126 175.0868
322.265625 96.156 175.0726
324.600895 96.177 175.0591
326.953086 96.189 175.0461
329.322323 96.191 175.0333
331.708729 96.182 175.0205
334.112427 96.163 175.0075
336.533543 96.134 174.9944
338.972204 96.094 174.9813
341.428536 96.046 174.9681
343.902668 95.989 174.9553
346.394729 95.926 174.9430
348.904848 95.856 174.9315
351.433156 95.784 174.9210
353.979786 95.710 174.9118
356.544869 95.637 174.9039
359.128540 95.568 174.8974
361.730934 95.506 174.8922
364.352185 95.454 174.8880
366.992431 95.414 174.8848
369.651810 95.389 174.8821
372.330459 95.381 174.8798
375.028519 95.391 174.8777
377.746130 95.418 174.8759
380.483434 95.463 174.8744
383.240574 95.523 174.8734
386.017693 95.597 174.8732
388.814937 95.683 174.8738
391.632450 95.776 174.8754
394.470380 95.875 174.8778
397.328875 95.978 174.8810
400.208084 96.081 174.8847
403.108157 96.183 174.8889
406.029245 96.283 174.8932
408.971500 96.381 174.8976
411.935076 96.475 174.9020
414.920127 96.565 174.9064
417.926810 96.654 174.9109
420.955280 96.740 174.9157
424.005695 96.825 174.9211
427.078215 96.910 174.9273
430.173000 96.995 174.9345
433.290211 97.081 174.9430
436.430010 97.166 174.9527
439.592562 97.252 174.9637
442.778031 97.336 174.9756
445.986583 97.418 174.9883
449.218386 97.496 175.0013
452.473607 97.569 175.0145
455.752418 97.634 175.0275
459.054987 97.691 175.0402
462.381489 97.739 175.0527
465.732096 97.776 175.0650
469.106983 97.803 175.0772
472.506325 97.819 175.0895
475.930301 97.826 175.1020
479.379088 97.824 175.1148
482.852867 97.814 175.1283
486.351817 97.797 175.1426
489.876123 97.774 175.1583
493.425968 97.747 175.1756
497.001536 97.715 175.1946
500.603014 97.680 175.2154
504.230589 97.643 175.2379
507.884452 97.603 175.2616
511.564792 97.560 175.2862
515.271802 97.515 175.3113
519.005673 97.468 175.3366
522.766602 97.421 175.3619
526.554785 97.373 175.3871
530.370418 97.328 175.4124
534.213700 97.286 175.4375
538.084833 97.251 175.4628
541.984018 97.222 175.4882
545.911457 97.202 175.5138
549.867357 97.192 175.5398
553.851922 97.192 175.5660
557.865362 97.200 175.5923
561.907884 97.217 175.6183
565.979700 97.239 175.6436
570.081022 97.266 175.6678
574.212064 97.294 175.6905
578.373042 97.323 175.7114
582.564171 97.349 175.7300
586.785671 97.372 175.7457
591.037762 97.391 175.7580
595.320665 97.403 175.7663
599.634604 97.409 175.7704
603.979804 97.408 175.7706
608.356491 97.400 175.7672
612.764893 97.386 175.7607
617.205240 97.366 175.7519
621.677763 97.341 175.7415
626.182696 97.314 175.7299
630.720274 97.285 175.7174
635.290733 97.257 175.7041
639.894312 97.231 175.6898
644.531250 97.210 175.6741
649.201789 97.195 175.6567
653.906173 97.187 175.6372
658.644647 97.187 175.6151
663.417457 97.194 175.5900
668.224854 97.208 175.5616
673.067086 97.229 175.5295
677.944408 97.254 175.4937
682.857073 97.282 175.4534
687.805336 97.311 175.4082
692.789457 97.340 175.3574
697.809695 97.367 175.3004
702.866312 97.391 175.2367
707.959571 97.410 175.1663
713.089738 97.426 175.0896
718.257080 97.436 175.0071
723.461867 97.441 174.9196
728.704370 97.442 174.8275
733.984862 97.439 174.7314
739.303619 97.433 174.6316
744.660918 97.424 174.5280
750.057038 97.413 174.4205
755.492260 97.401 174.3091
760.966869 97.388 174.1937
766.481148 97.374 174.0741
772.035387 97.358 173.9500
777.629873 97.341 173.8212
783.264900 97.321 173.6877
788.940760 97.297 173.5494
794.657750 97.269 173.4066
800.416168 97.236 173.2594
806.216313 97.196 173.1078
812.058489 97.150 172.9516
817.943000 97.098 172.7906
823.870152 97.039 172.6248
829.840255 96.973 172.4542
835.853619 96.902 172.2788
841.910559 96.826 172.0989
848.011390 96.746 171.9143
854.156430 96.663 171.7248
860.346000 96.579 171.5298
866.580422 96.495 171.3289
872.860020 96.411 171.1214
879.185124 96.330 170.9070
885.556062 96.251 170.6854
891.973166 96.176 170.4565
898.436771 96.106 170.2204
904.947215 96.043 169.9772
911.504835 95.986 169.7274
918.109975 95.936 169.4715
924.762978 95.894 169.2107
931.464192 95.860 168.9459
938.213966 95.835 168.6783
945.012651 95.818 168.4090
951.860602 95.809 168.1383
958.758176 95.807 167.8665
965.705733 95.813 167.5940
972.703635 95.823 167.3212
979.752246 95.839 167.0495
986.851935 95.859 166.7806
994.003071 95.883 166.5163
1001.206027 95.910 166.2578
1008.461179 95.941 166.0055
1015.768904 95.977 165.7583
1023.129584 96.018 165.5141
1030.543603 96.065 165.2698
1038.011347 96.118 165.0225
1045.533205 96.178 164.7699
1053.109569 96.244 164.5109
1060.740836 96.317 164.2453
1068.427401 96.395 163.9740
1076.169666 96.478 163.6978
1083.968035 96.566 163.4177
1091.822915 96.655 163.1339
1099.734713 96.746 162.8467
1107.703844 96.835 162.5560
1115.730723 96.920 162.2620
1123.815768 97.000 161.9653
1131.959400 97.074 161.6671
1140.162045 97.140 161.3690
1148.424129 97.197 161.0730
1156.746083 97.245 160.7814
1165.128342 97.286 160.4962
1173.571343 97.319 160.2187
1182.075524 97.346 159.9501
1190.641331 97.369 159.6909
1199.269209 97.389 159.4414
1207.959608 97.407 159.2021
1216.712981 97.424 158.9732
1225.529785 97.440 158.7549
1234.410479 97.455 158.5472
1243.355526 97.470 158.3500
1252.365393 97.484 158.1633
1261.440549 97.496 157.9871
1270.581467 97.505 157.8217
1279.788624 97.512 157.6670
1289.062500 97.515 157.5227
1298.403578 97.515 157.3880
1307.812346 97.511 157.2617
1317.289293 97.504 157.1428
1326.834914 97.493 157.0307
1336.449707 97.479 156.9251
1346.134173 97.462 156.8261
1355.888816 97.442 156.7335
1365.714145 97.419 156.6472
1375.610673 97.393 156.5671
1385.578915 97.363 156.4937
1395.619391 97.331 156.4283
1405.732624 97.295 156.3729
1415.919142 97.255 156.3295
1426.179476 97.213 156.3001
1436.514160 97.169 156.2863
1446.923734 97.123 156.2892
1457.408740 97.078 156.3091
1467.969724 97.033 156.3461
1478.607238 96.990 156.3992
1489.321836 96.950 156.4675
1500.114076 96.914 156.5495
1510.984521 96.881 156.6439
1521.933737 96.853 156.7498
1532.962297 96.829 156.8668
1544.070773 96.808 156.9946
1555.259747 96.791 157.1332
1566.529800 96.777 157.2822
1577.881521 96.765 157.4414
1589.315501 96.754 157.6112
1600.832336 96.744 157.7930
1612.432627 96.735 157.9890
1624.116978 96.725 158.2015
1635.886000 96.717 158.4324
1647.740304 96.709 158.6818
1659.680509 96.703 158.9483
1671.707238 96.699 159.2288
1683.821118 96.697 159.5191
1696.022780 96.699 159.8149
1708.312860 96.703 160.1129
1720.692000 96.710 160.4108
1733.160843 96.718 160.7080
1745.720041 96.729 161.0052
1758.370248 96.740 161.3044
1771.112124 96.753 161.6085
1783.946332 96.765 161.9218
1796.873543 96.777 162.2486
1809.894429 96.790 162.5924
1823.009670 96.803 162.9547
1836.219950 96.816 163.3344
1849.525956 96.831 163.7287
1862.928384 96.847 164.1346
1876.427931 96.865 164.5494
1890.025301 96.886 164.9707
1903.721204 96.909 165.3957
1917.516352 96.934 165.8210
1931.411466 96.962 166.2433
1945.407270 96.993 166.6605
1959.504493 97.024 167.0708
1973.703870 97.057 167.4726
1988.006142 97.089 167.8632
2002.412054 97.120 168.2395
2016.922357 97.149 168.5988
2031.537808 97.174 168.9390
2046.259169 97.194 169.2589
2061.087206 97.209 169.5574
2076.022694 97.218 169.8340
2091.066410 97.222 170.0880
2106.219139 97.219 170.3185
2121.481671 97.212 170.5244
2136.854802 97.201 170.7045
2152.339333 97.187 170.8570
2167.936071 97.170 170.9800
2183.645829 97.153 171.0720
2199.469427 97.134 171.1321
2215.407689 97.116 171.1610
2231.461446 97.098 171.1612
2247.631536 97.081 171.1363
2263.918800 97.064 171.0903
2280.324089 97.048 171.0272
2296.848258 97.033 170.9503
2313.492167 97.020 170.8615
2330.256685 97.007 170.7615
2347.142685 96.996 170.6501
2364.151049 96.986 170.5263
2381.282662 96.977 170.3890
2398.538418 96.968 170.2369
2415.919216 96.959 170.0693
2433.425962 96.951 169.8854
2451.059570 96.942 169.6848
2468.820958 96.934 169.4672
2486.711052 96.925 169.2328
2504.730786 96.915 168.9815
2522.881098 96.906 168.7133
2541.162934 96.896 168.4283
2559.577248 96.887 168.1264
2578.125000 96.878 167.8088
2596.807157 96.870 167.4777
2615.624692 96.861 167.1368
2634.578586 96.854 166.7916
2653.669829 96.847 166.4488
2672.899414 96.841 166.1160
2692.268345 96.837 165.8015
2711.777632 96.835 165.5135
2731.428290 96.835 165.2598
2751.221345 96.837 165.0477
2771.157829 96.841 164.8834
2791.238781 96.848 164.7719
2811.465248 96.856 164.7175
2831.838284 96.864 164.7229
2852.358952 96.872 164.7903
2873.028321 96.879 164.9214
2893.847468 96.884 165.1176
2914.817480 96.886 165.3801
2935.939449 96.884 165.7094
2957.214476 96.879 166.1057
2978.643672 96.870 166.5678
3000.228152 96.858 167.0929
3021.969041 96.844 167.6763
3043.867475 96.829 168.3112
3065.924593 96.815 168.9882
3088.141547 96.802 169.6958
3110.519493 96.793 170.4204
3133.059600 96.788 171.1470
3155.763041 96.788 171.8601
3178.631001 96.793 172.5447
3201.664672 96.803 173.1878
3224.865254 96.817 173.7797
3248.233957 96.833 174.3152
3271.771999 96.851 174.7943
3295.480608 96.868 175.2219
3319.361019 96.884 175.6082
3343.414477 96.898 175.9663
3367.642236 96.909 176.3117
3392.045560 96.918 176.6596
3416.625721 96.928 177.0229
3441.383999 96.941 177.4105
3466.321686 96.960 177.8246
3491.440082 96.988 178.2609
3516.740496 97.029 178.7070
3542.224247 97.084 179.1446
3567.892664 97.156 179.5506
3593.747085 97.243 179.9002
3619.788858 97.346 -179.8302
3646.019340 97.462 -179.6609
3672.439900 97.587 -179.6064
3699.051913 97.718 -179.6750
3725.856768 97.850 -179.8680
3752.855862 97.979 179.8192
3780.050603 98.103 179.3967
3807.442408 98.217 178.8787
3835.032705 98.318 178.2822
3862.822933 98.406 177.6259
3890.814540 98.479 176.9296
3919.008986 98.535 176.2126
3947.407741 98.574 175.4936
3976.012284 98.597 174.7902
4004.824108 98.604 174.1186
4033.844715 98.595 173.4934
4063.075616 98.572 172.9277
4092.518337 98.535 172.4329
4122.174412 98.486 172.0188
4152.045387 98.426 171.6937
4182.132820 98.357 171.4644
4212.438278 98.280 171.3362
4242.963342 98.197 171.3138
4273.709604 98.110 171.4007
4304.678665 98.019 171.5994
4335.872141 97.927 171.9116
4367.291658 97.834 172.3372
4398.938854 97.744 172.8743
4430.815378 97.657 173.5188
4462.922893 97.574 174.2643
4495.263072 97.496 175.1020
4527.837601 97.425 176.0210
4560.648179 97.362 177.0087
4593.696515 97.306 178.0518
4626.984334 97.258 179.1364
4660.513370 97.218 -179.7513
4694.285371 97.187 -178.6244
4728.302098 97.165 -177.4951
4762.565324 97.153 -176.3744
4797.076835 97.149 -175.2717
4831.838432 97.156 -174.1951
4866.851925 97.173 -173.1514
4902.119140 97.200 -172.1458
4937.641916 97.237 -171.1825
4973.422105 97.285 -170.2644
5009.461572 97.344 -169.3931
5045.762195 97.412 -168.5697
5082.325868 97.490 -167.7942
5119.154496 97.577 -167.0661
5156.250000 97.673 -166.3844
5193.614313 97.777 -165.7479
5231.249383 97.888 -165.1553
5269.157173 98.005 -164.6056
5307.339658 98.129 -164.0978
5345.798829 98.259 -163.6313
5384.536691 98.394 -163.2057
5423.555263 98.534 -162.8208
5462.856580 98.678 -162.4765
5502.442691 98.827 -162.1729
5542.315659 98.982 -161.9100
5582.477563 99.142 -161.6880
5622.930497 99.309 -161.5069
5663.676569 99.483 -161.3673
5704.717904 99.666 -161.2697
5746.056642 99.859 -161.2155
5787.694937 100.063 -161.2064
5829.634960 100.278 -161.2457
5871.878898 100.506 -161.3378
5914.428953 100.747 -161.4892
5957.287343 101.000 -161.7082
6000.456303 101.263 -162.0051
6043.938083 101.536 -162.3917
6087.734950 101.814 -162.8805
6131.849187 102.095 -163.4835
6176.283094 102.376 -164.2116
6221.038987 102.651 -165.0731
6266.119200 102.916 -166.0730
6311.526083 103.167 -167.2123
6357.262002 103.401 -168.4879
6403.329344 103.613 -169.8922
6449.730508 103.801 -171.4137
6496.467914 103.964 -173.0373
6543.543998 104.100 -174.7459
6590.961215 104.210 -176.5206
6638.722037 104.294 -178.3427
6686.828954 104.354 179.8053
6735.284473 104.395 177.9380
6784.091120 104.419 176.0657
6833.251441 104.430 174.1935
6882.767998 104.434 172.3210
6932.643372 104.434 170.4427
6982.880164 104.433 168.5490
7033.480992 104.435 166.6273
7084.448495 104.441 164.6631
7135.785329 104.451 162.6421
7187.494171 104.465 160.5499
7239.577717 104.483 158.3735
7292.038681 104.501 156.1010
7344.879799 104.518 153.7219
7398.103826 104.531 151.2275
7451.713536 104.534 148.6108
7505.711724 104.524 145.8668
7560.101205 104.497 142.9938
7614.884815 104.448 139.9927
7670.065409 104.372 136.8683
7725.645865 104.265 133.6284
7781.629080 104.123 130.2832
7838.017972 103.944 126.8444
7894.815481 103.726 123.3230
7952.024569 103.467 119.7278
8009.648217 103.169 116.0649
8067.689429 102.831 112.3361
8126.151233 102.454 108.5394
8185.036674 102.039 104.6686
8244.348824 101.588 100.7129
8304.090774 101.101 96.6566
8364.265639 100.580 92.4776
8424.876556 100.028 88.1461
8485.926684 99.447 83.6219
8547.419207 98.840 78.8523
8609.357330 98.210 73.7682
8671.744282 97.563 68.2800
8734.583316 96.905 62.2723
8797.877707 96.243 55.5981
8861.630756 95.588 48.0751
8925.845785 94.956 39.4919
8990.526143 94.365 29.6395
9055.675202 93.841 18.3942
9121.296357 93.409 5.8579
9187.393031 93.096 -7.5105
9253.968668 92.922 -20.9375
9321.026740 92.895 -33.6230
9388.570742 93.006 -45.0588
9456.604196 93.235 -55.1157
9525.130648 93.550 -63.9266
9594.153671 93.919 -71.7335
9663.676863 94.309 -78.7867
9733.703850 94.691 -85.2995
9804.238280 95.044 -91.4359
9875.283832 95.349 -97.3091
9946.844210 95.591 -102.9879
10018.923143 95.760 -108.5028
10091.524390 95.851 -113.8542
10164.651736 95.860 -119.0211
10238.308993 95.789 -123.9691
10312.500000 95.639 -128.6586
10387.228626 95.417 -133.0488
10462.498767 95.129 -137.1022
10538.314345 94.784 -140.7850
10614.679315 94.390 -144.0691
10691.597657 93.957 -146.9335
10769.073381 93.496 -149.3673
10847.110526 93.018 -151.3740
10925.713161 92.537 -152.9767
11004.885382 92.064 -154.2225
11084.631318 91.612 -155.1852
11164.955126 91.190 -155.9598
11245.860993 90.803 -156.6528
11327.353138 90.450 -157.3656
11409.435808 90.125 -158.1794
11492.113283 89.818 -159.1448
11575.389873 89.517 -160.2792
11659.269920 89.209 -161.5714
11743.757796 88.884 -162.9902
11828.857906 88.535 -164.4950
11914.574686 88.157 -166.0430
12000.912606 87.750 -167.5952
12087.876166 87.312 -169.1185
12175.469900 86.845 -170.5864
12263.698373 86.351 -171.9768
12352.566187 85.832 -173.2705
12442.077974 85.292 -174.4509
12532.238400 84.733 -175.5062
12623.052165 84.161 -176.4351
12714.524005 83.585 -177.2563
12806.658687 83.013 -178.0178
12899.461015 82.460 -178.8014
12992.935827 81.938 -179.7193
13087.087996 81.462 179.0978
13181.922430 81.046 177.5134
13277.444074 80.700 175.3908
13373.657907 80.439 172.5859
13470.568945 80.273 168.9233
13568.182241 80.211 164.1527
13666.502883 80.258 157.8647
13765.535996 80.410 149.3118
13865.286744 80.659 137.0024
13965.760328 80.987 117.9174
14066.961984 81.377 87.9468
14168.896989 81.807 51.4844
14271.570658 82.257 22.7632
14374.988342 82.709 3.5803
14479.155433 83.148 -10.2726
14584.077362 83.562 -21.4447
14689.759598 83.941 -31.2097
14796.207652 84.277 -40.1925
14903.427072 84.563 -48.7203
15011.423448 84.793 -56.9744
15120.202410 84.961 -65.0573
15229.769630 85.060 -73.0239
15340.130819 85.084 -80.8951
15451.291730 85.026 -88.6658
15563.258160 84.882 -96.3085
15676.035944 84.647 -103.7770
15789.630962 84.319 -111.0080
15904.049137 83.898 -117.9236
16019.296433 83.384 -124.4319
16135.378859 82.781 -130.4263
16252.302465 82.094 -135.7820
16370.073348 81.326 -140.3513
16488.697648 80.486 -143.9583
16608.181548 79.580 -146.3993
16728.531278 78.619 -147.4590
16849.753112 77.613 -146.9546
16971.853368 76.576 -144.8293
17094.838414 75.527 -141.2860
17218.714660 74.490 -136.8818
17343.488565 73.494 -132.4423
17469.166632 72.574 -128.7784
17595.755415 71.770 -126.4224
17723.261512 71.113 -125.5691
17851.691571 70.621 -126.1774
17981.052287 70.288 -128.0902
18111.350404 70.088 -131.1093
18242.592715 69.982 -135.0247
18374.786062 69.927 -139.6189
18507.937336 69.888 -144.6578
18642.053479 69.839 -149.8745
18777.141484 69.764 -154.9504
18913.208391 69.660 -159.4957
19050.261296 69.529 -163.0330
19188.307342 69.383 -165.0066
19327.353727 69.232 -164.8757
19467.407699 69.090 -162.3860
19608.476560 68.967 -157.9965
19750.567664 68.870 -153.0111
19893.688419 68.803 -148.9431
20037.846286 68.769 -146.7446
