* Measurement data measured by REW V5.31.3
* Source: EXCL: Headset (USB-C to 3.5mm Headphone Jack Adapter), MICROPHONE (Master Volume), 0, volume: 0.260
* Format: 256k Log Swept Sine, 1 sweep at -12.0 dBFS with no timing reference
* Dated: Feb 19, 2025 7:46:31 PM
* REW Settings:
*  C-weighting compensation: Off
*  Target level: 75.0 dB
* Note: ; 
* Measurement: Satyr 3 L9
* Smoothing: 1/6 octave
* Frequency Step: 96 ppo
* Start Frequency: 20.0 Hz
*
* Freq(Hz) SPL(dB) Phase(degrees)
20.141602 93.564 -28.8275
20.287556 93.572 -29.0267
20.434568 93.582 -29.2918
20.582645 93.596 -29.6139
20.731796 93.613 -29.9834
20.882027 93.634 -30.3911
21.033346 93.659 -30.8292
21.185763 93.689 -31.2913
21.339284 93.724 -31.7724
21.493917 93.765 -32.2694
21.649671 93.812 -32.7802
21.806553 93.866 -33.3041
21.964572 93.925 -33.8407
22.123737 93.989 -34.3905
22.284054 94.059 -34.9537
22.445534 94.133 -35.5306
22.608183 94.209 -36.1211
22.772012 94.288 -36.7247
22.937027 94.369 -37.3403
23.103238 94.449 -37.9662
23.270654 94.528 -38.6003
23.439282 94.606 -39.2401
23.609133 94.682 -39.8826
23.780215 94.755 -40.5250
23.952536 94.825 -41.1645
24.126106 94.893 -41.7984
24.300934 94.959 -42.4250
24.477028 95.024 -43.0429
24.654399 95.088 -43.6518
24.833055 95.152 -44.2523
25.013005 95.217 -44.8459
25.194260 95.284 -45.4351
25.376828 95.354 -46.0229
25.560719 95.427 -46.6126
25.745942 95.503 -47.2076
25.932508 95.583 -47.8107
26.120426 95.666 -48.4241
26.309705 95.752 -49.0490
26.500356 95.841 -49.6853
26.692388 95.931 -50.3321
26.885812 96.024 -50.9871
27.080638 96.117 -51.6476
27.276876 96.211 -52.3105
27.474535 96.306 -52.9729
27.673627 96.401 -53.6320
27.874161 96.495 -54.2862
28.076149 96.590 -54.9343
28.279600 96.683 -55.5763
28.484526 96.775 -56.2129
28.690937 96.866 -56.8453
28.898843 96.954 -57.4751
29.108256 97.039 -58.1037
29.319186 97.122 -58.7328
29.531645 97.201 -59.3633
29.745644 97.278 -59.9964
29.961193 97.351 -60.6329
30.178304 97.422 -61.2734
30.396989 97.492 -61.9188
30.617258 97.560 -62.5700
30.839123 97.628 -63.2276
31.062596 97.697 -63.8925
31.287688 97.766 -64.5651
31.514412 97.838 -65.2455
31.742778 97.912 -65.9335
31.972800 97.989 -66.6283
32.204488 98.070 -67.3288
32.437855 98.154 -68.0339
32.672913 98.241 -68.7423
32.909674 98.333 -69.4529
33.148151 98.428 -70.1644
33.388356 98.526 -70.8759
33.630302 98.626 -71.5862
33.874001 98.728 -72.2940
34.119466 98.830 -72.9978
34.366710 98.931 -73.6956
34.615745 99.029 -74.3857
34.866585 99.125 -75.0662
35.119243 99.216 -75.7358
35.373731 99.302 -76.3938
35.630064 99.382 -77.0402
35.888254 99.456 -77.6760
36.148315 99.524 -78.3030
36.410261 99.585 -78.9234
36.674104 99.641 -79.5398
36.939860 99.692 -80.1547
37.207542 99.737 -80.7704
37.477163 99.779 -81.3885
37.748738 99.817 -82.0102
38.022281 99.853 -82.6362
38.297806 99.886 -83.2664
38.575327 99.919 -83.9005
38.854860 99.950 -84.5378
39.136419 99.982 -85.1774
39.420017 100.013 -85.8186
39.705671 100.044 -86.4605
39.993395 100.076 -87.1029
40.283203 100.108 -87.7455
40.575112 100.140 -88.3887
40.869136 100.173 -89.0330
41.165290 100.207 -89.6790
41.463591 100.241 -90.3276
41.764053 100.277 -90.9796
42.066693 100.314 -91.6360
42.371525 100.354 -92.2977
42.678567 100.395 -92.9654
42.987834 100.438 -93.6399
43.299341 100.484 -94.3218
43.613106 100.532 -95.0112
43.929145 100.581 -95.7085
44.247473 100.633 -96.4138
44.568109 100.686 -97.1272
44.891068 100.740 -97.8490
45.216367 100.795 -98.5795
45.544023 100.851 -99.3192
45.874054 100.907 -100.0684
46.206476 100.964 -100.8271
46.541307 101.020 -101.5948
46.878565 101.076 -102.3705
47.218266 101.133 -103.1525
47.560429 101.189 -103.9388
47.905072 101.246 -104.7271
48.252212 101.302 -105.5153
48.601867 101.359 -106.3013
48.954056 101.415 -107.0840
49.308798 101.472 -107.8628
49.666109 101.528 -108.6378
50.026010 101.584 -109.4097
50.388520 101.640 -110.1796
50.753656 101.694 -110.9486
51.121437 101.748 -111.7180
51.491884 101.800 -112.4885
51.865016 101.851 -113.2608
52.240851 101.899 -114.0352
52.619410 101.945 -114.8119
53.000712 101.989 -115.5909
53.384777 102.029 -116.3723
53.771625 102.066 -117.1561
54.161276 102.100 -117.9421
54.553751 102.130 -118.7302
54.949070 102.157 -119.5200
55.347254 102.180 -120.3107
55.748323 102.200 -121.1014
56.152298 102.216 -121.8911
56.559201 102.230 -122.6788
56.969052 102.242 -123.4633
57.381873 102.253 -124.2437
57.797686 102.263 -125.0193
58.216512 102.273 -125.7896
58.638373 102.283 -126.5546
59.063291 102.294 -127.3145
59.491288 102.304 -128.0696
59.922386 102.316 -128.8204
60.356608 102.327 -129.5671
60.793977 102.339 -130.3100
61.234515 102.350 -131.0495
61.678246 102.361 -131.7864
62.125192 102.372 -132.5215
62.575377 102.382 -133.2553
63.028824 102.391 -133.9881
63.485557 102.398 -134.7197
63.945599 102.403 -135.4496
64.408975 102.407 -136.1769
64.875709 102.408 -136.9008
65.345825 102.407 -137.6203
65.819348 102.404 -138.3344
66.296302 102.398 -139.0423
66.776713 102.390 -139.7431
67.260604 102.381 -140.4364
67.748002 102.369 -141.1219
68.238932 102.356 -141.7998
68.733420 102.342 -142.4706
69.231490 102.327 -143.1350
69.733170 102.311 -143.7937
70.238485 102.295 -144.4475
70.747463 102.279 -145.0970
71.260128 102.262 -145.7426
71.776508 102.246 -146.3847
72.296630 102.229 -147.0234
72.820521 102.212 -147.6587
73.348209 102.194 -148.2901
73.879720 102.176 -148.9175
74.415083 102.158 -149.5405
74.954326 102.139 -150.1585
75.497475 102.119 -150.7717
76.044561 102.099 -151.3798
76.595612 102.078 -151.9830
77.150655 102.056 -152.5816
77.709720 102.034 -153.1756
78.272837 102.011 -153.7652
78.840034 101.988 -154.3504
79.411342 101.964 -154.9313
79.986789 101.939 -155.5077
80.566406 101.914 -156.0794
81.150224 101.889 -156.6461
81.738272 101.863 -157.2074
82.330581 101.837 -157.7630
82.927182 101.810 -158.3124
83.528107 101.782 -158.8552
84.133386 101.755 -159.3912
84.743051 101.726 -159.9199
85.357134 101.698 -160.4410
85.975667 101.669 -160.9542
86.598682 101.639 -161.4595
87.226212 101.610 -161.9570
87.858289 101.581 -162.4471
88.494946 101.552 -162.9301
89.136217 101.524 -163.4065
89.782135 101.497 -163.8766
90.432733 101.471 -164.3408
91.088046 101.447 -164.7994
91.748108 101.423 -165.2527
92.412952 101.400 -165.7009
93.082615 101.378 -166.1441
93.757130 101.356 -166.5822
94.436533 101.334 -167.0149
95.120859 101.311 -167.4421
95.810144 101.287 -167.8636
96.504423 101.260 -168.2796
97.203734 101.232 -168.6902
97.908112 101.202 -169.0956
98.617595 101.169 -169.4963
99.332219 101.133 -169.8925
100.052021 101.096 -170.2847
100.777039 101.057 -170.6732
101.507311 101.016 -171.0582
102.242875 100.974 -171.4398
102.983769 100.931 -171.8181
103.730032 100.889 -172.1929
104.481702 100.846 -172.5640
105.238820 100.805 -172.9309
106.001424 100.764 -173.2930
106.769554 100.724 -173.6497
107.543250 100.686 -174.0006
108.322553 100.649 -174.3458
109.107503 100.614 -174.6855
109.898141 100.580 -175.0205
110.694508 100.547 -175.3512
111.496646 100.516 -175.6781
112.304596 100.485 -176.0014
113.118402 100.454 -176.3209
113.938104 100.424 -176.6365
114.763747 100.393 -176.9478
115.595372 100.362 -177.2548
116.433024 100.330 -177.5575
117.276746 100.297 -177.8563
118.126581 100.263 -178.1517
118.982575 100.229 -178.4442
119.844772 100.194 -178.7345
120.713217 100.158 -179.0233
121.587954 100.123 -179.3108
122.469031 100.087 -179.5972
123.356492 100.052 -179.8825
124.250384 100.017 179.8333
125.150753 99.984 179.5502
126.057647 99.951 179.2678
126.971113 99.920 178.9858
127.891198 99.889 178.7036
128.817950 99.861 178.4203
129.751418 99.833 178.1353
130.691651 99.806 177.8472
131.638696 99.781 177.5550
132.592604 99.755 177.2576
133.553425 99.729 176.9543
134.521208 99.702 176.6447
135.496004 99.674 176.3289
136.477864 99.643 176.0080
137.466839 99.608 175.6833
138.462981 99.569 175.3571
139.466340 99.525 175.0321
140.476971 99.476 174.7118
141.494925 99.420 174.4005
142.520256 99.358 174.1027
143.553016 99.290 173.8237
144.593260 99.217 173.5688
145.641043 99.138 173.3428
146.696418 99.056 173.1498
147.759441 98.972 172.9923
148.830166 98.887 172.8712
149.908651 98.802 172.7854
150.994951 98.720 172.7323
152.089123 98.641 172.7082
153.191223 98.565 172.7086
154.301310 98.493 172.7289
155.419441 98.426 172.7651
156.545674 98.363 172.8136
157.680069 98.303 172.8722
158.822683 98.246 172.9396
159.973578 98.191 173.0155
161.132813 98.138 173.1005
162.300447 98.086 173.1956
163.476543 98.036 173.3023
164.661162 97.986 173.4221
165.854364 97.937 173.5569
167.056213 97.889 173.7083
168.266772 97.843 173.8777
169.486102 97.798 174.0665
170.714268 97.754 174.2754
171.951334 97.713 174.5046
173.197364 97.675 174.7536
174.452424 97.641 175.0208
175.716578 97.610 175.3033
176.989893 97.583 175.5977
178.272434 97.561 175.8994
179.564270 97.543 176.2031
180.865467 97.530 176.5034
182.176092 97.522 176.7947
183.496216 97.517 177.0714
184.825905 97.516 177.3282
186.165229 97.519 177.5607
187.514259 97.524 177.7651
188.873065 97.530 177.9387
190.241717 97.537 178.0799
191.620287 97.544 178.1880
193.008847 97.550 178.2635
194.407468 97.554 178.3072
195.816225 97.557 178.3207
197.235190 97.556 178.3062
198.664438 97.553 178.2662
200.104042 97.547 178.2036
201.554078 97.537 178.1213
203.014622 97.525 178.0227
204.485750 97.511 177.9107
205.967538 97.494 177.7881
207.460064 97.476 177.6574
208.963405 97.458 177.5207
210.477640 97.439 177.3796
212.002848 97.422 177.2357
213.539108 97.406 177.0904
215.086500 97.393 176.9450
216.645105 97.382 176.8008
218.215005 97.375 176.6588
219.796281 97.371 176.5201
221.389015 97.370 176.3856
222.993292 97.373 176.2558
224.609193 97.379 176.1313
226.236804 97.388 176.0124
227.876209 97.399 175.8991
229.527494 97.412 175.7914
231.190745 97.427 175.6889
232.866048 97.443 175.5913
234.553491 97.461 175.4982
236.253163 97.478 175.4091
237.965150 97.496 175.3239
239.689544 97.514 175.2426
241.426433 97.532 175.1652
243.175909 97.549 175.0918
244.938062 97.565 175.0226
246.712984 97.580 174.9575
248.500768 97.594 174.8967
250.301507 97.606 174.8401
252.115295 97.617 174.7876
253.942226 97.627 174.7389
255.782396 97.636 174.6935
257.635901 97.644 174.6509
259.502837 97.651 174.6105
261.383301 97.656 174.5717
263.277392 97.661 174.5340
265.185209 97.665 174.4971
267.106850 97.668 174.4610
269.042417 97.669 174.4254
270.992009 97.669 174.3907
272.955729 97.666 174.3572
274.933678 97.661 174.3253
276.925961 97.653 174.2954
278.932681 97.641 174.2680
280.953942 97.625 174.2433
282.989850 97.605 174.2212
285.040511 97.582 174.2018
287.106032 97.553 174.1850
289.186521 97.521 174.1705
291.282086 97.485 174.1581
293.392836 97.445 174.1479
295.518881 97.401 174.1396
297.660333 97.355 174.1334
299.817302 97.306 174.1294
301.989902 97.256 174.1275
304.178245 97.204 174.1277
306.382446 97.151 174.1298
308.602620 97.099 174.1337
310.838882 97.048 174.1390
313.091348 96.998 174.1454
315.360137 96.950 174.1524
317.645367 96.905 174.1596
319.947156 96.864 174.1666
322.265625 96.826 174.1732
324.600895 96.792 174.1791
326.953086 96.763 174.1844
329.322323 96.740 174.1890
331.708729 96.721 174.1930
334.112427 96.708 174.1967
336.533543 96.700 174.2002
338.972204 96.697 174.2039
341.428536 96.700 174.2083
343.902668 96.708 174.2136
346.394729 96.720 174.2200
348.904848 96.736 174.2277
351.433156 96.755 174.2369
353.979786 96.776 174.2474
356.544869 96.799 174.2595
359.128540 96.823 174.2730
361.730934 96.846 174.2878
364.352185 96.868 174.3036
366.992431 96.888 174.3199
369.651810 96.905 174.3362
372.330459 96.918 174.3520
375.028519 96.928 174.3669
377.746130 96.932 174.3808
380.483434 96.931 174.3937
383.240574 96.926 174.4056
386.017693 96.915 174.4167
388.814937 96.900 174.4271
391.632450 96.881 174.4365
394.470380 96.859 174.4452
397.328875 96.834 174.4533
400.208084 96.808 174.4613
403.108157 96.781 174.4700
406.029245 96.756 174.4806
408.971500 96.732 174.4944
411.935076 96.711 174.5127
414.920127 96.693 174.5363
417.926810 96.680 174.5654
420.955280 96.673 174.5993
424.005695 96.670 174.6364
427.078215 96.672 174.6747
430.173000 96.678 174.7125
433.290211 96.688 174.7483
436.430010 96.700 174.7815
439.592562 96.712 174.8122
442.778031 96.725 174.8408
445.986583 96.736 174.8680
449.218386 96.746 174.8950
452.473607 96.753 174.9224
455.752418 96.757 174.9511
459.054987 96.758 174.9818
462.381489 96.756 175.0151
465.732096 96.753 175.0513
469.106983 96.747 175.0907
472.506325 96.739 175.1329
475.930301 96.730 175.1777
479.379088 96.720 175.2247
482.852867 96.709 175.2734
486.351817 96.699 175.3234
489.876123 96.688 175.3745
493.425968 96.679 175.4265
497.001536 96.670 175.4791
500.603014 96.664 175.5323
504.230589 96.660 175.5859
507.884452 96.660 175.6398
511.564792 96.664 175.6938
515.271802 96.674 175.7481
519.005673 96.689 175.8026
522.766602 96.711 175.8573
526.554785 96.739 175.9125
530.370418 96.773 175.9680
534.213700 96.813 176.0239
538.084833 96.859 176.0801
541.984018 96.908 176.1366
545.911457 96.960 176.1932
549.867357 97.013 176.2498
553.851922 97.066 176.3063
557.865362 97.117 176.3623
561.907884 97.164 176.4178
565.979700 97.207 176.4727
570.081022 97.244 176.5269
574.212064 97.273 176.5803
578.373042 97.295 176.6329
582.564171 97.308 176.6848
586.785671 97.311 176.7358
591.037762 97.305 176.7860
595.320665 97.288 176.8354
599.634604 97.262 176.8843
603.979804 97.226 176.9331
608.356491 97.181 176.9822
612.764893 97.128 177.0322
617.205240 97.068 177.0834
621.677763 97.004 177.1361
626.182696 96.936 177.1903
630.720274 96.867 177.2457
635.290733 96.799 177.3021
639.894312 96.733 177.3595
644.531250 96.671 177.4178
649.201789 96.615 177.4770
653.906173 96.566 177.5373
658.644647 96.525 177.5984
663.417457 96.492 177.6602
668.224854 96.468 177.7224
673.067086 96.454 177.7844
677.944408 96.450 177.8459
682.857073 96.455 177.9067
687.805336 96.470 177.9665
692.789457 96.493 178.0253
697.809695 96.525 178.0831
702.866312 96.564 178.1404
707.959571 96.609 178.1969
713.089738 96.660 178.2521
718.257080 96.714 178.3048
723.461867 96.771 178.3530
728.704370 96.829 178.3950
733.984862 96.886 178.4290
739.303619 96.941 178.4539
744.660918 96.993 178.4691
750.057038 97.041 178.4742
755.492260 97.086 178.4696
760.966869 97.126 178.4562
766.481148 97.162 178.4350
772.035387 97.194 178.4073
777.629873 97.223 178.3744
783.264900 97.248 178.3375
788.940760 97.270 178.2972
794.657750 97.288 178.2541
800.416168 97.301 178.2078
806.216313 97.309 178.1577
812.058489 97.312 178.1028
817.943000 97.307 178.0422
823.870152 97.295 177.9751
829.840255 97.276 177.9011
835.853619 97.249 177.8200
841.910559 97.216 177.7318
848.011390 97.179 177.6367
854.156430 97.138 177.5347
860.346000 97.096 177.4261
866.580422 97.056 177.3106
872.860020 97.020 177.1883
879.185124 96.991 177.0588
885.556062 96.969 176.9221
891.973166 96.957 176.7779
898.436771 96.955 176.6264
904.947215 96.963 176.4682
911.504835 96.981 176.3040
918.109975 97.009 176.1348
924.762978 97.044 175.9615
931.464192 97.085 175.7844
938.213966 97.130 175.6036
945.012651 97.178 175.4190
951.860602 97.227 175.2302
958.758176 97.276 175.0369
965.705733 97.322 174.8393
972.703635 97.365 174.6384
979.752246 97.405 174.4358
986.851935 97.440 174.2333
994.003071 97.471 174.0326
1001.206027 97.500 173.8347
1008.461179 97.525 173.6397
1015.768904 97.550 173.4472
1023.129584 97.574 173.2560
1030.543603 97.600 173.0651
1038.011347 97.628 172.8733
1045.533205 97.659 172.6799
1053.109569 97.693 172.4844
1060.740836 97.732 172.2867
1068.427401 97.775 172.0869
1076.169666 97.821 171.8849
1083.968035 97.871 171.6808
1091.822915 97.922 171.4742
1099.734713 97.974 171.2643
1107.703844 98.024 171.0509
1115.730723 98.072 170.8338
1123.815768 98.115 170.6135
1131.959400 98.152 170.3905
1140.162045 98.182 170.1659
1148.424129 98.206 169.9406
1156.746083 98.222 169.7157
1165.128342 98.232 169.4920
1173.571343 98.237 169.2706
1182.075524 98.237 169.0527
1190.641331 98.233 168.8395
1199.269209 98.228 168.6325
1207.959608 98.223 168.4333
1216.712981 98.220 168.2429
1225.529785 98.219 168.0621
1234.410479 98.222 167.8909
1243.355526 98.229 167.7288
1252.365393 98.242 167.5751
1261.440549 98.259 167.4291
1270.581467 98.281 167.2903
1279.788624 98.306 167.1579
1289.062500 98.335 167.0315
1298.403578 98.366 166.9105
1307.812346 98.398 166.7949
1317.289293 98.430 166.6848
1326.834914 98.461 166.5815
1336.449707 98.489 166.4861
1346.134173 98.515 166.4000
1355.888816 98.538 166.3240
1365.714145 98.558 166.2581
1375.610673 98.573 166.2016
1385.578915 98.584 166.1538
1395.619391 98.591 166.1141
1405.732624 98.594 166.0824
1415.919142 98.592 166.0586
1426.179476 98.586 166.0432
1436.514160 98.577 166.0370
1446.923734 98.563 166.0406
1457.408740 98.546 166.0544
1467.969724 98.526 166.0784
1478.607238 98.503 166.1127
1489.321836 98.478 166.1572
1500.114076 98.449 166.2126
1510.984521 98.416 166.2802
1521.933737 98.380 166.3624
1532.962297 98.340 166.4619
1544.070773 98.296 166.5811
1555.259747 98.248 166.7219
1566.529800 98.198 166.8848
1577.881521 98.145 167.0693
1589.315501 98.091 167.2740
1600.832336 98.037 167.4970
1612.432627 97.982 167.7364
1624.116978 97.928 167.9909
1635.886000 97.876 168.2604
1647.740304 97.824 168.5457
1659.680509 97.775 168.8482
1671.707238 97.727 169.1694
1683.821118 97.681 169.5101
1696.022780 97.639 169.8699
1708.312860 97.599 170.2473
1720.692000 97.564 170.6392
1733.160843 97.533 171.0416
1745.720041 97.507 171.4498
1758.370248 97.486 171.8594
1771.112124 97.470 172.2674
1783.946332 97.460 172.6722
1796.873543 97.455 173.0737
1809.894429 97.455 173.4728
1823.009670 97.461 173.8699
1836.219950 97.471 174.2659
1849.525956 97.486 174.6613
1862.928384 97.505 175.0564
1876.427931 97.527 175.4509
1890.025301 97.553 175.8424
1903.721204 97.582 176.2263
1917.516352 97.613 176.5965
1931.411466 97.647 176.9467
1945.407270 97.682 177.2708
1959.504493 97.717 177.5644
1973.703870 97.753 177.8242
1988.006142 97.788 178.0486
2002.412054 97.823 178.2376
2016.922357 97.857 178.3929
2031.537808 97.892 178.5172
2046.259169 97.927 178.6133
2061.087206 97.962 178.6836
2076.022694 98.000 178.7298
2091.066410 98.040 178.7533
2106.219139 98.083 178.7550
2121.481671 98.130 178.7349
2136.854802 98.181 178.6919
2152.339333 98.236 178.6241
2167.936071 98.296 178.5295
2183.645829 98.360 178.4067
2199.469427 98.428 178.2555
2215.407689 98.499 178.0767
2231.461446 98.573 177.8721
2247.631536 98.651 177.6445
2263.918800 98.730 177.3976
2280.324089 98.812 177.1358
2296.848258 98.896 176.8641
2313.492167 98.981 176.5867
2330.256685 99.068 176.3068
2347.142685 99.157 176.0267
2364.151049 99.247 175.7478
2381.282662 99.337 175.4711
2398.538418 99.428 175.1965
2415.919216 99.518 174.9235
2433.425962 99.607 174.6508
2451.059570 99.693 174.3775
2468.820958 99.776 174.1027
2486.711052 99.854 173.8263
2504.730786 99.927 173.5487
2522.881098 99.993 173.2711
2541.162934 100.051 172.9951
2559.577248 100.101 172.7223
2578.125000 100.143 172.4542
2596.807157 100.175 172.1917
2615.624692 100.198 171.9357
2634.578586 100.211 171.6873
2653.669829 100.213 171.4478
2672.899414 100.205 171.2185
2692.268345 100.186 171.0015
2711.777632 100.156 170.7992
2731.428290 100.115 170.6152
2751.221345 100.062 170.4543
2771.157829 99.998 170.3220
2791.238781 99.924 170.2249
2811.465248 99.839 170.1696
2831.838284 99.745 170.1625
2852.358952 99.643 170.2092
2873.028321 99.533 170.3144
2893.847468 99.417 170.4818
2914.817480 99.297 170.7142
2935.939449 99.173 171.0138
2957.214476 99.048 171.3815
2978.643672 98.923 171.8176
3000.228152 98.800 172.3204
3021.969041 98.680 172.8869
3043.867475 98.566 173.5116
3065.924593 98.460 174.1871
3088.141547 98.363 174.9034
3110.519493 98.278 175.6482
3133.059600 98.205 176.4070
3155.763041 98.145 177.1638
3178.631001 98.100 177.9016
3201.664672 98.067 178.6042
3224.865254 98.047 179.2570
3248.233957 98.039 179.8479
3271.771999 98.040 -179.6309
3295.480608 98.048 -179.1833
3319.361019 98.062 -178.8086
3343.414477 98.080 -178.5015
3367.642236 98.100 -178.2531
3392.045560 98.121 -178.0513
3416.625721 98.143 -177.8827
3441.383999 98.165 -177.7339
3466.321686 98.189 -177.5936
3491.440082 98.217 -177.4534
3516.740496 98.248 -177.3100
3542.224247 98.287 -177.1649
3567.892664 98.332 -177.0247
3593.747085 98.386 -176.9001
3619.788858 98.447 -176.8038
3646.019340 98.516 -176.7488
3672.439900 98.590 -176.7466
3699.051913 98.667 -176.8052
3725.856768 98.745 -176.9289
3752.855862 98.820 -177.1173
3780.050603 98.891 -177.3657
3807.442408 98.955 -177.6656
3835.032705 99.011 -178.0056
3862.822933 99.058 -178.3723
3890.814540 99.094 -178.7516
3919.008986 99.119 -179.1293
3947.407741 99.134 -179.4923
3976.012284 99.139 -179.8289
4004.824108 99.134 179.8713
4033.844715 99.121 179.6168
4063.075616 99.100 179.4144
4092.518337 99.072 179.2697
4122.174412 99.037 179.1867
4152.045387 98.998 179.1683
4182.132820 98.955 179.2166
4212.438278 98.908 179.3327
4242.963342 98.858 179.5178
4273.709604 98.807 179.7730
4304.678665 98.756 -179.9006
4335.872141 98.705 -179.5016
4367.291658 98.655 -179.0286
4398.938854 98.609 -178.4805
4430.815378 98.568 -177.8570
4462.922893 98.533 -177.1588
4495.263072 98.505 -176.3879
4527.837601 98.488 -175.5479
4560.648179 98.481 -174.6437
4593.696515 98.486 -173.6813
4626.984334 98.504 -172.6679
4660.513370 98.536 -171.6111
4694.285371 98.582 -170.5198
4728.302098 98.644 -169.4031
4762.565324 98.720 -168.2711
4797.076835 98.811 -167.1344
4831.838432 98.918 -166.0038
4866.851925 99.038 -164.8904
4902.119140 99.172 -163.8052
4937.641916 99.320 -162.7592
4973.422105 99.479 -161.7632
5009.461572 99.649 -160.8277
5045.762195 99.829 -159.9623
5082.325868 100.016 -159.1762
5119.154496 100.209 -158.4773
5156.250000 100.407 -157.8722
5193.614313 100.606 -157.3658
5231.249383 100.805 -156.9615
5269.157173 101.002 -156.6607
5307.339658 101.194 -156.4627
5345.798829 101.380 -156.3651
5384.536691 101.556 -156.3638
5423.555263 101.723 -156.4527
5462.856580 101.878 -156.6248
5502.442691 102.022 -156.8714
5542.315659 102.152 -157.1830
5582.477563 102.270 -157.5497
5622.930497 102.376 -157.9612
5663.676569 102.470 -158.4073
5704.717904 102.555 -158.8789
5746.056642 102.632 -159.3676
5787.694937 102.702 -159.8669
5829.634960 102.767 -160.3720
5871.878898 102.830 -160.8805
5914.428953 102.893 -161.3921
5957.287343 102.956 -161.9091
6000.456303 103.021 -162.4357
6043.938083 103.088 -162.9773
6087.734950 103.158 -163.5406
6131.849187 103.230 -164.1318
6176.283094 103.304 -164.7571
6221.038987 103.378 -165.4212
6266.119200 103.451 -166.1280
6311.526083 103.524 -166.8799
6357.262002 103.595 -167.6785
6403.329344 103.665 -168.5254
6449.730508 103.733 -169.4223
6496.467914 103.802 -170.3723
6543.543998 103.873 -171.3801
6590.961215 103.946 -172.4521
6638.722037 104.025 -173.5972
6686.828954 104.109 -174.8263
6735.284473 104.201 -176.1520
6784.091120 104.301 -177.5885
6833.251441 104.409 -179.1507
6882.767998 104.523 179.1468
6932.643372 104.641 177.2899
6982.880164 104.760 175.2668
7033.480992 104.875 173.0692
7084.448495 104.981 170.6926
7135.785329 105.072 168.1379
7187.494171 105.142 165.4120
7239.577717 105.185 162.5281
7292.038681 105.194 159.5053
7344.879799 105.165 156.3685
7398.103826 105.093 153.1471
7451.713536 104.976 149.8731
7505.711724 104.811 146.5797
7560.101205 104.598 143.2987
7614.884815 104.339 140.0579
7670.065409 104.036 136.8783
7725.645865 103.695 133.7714
7781.629080 103.320 130.7362
7838.017972 102.920 127.7574
7894.815481 102.502 124.8044
7952.024569 102.075 121.8321
8009.648217 101.646 118.7834
8067.689429 101.220 115.5930
8126.151233 100.801 112.1920
8185.036674 100.391 108.5121
8244.348824 99.985 104.4873
8304.090774 99.581 100.0544
8364.265639 99.171 95.1482
8424.876556 98.750 89.6936
8485.926684 98.311 83.5911
8547.419207 97.854 76.6951
8609.357330 97.377 68.7830
8671.744282 96.888 59.5168
8734.583316 96.398 48.4142
8797.877707 95.925 34.9005
8861.630756 95.494 18.6168
8925.845785 95.132 0.1132
8990.526143 94.870 -18.7255
9055.675202 94.729 -35.7097
9121.296357 94.722 -49.8145
9187.393031 94.845 -61.2075
9253.968668 95.081 -70.5093
9321.026740 95.405 -78.3302
9388.570742 95.786 -85.1435
9456.604196 96.195 -91.2885
9525.130648 96.608 -97.0016
9594.153671 97.004 -102.4445
9663.676863 97.367 -107.7244
9733.703850 97.687 -112.9078
9804.238280 97.953 -118.0322
9875.283832 98.163 -123.1133
9946.844210 98.313 -128.1525
10018.923143 98.403 -133.1427
10091.524390 98.434 -138.0736
10164.651736 98.409 -142.9343
10238.308993 98.331 -147.7157
10312.500000 98.202 -152.4096
10387.228626 98.025 -157.0066
10462.498767 97.798 -161.4922
10538.314345 97.522 -165.8433
10614.679315 97.195 -170.0225
10691.597657 96.813 -173.9752
10769.073381 96.375 -177.6271
10847.110526 95.880 179.1174
10925.713161 95.327 176.3707
11004.885382 94.720 174.2525
11084.631318 94.068 172.8701
11164.955126 93.382 172.2855
11245.860993 92.678 172.4749
11327.353138 91.975 173.2960
11409.435808 91.294 174.4911
11492.113283 90.653 175.7411
11575.389873 90.063 176.7493
11659.269920 89.531 177.3085
11743.757796 89.056 177.3201
11828.857906 88.630 176.7728
11914.574686 88.244 175.7061
12000.912606 87.888 174.1788
12087.876166 87.553 172.2476
12175.469900 87.232 169.9564
12263.698373 86.920 167.3331
12352.566187 86.612 164.3899
12442.077974 86.305 161.1271
12532.238400 85.994 157.5383
12623.052165 85.674 153.6161
12714.524005 85.339 149.3562
12806.658687 84.982 144.7608
12899.461015 84.600 139.8387
12992.935827 84.190 134.6025
13087.087996 83.755 129.0621
13181.922430 83.308 123.2169
13277.444074 82.867 117.0465
13373.657907 82.464 110.5051
13470.568945 82.138 103.5202
13568.182241 81.934 96.0025
13666.502883 81.888 87.8674
13765.535996 82.019 79.0658
13865.286744 82.317 69.6133
13965.760328 82.751 59.6000
14066.961984 83.275 49.1718
14168.896989 83.843 38.4901
14271.570658 84.417 27.6932
14374.988342 84.967 16.8765
14479.155433 85.470 6.0939
14584.077362 85.915 -4.6293
14689.759598 86.293 -15.2838
14796.207652 86.602 -25.8680
14903.427072 86.840 -36.3854
15011.423448 87.011 -46.8439
15120.202410 87.116 -57.2540
15229.769630 87.156 -67.6288
15340.130819 87.133 -77.9810
15451.291730 87.047 -88.3218
15563.258160 86.898 -98.6595
15676.035944 86.684 -108.9988
15789.630962 86.403 -119.3393
15904.049137 86.055 -129.6758
16019.296433 85.635 -139.9983
16135.378859 85.144 -150.2944
16252.302465 84.579 -160.5542
16370.073348 83.944 -170.7749
16488.697648 83.239 179.0337
16608.181548 82.469 168.8483
16728.531278 81.638 158.6321
16849.753112 80.752 148.3357
16971.853368 79.816 137.8987
17094.838414 78.834 127.2500
17218.714660 77.811 116.3059
17343.488565 76.754 104.9695
17469.166632 75.666 93.1316
17595.755415 74.557 80.6901
17723.261512 73.433 67.6052
17851.691571 72.306 54.0355
17981.052287 71.192 40.5901
18111.350404 70.106 28.6769
18242.592715 69.068 20.6869
18374.786062 68.098 19.1031
18507.937336 67.209 22.9794
18642.053479 66.406 26.3389
18777.141484 65.685 25.3621
18913.208391 65.031 20.8285
19050.261296 64.426 14.5189
19188.307342 63.853 7.7207
19327.353727 63.302 1.2238
19467.407699 62.776 -4.5035
19608.476560 62.292 -9.2036
19750.567664 61.879 -12.7578
19893.688419 61.573 -15.1289
20037.846286 61.410 -16.3135
