* Measurement data measured by REW V5.31.3
* Source: EXCL: Headset (USB-C to 3.5mm Headphone Jack Adapter), MICROPHONE (Master Volume), 0, volume: 0.750
* Format: 256k Log Swept Sine, 1 sweep at -12.0 dBFS with no timing reference
* Dated: Apr 1, 2025 11:03:24 PM
* REW Settings:
*  C-weighting compensation: Off
*  Target level: 75.0 dB
* Note: ; 
* Measurement: Satyr 3 (Stock) L15
* Smoothing: 1/6 octave
* Frequency Step: 96 ppo
* Start Frequency: 20.0 Hz
*
* Freq(Hz) SPL(dB) Phase(degrees)
20.187378 82.241 -91.6140
20.333664 82.272 -91.7834
20.481010 82.312 -92.0044
20.629424 82.363 -92.2632
20.778913 82.421 -92.5455
20.929486 82.488 -92.8375
21.081150 82.561 -93.1278
21.233912 82.642 -93.4079
21.387782 82.729 -93.6732
21.542767 82.822 -93.9223
21.698874 82.921 -94.1573
21.856113 83.026 -94.3827
22.014492 83.134 -94.6047
22.174018 83.246 -94.8297
22.334700 83.358 -95.0641
22.496546 83.469 -95.3128
22.659566 83.577 -95.5787
22.823766 83.681 -95.8631
22.989157 83.779 -96.1654
23.155745 83.871 -96.4834
23.323542 83.954 -96.8144
23.492554 84.031 -97.1557
23.662790 84.100 -97.5051
23.834261 84.162 -97.8614
24.006973 84.218 -98.2248
24.180938 84.270 -98.5968
24.356163 84.317 -98.9798
24.532658 84.360 -99.3764
24.710431 84.400 -99.7886
24.889493 84.438 -100.2178
25.069853 84.473 -100.6633
25.251519 84.505 -101.1227
25.434502 84.535 -101.5921
25.618811 84.564 -102.0657
25.804456 84.590 -102.5376
25.991445 84.616 -103.0017
26.179790 84.642 -103.4529
26.369500 84.669 -103.8877
26.560584 84.698 -104.3050
26.753053 84.729 -104.7054
26.946917 84.764 -105.0918
27.142185 84.801 -105.4680
27.338869 84.841 -105.8389
27.536977 84.884 -106.2089
27.736522 84.929 -106.5822
27.937512 84.974 -106.9619
28.139959 85.021 -107.3503
28.343872 85.068 -107.7492
28.549264 85.115 -108.1601
28.756143 85.163 -108.5847
28.964522 85.212 -109.0249
29.174411 85.262 -109.4826
29.385821 85.314 -109.9599
29.598763 85.368 -110.4580
29.813248 85.423 -110.9769
30.029287 85.480 -111.5152
30.246891 85.539 -112.0697
30.466073 85.600 -112.6358
30.686842 85.662 -113.2079
30.909212 85.727 -113.7805
31.133193 85.794 -114.3484
31.358797 85.863 -114.9080
31.586035 85.935 -115.4572
31.814921 86.009 -115.9955
32.045465 86.087 -116.5238
32.277680 86.167 -117.0436
32.511577 86.250 -117.5565
32.747169 86.335 -118.0638
32.984469 86.421 -118.5660
33.223488 86.509 -119.0631
33.464239 86.598 -119.5548
33.706735 86.688 -120.0406
33.950987 86.780 -120.5201
34.197010 86.873 -120.9937
34.444816 86.967 -121.4618
34.694417 87.061 -121.9249
34.945827 87.156 -122.3835
35.199059 87.250 -122.8376
35.454126 87.343 -123.2868
35.711041 87.433 -123.7303
35.969818 87.521 -124.1674
36.230470 87.605 -124.5975
36.493011 87.685 -125.0204
36.757455 87.763 -125.4367
37.023814 87.837 -125.8474
37.292104 87.908 -126.2539
37.562338 87.976 -126.6577
37.834530 88.042 -127.0601
38.108695 88.106 -127.4617
38.384846 88.169 -127.8628
38.662999 88.230 -128.2626
38.943167 88.290 -128.6601
39.225365 88.350 -129.0539
39.509608 88.409 -129.4427
39.795911 88.469 -129.8258
40.084289 88.529 -130.2037
40.374756 88.589 -130.5779
40.667328 88.649 -130.9508
40.962020 88.710 -131.3254
41.258848 88.770 -131.7047
41.557827 88.831 -132.0905
41.858972 88.890 -132.4836
42.162299 88.949 -132.8830
42.467824 89.006 -133.2863
42.775564 89.061 -133.6906
43.085533 89.115 -134.0928
43.397749 89.168 -134.4905
43.712227 89.220 -134.8824
44.028983 89.270 -135.2688
44.348036 89.319 -135.6508
44.669400 89.365 -136.0306
44.993093 89.410 -136.4110
45.319131 89.453 -136.7946
45.647532 89.492 -137.1840
45.978313 89.530 -137.5812
46.311491 89.565 -137.9873
46.647083 89.599 -138.4029
46.985107 89.631 -138.8279
47.325581 89.663 -139.2614
47.668521 89.694 -139.7029
48.013947 89.725 -140.1516
48.361876 89.756 -140.6064
48.712326 89.786 -141.0665
49.065315 89.815 -141.5299
49.420863 89.843 -141.9947
49.778987 89.868 -142.4583
50.139706 89.891 -142.9187
50.503039 89.912 -143.3748
50.869005 89.931 -143.8273
51.237623 89.947 -144.2781
51.608912 89.963 -144.7306
51.982891 89.976 -145.1886
52.359580 89.989 -145.6553
52.739000 90.000 -146.1326
53.121168 90.010 -146.6209
53.506106 90.019 -147.1191
53.893833 90.026 -147.6245
54.284370 90.031 -148.1338
54.677737 90.036 -148.6430
55.073955 90.039 -149.1481
55.473043 90.042 -149.6454
55.875024 90.045 -150.1319
56.279917 90.049 -150.6050
56.687745 90.054 -151.0634
57.098527 90.061 -151.5066
57.512287 90.071 -151.9356
57.929045 90.084 -152.3529
58.348822 90.098 -152.7631
58.771642 90.115 -153.1720
59.197525 90.132 -153.5865
59.626495 90.149 -154.0122
60.058573 90.164 -154.4529
60.493782 90.179 -154.9092
60.932145 90.192 -155.3788
61.373685 90.205 -155.8577
61.818424 90.218 -156.3408
62.266386 90.232 -156.8237
62.717593 90.247 -157.3026
63.172071 90.265 -157.7751
63.629842 90.284 -158.2402
64.090930 90.305 -158.6980
64.555359 90.328 -159.1492
65.023154 90.352 -159.5950
65.494339 90.377 -160.0360
65.968938 90.403 -160.4722
66.446976 90.430 -160.9029
66.928478 90.456 -161.3270
67.413469 90.482 -161.7435
67.901975 90.508 -162.1521
68.394021 90.532 -162.5532
68.889632 90.554 -162.9478
69.388835 90.575 -163.3373
69.891655 90.593 -163.7232
70.398118 90.609 -164.1069
70.908252 90.622 -164.4896
71.422083 90.633 -164.8721
71.939636 90.641 -165.2553
72.460941 90.646 -165.6393
72.986023 90.649 -166.0244
73.514909 90.650 -166.4104
74.047629 90.648 -166.7968
74.584208 90.644 -167.1831
75.124676 90.639 -167.5687
75.669061 90.631 -167.9528
76.217390 90.621 -168.3346
76.769692 90.609 -168.7132
77.325997 90.596 -169.0877
77.886333 90.580 -169.4575
78.450730 90.563 -169.8224
79.019216 90.545 -170.1824
79.591822 90.525 -170.5377
80.168577 90.504 -170.8884
80.749512 90.483 -171.2344
81.334656 90.460 -171.5754
81.924040 90.437 -171.9111
82.517696 90.412 -172.2411
83.115653 90.387 -172.5651
83.717943 90.362 -172.8832
84.324598 90.335 -173.1955
84.935649 90.308 -173.5023
85.551128 90.281 -173.8041
86.171066 90.253 -174.1015
86.795497 90.225 -174.3952
87.424453 90.196 -174.6861
88.057967 90.167 -174.9750
88.696071 90.138 -175.2628
89.338800 90.109 -175.5502
89.986185 90.080 -175.8373
90.638262 90.050 -176.1242
91.295065 90.020 -176.4107
91.956626 89.990 -176.6960
92.622982 89.960 -176.9795
93.294166 89.929 -177.2600
93.970214 89.899 -177.5366
94.651161 89.868 -177.8087
95.337042 89.837 -178.0759
96.027894 89.806 -178.3382
96.723752 89.775 -178.5959
97.424652 89.744 -178.8493
98.130631 89.714 -179.0986
98.841726 89.684 -179.3440
99.557974 89.654 -179.5853
100.279412 89.626 -179.8222
101.006078 89.599 179.9453
101.738010 89.573 179.7171
102.475245 89.548 179.4931
103.217823 89.524 179.2729
103.965782 89.502 179.0562
104.719161 89.481 178.8423
105.477999 89.461 178.6303
106.242336 89.442 178.4189
107.012212 89.424 178.2070
107.787666 89.406 177.9934
108.568740 89.389 177.7777
109.355474 89.373 177.5599
110.147909 89.357 177.3409
110.946086 89.341 177.1215
111.750047 89.326 176.9027
112.559834 89.311 176.6851
113.375489 89.297 176.4689
114.197055 89.283 176.2541
115.024574 89.270 176.0406
115.858089 89.256 175.8284
116.697645 89.243 175.6180
117.543284 89.229 175.4099
118.395051 89.215 175.2048
119.252990 89.200 175.0036
120.117147 89.185 174.8069
120.987565 89.169 174.6150
121.864291 89.152 174.4283
122.747370 89.134 174.2474
123.636848 89.115 174.0728
124.532771 89.095 173.9052
125.435187 89.073 173.7457
126.344142 89.051 173.5953
127.259684 89.028 173.4548
128.181860 89.003 173.3245
129.110718 88.977 173.2042
130.046308 88.950 173.0938
130.988677 88.920 172.9932
131.937875 88.890 172.9025
132.893951 88.858 172.8221
133.856956 88.825 172.7521
134.826938 88.792 172.6927
135.803950 88.758 172.6431
136.788041 88.725 172.6021
137.779264 88.693 172.5676
138.777669 88.660 172.5372
139.783309 88.629 172.5083
140.796237 88.598 172.4786
141.816504 88.568 172.4461
142.844165 88.537 172.4093
143.879273 88.506 172.3677
144.921881 88.475 172.3213
145.972045 88.442 172.2711
147.029819 88.409 172.2184
148.095257 88.373 172.1654
149.168417 88.337 172.1142
150.249353 88.298 172.0674
151.338121 88.259 172.0273
152.434780 88.218 171.9961
153.539385 88.177 171.9759
154.651995 88.135 171.9683
155.772667 88.093 171.9748
156.901460 88.052 171.9969
158.038432 88.011 172.0356
159.183644 87.972 172.0919
160.337154 87.934 172.1657
161.499023 87.899 172.2567
162.669312 87.866 172.3634
163.848081 87.836 172.4841
165.035392 87.809 172.6163
166.231306 87.786 172.7574
167.435887 87.767 172.9044
168.649196 87.752 173.0537
169.871298 87.741 173.2020
171.102255 87.734 173.3454
172.342133 87.730 173.4804
173.590995 87.728 173.6036
174.848907 87.729 173.7119
176.115934 87.730 173.8024
177.392143 87.733 173.8732
178.677599 87.735 173.9232
179.972371 87.738 173.9521
181.276525 87.740 173.9604
182.590129 87.741 173.9496
183.913252 87.741 173.9214
185.245964 87.740 173.8781
186.588332 87.738 173.8215
187.940428 87.735 173.7537
189.302322 87.731 173.6765
190.674085 87.725 173.5915
192.055788 87.718 173.5001
193.447503 87.709 173.4036
194.849303 87.700 173.3035
196.261262 87.689 173.2012
197.683452 87.676 173.0981
199.115948 87.663 172.9954
200.558824 87.648 172.8942
202.012156 87.633 172.7953
203.476019 87.618 172.6993
204.950490 87.602 172.6062
206.435646 87.586 172.5160
207.931564 87.570 172.4284
209.438322 87.554 172.3432
210.955998 87.539 172.2597
212.484672 87.524 172.1776
214.024424 87.509 172.0964
215.575333 87.495 172.0161
217.137481 87.481 171.9365
218.710948 87.467 171.8577
220.295818 87.454 171.7799
221.892172 87.441 171.7036
223.500094 87.429 171.6298
225.119668 87.417 171.5594
226.750978 87.406 171.4935
228.394109 87.395 171.4324
230.049147 87.386 171.3764
231.716178 87.378 171.3253
233.395289 87.370 171.2785
235.086567 87.364 171.2356
236.790102 87.359 171.1958
238.505980 87.355 171.1583
240.234293 87.351 171.1223
241.975130 87.349 171.0873
243.728581 87.348 171.0532
245.494739 87.347 171.0201
247.273695 87.347 170.9883
249.065542 87.347 170.9583
250.870374 87.348 170.9304
252.688284 87.349 170.9052
254.519367 87.351 170.8829
256.363720 87.352 170.8634
258.221437 87.353 170.8465
260.092616 87.355 170.8317
261.977354 87.356 170.8184
263.875750 87.357 170.8059
265.787903 87.359 170.7938
267.713911 87.359 170.7819
269.653877 87.360 170.7702
271.607900 87.361 170.7587
273.576083 87.361 170.7474
275.558528 87.361 170.7365
277.555338 87.361 170.7255
279.566619 87.361 170.7144
281.592474 87.361 170.7031
283.633009 87.362 170.6917
285.688331 87.364 170.6804
287.758546 87.367 170.6697
289.843763 87.370 170.6600
291.944090 87.374 170.6516
294.059638 87.378 170.6443
296.190515 87.384 170.6380
298.336833 87.389 170.6324
300.498705 87.395 170.6273
302.676243 87.402 170.6227
304.869559 87.409 170.6189
307.078770 87.417 170.6163
309.303989 87.425 170.6151
311.545334 87.433 170.6157
313.802919 87.442 170.6185
316.076865 87.451 170.6239
318.367288 87.460 170.6323
320.674309 87.469 170.6437
322.998047 87.478 170.6579
325.338624 87.486 170.6746
327.696162 87.495 170.6930
330.070783 87.503 170.7124
332.462612 87.512 170.7320
334.871773 87.519 170.7511
337.298392 87.526 170.7695
339.742595 87.533 170.7871
342.204510 87.539 170.8040
344.684265 87.544 170.8202
347.181989 87.548 170.8362
349.697813 87.551 170.8521
352.231868 87.552 170.8679
354.784285 87.553 170.8838
357.355198 87.553 170.8995
359.944741 87.551 170.9151
362.553049 87.548 170.9303
365.180258 87.544 170.9452
367.826505 87.540 170.9597
370.491927 87.535 170.9738
373.176665 87.529 170.9874
375.880856 87.523 171.0001
378.604644 87.517 171.0120
381.348169 87.511 171.0229
384.111575 87.505 171.0330
386.895006 87.499 171.0424
389.698607 87.493 171.0515
392.522524 87.486 171.0606
395.366904 87.479 171.0704
398.231895 87.471 171.0815
401.117648 87.463 171.0950
404.024312 87.453 171.1116
406.952038 87.442 171.1321
409.900981 87.430 171.1574
412.871292 87.417 171.1883
415.863128 87.403 171.2254
418.876643 87.388 171.2691
421.911996 87.372 171.3192
424.969344 87.356 171.3748
428.048847 87.339 171.4350
431.150666 87.322 171.4980
434.274961 87.305 171.5624
437.421897 87.287 171.6265
440.591636 87.269 171.6893
443.784345 87.250 171.7498
447.000189 87.230 171.8075
450.239337 87.211 171.8620
453.501956 87.190 171.9132
456.788219 87.170 171.9611
460.098294 87.149 172.0055
463.432356 87.129 172.0464
466.790578 87.109 172.0840
470.173135 87.089 172.1183
473.580203 87.070 172.1497
477.011961 87.052 172.1784
480.468586 87.034 172.2047
483.950259 87.017 172.2287
487.457163 87.001 172.2506
490.989478 86.986 172.2708
494.547390 86.972 172.2896
498.131084 86.959 172.3075
501.740748 86.947 172.3250
505.376568 86.936 172.3426
509.038735 86.927 172.3607
512.727439 86.919 172.3797
516.442874 86.913 172.3997
520.185232 86.908 172.4210
523.954708 86.906 172.4434
527.751500 86.905 172.4667
531.575805 86.907 172.4907
535.427822 86.911 172.5152
539.307753 86.917 172.5401
543.215800 86.925 172.5654
547.152165 86.935 172.5913
551.117055 86.948 172.6181
555.110677 86.963 172.6458
559.133237 86.979 172.6744
563.184947 86.998 172.7037
567.266018 87.019 172.7333
571.376661 87.042 172.7629
575.517092 87.066 172.7922
579.687526 87.091 172.8206
583.888181 87.118 172.8475
588.119275 87.145 172.8726
592.381030 87.173 172.8954
596.673667 87.201 172.9158
600.997410 87.230 172.9337
605.352485 87.258 172.9493
609.739119 87.286 172.9627
614.157540 87.314 172.9738
618.607979 87.341 172.9828
623.090667 87.367 172.9896
627.605839 87.392 172.9941
632.153730 87.416 172.9958
636.734576 87.440 172.9946
641.348617 87.463 172.9896
645.996094 87.485 172.9800
650.677248 87.506 172.9648
655.392323 87.527 172.9429
660.141566 87.546 172.9133
664.925224 87.565 172.8751
669.743546 87.582 172.8280
674.596784 87.599 172.7719
679.485191 87.613 172.7073
684.409020 87.627 172.6352
689.368530 87.638 172.5568
694.363979 87.647 172.4735
699.395626 87.655 172.3871
704.463736 87.660 172.2996
709.568570 87.664 172.2130
714.710396 87.666 172.1290
719.889483 87.666 172.0491
725.106099 87.665 171.9739
730.360516 87.663 171.9026
735.653010 87.661 171.8334
740.983855 87.659 171.7636
746.353329 87.656 171.6902
751.761713 87.653 171.6105
757.209288 87.650 171.5222
762.696339 87.647 171.4233
768.223151 87.642 171.3127
773.790013 87.636 171.1901
779.397214 87.630 171.0557
785.045047 87.621 170.9104
790.733808 87.611 170.7555
796.463791 87.600 170.5925
802.235296 87.587 170.4231
808.048623 87.573 170.2488
813.904077 87.558 170.0710
819.801961 87.543 169.8911
825.742584 87.526 169.7100
831.726255 87.509 169.5288
837.753287 87.493 169.3478
843.823992 87.477 169.1667
849.938689 87.461 168.9846
856.097695 87.447 168.8000
862.301332 87.433 168.6116
868.549922 87.420 168.4180
874.843793 87.408 168.2184
881.183272 87.396 168.0123
887.568689 87.385 167.7997
894.000378 87.374 167.5811
900.478673 87.363 167.3573
907.003913 87.352 167.1293
913.576437 87.341 166.8986
920.196588 87.330 166.6665
926.864712 87.319 166.4343
933.581156 87.309 166.2025
940.346270 87.300 165.9715
947.160407 87.292 165.7405
954.023921 87.285 165.5089
960.937172 87.280 165.2754
967.900519 87.277 165.0391
974.914325 87.275 164.7994
981.978956 87.275 164.5559
989.094780 87.276 164.3091
996.262169 87.278 164.0596
1003.481495 87.282 163.8085
1010.753136 87.286 163.5565
1018.077470 87.292 163.3041
1025.454879 87.299 163.0511
1032.885748 87.308 162.7969
1040.370463 87.317 162.5404
1047.909417 87.328 162.2806
1055.503000 87.339 162.0167
1063.151610 87.350 161.7482
1070.855645 87.361 161.4760
1078.615506 87.371 161.2013
1086.431599 87.380 160.9263
1094.304330 87.388 160.6532
1102.234110 87.394 160.3836
1110.221353 87.399 160.1186
1118.266475 87.403 159.8582
1126.369895 87.406 159.6019
1134.532035 87.407 159.3488
1142.753322 87.406 159.0983
1151.034184 87.403 158.8504
1159.375052 87.398 158.6061
1167.776361 87.391 158.3677
1176.238550 87.380 158.1380
1184.762060 87.368 157.9207
1193.347334 87.353 157.7195
1201.994821 87.336 157.5374
1210.704971 87.318 157.3761
1219.478238 87.300 157.2358
1228.315080 87.282 157.1151
1237.215957 87.265 157.0110
1246.181334 87.250 156.9201
1255.211678 87.236 156.8392
1264.307459 87.223 156.7654
1273.469152 87.212 156.6964
1282.697235 87.202 156.6298
1291.992188 87.193 156.5640
1301.354495 87.184 156.4973
1310.784647 87.175 156.4293
1320.283132 87.166 156.3599
1329.850448 87.157 156.2899
1339.487093 87.145 156.2213
1349.193569 87.133 156.1566
1358.970381 87.119 156.0989
1368.818041 87.104 156.0513
1378.737061 87.088 156.0163
1388.727958 87.072 155.9955
1398.791253 87.055 155.9896
1408.927471 87.040 155.9981
1419.137140 87.025 156.0204
1429.420793 87.012 156.0555
1439.778965 87.000 156.1029
1450.212197 86.989 156.1630
1460.721033 86.979 156.2370
1471.306019 86.971 156.3265
1481.967709 86.964 156.4324
1492.706658 86.959 156.5545
1503.523426 86.956 156.6912
1514.418576 86.953 156.8404
1525.392678 86.952 157.0007
1536.446302 86.950 157.1721
1547.580025 86.948 157.3561
1558.794428 86.944 157.5552
1570.090095 86.939 157.7724
1581.467615 86.932 158.0098
1592.927581 86.923 158.2685
1604.470591 86.914 158.5482
1616.097246 86.903 158.8474
1627.808153 86.892 159.1635
1639.603922 86.879 159.4941
1651.485168 86.866 159.8371
1663.452510 86.852 160.1914
1675.506573 86.837 160.5565
1687.647984 86.821 160.9326
1699.877377 86.804 161.3203
1712.195390 86.787 161.7202
1724.602663 86.771 162.1323
1737.099845 86.754 162.5562
1749.687587 86.739 162.9908
1762.366544 86.726 163.4347
1775.137379 86.715 163.8858
1788.000756 86.705 164.3419
1800.957346 86.698 164.8000
1814.007826 86.694 165.2568
1827.152874 86.692 165.7087
1840.393177 86.692 166.1522
1853.729425 86.694 166.5850
1867.162312 86.697 167.0055
1880.692540 86.700 167.4132
1894.320813 86.705 167.8077
1908.047843 86.710 168.1882
1921.874344 86.714 168.5532
1935.801038 86.719 168.9011
1949.828650 86.723 169.2310
1963.957912 86.726 169.5427
1978.189561 86.728 169.8369
1992.524338 86.729 170.1141
2006.962991 86.730 170.3741
2021.506272 86.729 170.6149
2036.154940 86.729 170.8332
2050.909758 86.728 171.0261
2065.771495 86.727 171.1915
2080.740927 86.724 171.3285
2095.818833 86.721 171.4373
2111.006001 86.716 171.5184
2126.303220 86.710 171.5732
2141.711290 86.702 171.6036
2157.231013 86.693 171.6121
2172.863198 86.681 171.6015
2188.608660 86.669 171.5738
2204.468221 86.655 171.5302
2220.442706 86.639 171.4718
2236.532950 86.622 171.3997
2252.739789 86.604 171.3160
2269.064070 86.585 171.2229
2285.506644 86.565 171.1222
2302.068367 86.544 171.0149
2318.750104 86.522 170.9012
2335.552723 86.501 170.7815
2352.477101 86.479 170.6562
2369.524119 86.458 170.5256
2386.694668 86.437 170.3897
2403.989641 86.417 170.2480
2421.409941 86.398 170.0996
2438.956476 86.381 169.9438
2456.630160 86.365 169.7794
2474.431915 86.351 169.6046
2492.362668 86.339 169.4169
2510.423356 86.329 169.2133
2528.614918 86.320 168.9910
2546.938304 86.312 168.7478
2565.394469 86.303 168.4829
2583.984375 86.294 168.1970
2602.708991 86.282 167.8928
2621.569293 86.267 167.5751
2640.566265 86.248 167.2513
2659.700897 86.224 166.9301
2678.974186 86.194 166.6218
2698.387137 86.159 166.3369
2717.940763 86.119 166.0856
2737.636082 86.075 165.8766
2757.474121 86.028 165.7169
2777.455915 85.978 165.6112
2797.582506 85.927 165.5628
2817.854942 85.876 165.5735
2838.274281 85.825 165.6444
2858.841586 85.776 165.7762
2879.557931 85.729 165.9698
2900.424394 85.684 166.2260
2921.442065 85.643 166.5453
2942.612039 85.606 166.9275
2963.935418 85.574 167.3712
2985.413316 85.547 167.8728
3007.046852 85.528 168.4267
3028.837153 85.515 169.0243
3050.785356 85.511 169.6549
3072.892604 85.515 170.3054
3095.160050 85.527 170.9609
3117.588856 85.546 171.6060
3140.180190 85.571 172.2249
3162.935230 85.600 172.8033
3185.855163 85.632 173.3294
3208.941182 85.663 173.7957
3232.194493 85.691 174.1996
3255.616307 85.713 174.5445
3279.207844 85.728 174.8392
3302.970336 85.732 175.0981
3326.905021 85.724 175.3395
3351.013146 85.706 175.5837
3375.295969 85.677 175.8507
3399.754755 85.640 176.1581
3424.390779 85.597 176.5182
3449.205326 85.553 176.9366
3474.199690 85.511 177.4105
3499.375173 85.475 177.9283
3524.733088 85.449 178.4706
3550.274757 85.436 179.0114
3576.001511 85.437 179.5210
3601.914692 85.452 179.9693
3628.015651 85.481 -179.6708
3654.305748 85.520 -179.4210
3680.786354 85.568 -179.2954
3707.458849 85.619 -179.2999
3734.324624 85.670 -179.4320
3761.385080 85.717 -179.6823
3788.641627 85.757 179.9648
3816.095686 85.788 179.5283
3843.748688 85.807 179.0299
3871.602076 85.814 178.4915
3899.657300 85.808 177.9340
3927.915825 85.790 177.3767
3956.379122 85.761 176.8366
3985.048676 85.722 176.3282
4013.925981 85.673 175.8637
4043.012544 85.616 175.4536
4072.309879 85.552 175.1060
4101.819515 85.482 174.8277
4131.542990 85.408 174.6238
4161.481854 85.330 174.4984
4191.637667 85.250 174.4545
4222.012001 85.169 174.4940
4252.606441 85.086 174.6179
4283.422580 85.004 174.8261
4314.462026 84.924 175.1166
4345.726396 84.846 175.4858
4377.217321 84.771 175.9285
4408.936442 84.699 176.4375
4440.885413 84.633 177.0044
4473.065899 84.572 177.6199
4505.479579 84.516 178.2742
4538.128141 84.466 178.9572
4571.013288 84.422 179.6595
4604.136735 84.383 -179.6280
4637.500207 84.349 -178.9132
4671.105446 84.321 -178.2029
4704.954201 84.297 -177.5027
4739.048239 84.279 -176.8171
4773.389336 84.264 -176.1492
4807.979283 84.254 -175.5009
4842.819883 84.247 -174.8728
4877.912952 84.245 -174.2644
4913.260320 84.245 -173.6741
4948.863830 84.250 -173.0992
4984.725337 84.258 -172.5359
5020.846712 84.270 -171.9799
5057.229836 84.286 -171.4262
5093.876609 84.307 -170.8693
5130.788938 84.333 -170.3038
5167.968750 84.366 -169.7245
5205.417982 84.407 -169.1266
5243.138586 84.457 -168.5065
5281.132530 84.517 -167.8620
5319.401793 84.589 -167.1927
5357.948371 84.675 -166.5007
5396.774274 84.776 -165.7907
5435.881525 84.894 -165.0704
5475.272163 85.030 -164.3508
5514.948243 85.184 -163.6457
5554.911831 85.357 -162.9721
5595.165012 85.548 -162.3487
5635.709884 85.757 -161.7951
5676.548561 85.980 -161.3306
5717.683172 86.216 -160.9725
5759.115861 86.461 -160.7354
5800.848789 86.713 -160.6309
5842.884130 86.968 -160.6671
5885.224077 87.222 -160.8483
5927.870837 87.473 -161.1758
5970.826633 87.716 -161.6471
6014.093704 87.949 -162.2569
6057.674306 88.169 -162.9965
6101.570711 88.373 -163.8547
6145.785208 88.560 -164.8177
6190.320101 88.727 -165.8698
6235.177712 88.873 -166.9934
6280.360380 88.998 -168.1695
6325.870460 89.101 -169.3783
6371.710325 89.183 -170.6001
6417.882365 89.246 -171.8165
6464.388986 89.290 -173.0110
6511.232613 89.320 -174.1706
6558.415689 89.338 -175.2868
6605.940673 89.348 -176.3564
6653.810042 89.354 -177.3826
6702.026292 89.360 -178.3752
6750.591937 89.370 -179.3505
6799.509509 89.385 179.6697
6848.781558 89.409 178.6595
6898.410653 89.442 177.5910
6948.399380 89.483 176.4360
6998.750346 89.531 175.1678
7049.466176 89.584 173.7634
7100.549514 89.637 172.2042
7152.003023 89.688 170.4771
7203.829385 89.731 168.5743
7256.031302 89.762 166.4939
7308.611496 89.777 164.2386
7361.572708 89.773 161.8152
7414.917698 89.745 159.2341
7468.649249 89.690 156.5078
7522.770160 89.605 153.6512
7577.283253 89.489 150.6800
7632.191371 89.339 147.6108
7687.497376 89.153 144.4604
7743.204151 88.931 141.2449
7799.314600 88.673 137.9793
7855.831649 88.377 134.6766
7912.758244 88.044 131.3475
7970.097352 87.674 127.9998
8027.851962 87.268 124.6382
8086.025087 86.826 121.2642
8144.619758 86.350 117.8754
8203.639030 85.839 114.4650
8263.085980 85.296 111.0203
8322.963708 84.721 107.5214
8383.275334 84.116 103.9381
8444.024002 83.485 100.2277
8505.212881 82.829 96.3307
8566.845160 82.154 92.1665
8628.924051 81.464 87.6236
8691.452792 80.766 82.5476
8754.434642 80.071 76.7172
8817.872884 79.392 69.8084
8881.770826 78.746 61.3423
8946.131799 78.157 50.6360
9010.959157 77.651 36.8642
9076.256282 77.256 19.5449
9142.026576 76.995 -0.3300
9208.273470 76.883 -19.9244
9275.000415 76.915 -36.6758
9342.210891 77.077 -49.9850
9409.908403 77.339 -60.4844
9478.096478 77.670 -68.9983
9546.778672 78.038 -76.1725
9615.958566 78.416 -82.4498
9685.639765 78.781 -88.1207
9755.825904 79.114 -93.3715
9826.520640 79.402 -98.3156
9897.727659 79.633 -103.0148
9969.450674 79.801 -107.4922
10041.693423 79.901 -111.7429
10114.459673 79.934 -115.7424
10187.753217 79.903 -119.4580
10261.577877 79.815 -122.8577
10335.937500 79.681 -125.9200
10410.835964 79.514 -128.6414
10486.277173 79.327 -131.0391
10562.265060 79.135 -133.1513
10638.803587 78.949 -135.0311
10715.896743 78.777 -136.7396
10793.548548 78.624 -138.3391
10871.763050 78.493 -139.8870
10950.544327 78.380 -141.4342
11029.896485 78.285 -143.0239
11109.823662 78.202 -144.6917
11190.330024 78.125 -146.4651
11271.419768 78.045 -148.3619
11353.097122 77.955 -150.3871
11435.366344 77.844 -152.5311
11518.231722 77.706 -154.7684
11601.697577 77.533 -157.0593
11685.768261 77.320 -159.3536
11770.448155 77.066 -161.5968
11855.741674 76.773 -163.7360
11941.653265 76.447 -165.7269
12028.187408 76.097 -167.5397
12115.348612 75.734 -169.1649
12203.141422 75.374 -170.6186
12291.570415 75.033 -171.9463
12380.640201 74.728 -173.2242
12470.355424 74.472 -174.5558
12560.720760 74.275 -176.0627
12651.740920 74.138 -177.8704
12743.420650 74.053 179.9081
12835.764729 74.004 177.1865
12928.777972 73.972 173.9136
13022.465227 73.934 170.0732
13116.831378 73.873 165.6780
13211.881345 73.774 160.7577
13307.620084 73.626 155.3482
13404.052584 73.423 149.4805
13501.183875 73.164 143.1719
13599.019019 72.849 136.4184
13697.563116 72.482 129.1873
13796.821305 72.067 121.4059
13896.798760 71.611 112.9417
13997.500692 71.121 103.5669
14098.932352 70.604 92.8874
14201.099028 70.072 80.2137
14304.006046 69.533 64.3525
14407.658770 69.000 43.5065
14512.062604 68.483 16.4700
14617.222992 67.991 -13.5361
14723.145416 67.527 -39.7701
14829.835397 67.092 -59.8212
14937.298497 66.680 -75.1459
15045.540320 66.280 -87.4468
15154.566507 65.877 -97.7866
15264.382743 65.454 -106.7354
15374.994752 64.997 -114.5709
15486.408302 64.492 -121.4080
15598.629201 63.935 -127.2820
15711.663298 63.325 -132.2100
15825.516487 62.668 -136.2430
15940.194703 61.973 -139.5006
16055.703925 61.252 -142.1790
16172.050174 60.516 -144.5194
16289.239516 59.775 -146.7480
16407.278061 59.034 -149.0206
16526.171961 58.294 -151.4019
16645.927415 57.555 -153.8802
16766.550667 56.818 -156.3997
16888.048005 56.086 -158.8901
17010.425762 55.367 -161.2915
17133.690320 54.676 -163.5692
17257.848103 54.035 -165.7273
17382.905584 53.474 -167.8143
17508.869284 53.025 -169.9255
17635.745768 52.720 -172.1965
17763.541652 52.576 -174.7930
17892.263597 52.594 -177.8940
18021.918315 52.754 178.3236
18152.512564 53.020 173.7000
18284.053153 53.354 168.0974
18416.546939 53.720 161.4014
18550.000830 54.089 153.5142
18684.421783 54.444 144.3586
18819.816805 54.773 133.9038
18956.192956 55.072 122.2330
19093.557344 55.342 109.6554
19231.917131 55.581 96.7963
19371.279531 55.788 84.5460
19511.651807 55.961 73.8271
19653.041280 56.095 65.3523
19795.455318 56.186 59.5437
19938.901348 56.232 56.6028
