* Measurement data measured by REW V5.31.3
* Source: EXCL: Headset (USB-C to 3.5mm Headphone Jack Adapter), MICROPHONE (Master Volume), 0, volume: 0.260
* Format: 256k Log Swept Sine, 1 sweep at -12.0 dBFS with no timing reference
* Dated: Feb 14, 2025 8:28:34 PM
* REW Settings:
*  C-weighting compensation: Off
*  Target level: 75.0 dB
* Note: ; 
* Measurement: Satyr 3 R8
* Smoothing: 1/6 octave
* Frequency Step: 96 ppo
* Start Frequency: 20.0 Hz
*
* Freq(Hz) SPL(dB) Phase(degrees)
20.141602 91.620 -26.1113
20.287556 91.636 -26.3314
20.434568 91.656 -26.6249
20.582645 91.677 -26.9821
20.731796 91.698 -27.3931
20.882027 91.715 -27.8485
21.033346 91.728 -28.3404
21.185763 91.735 -28.8621
21.339284 91.736 -29.4086
21.493917 91.731 -29.9758
21.649671 91.721 -30.5607
21.806553 91.706 -31.1608
21.964572 91.688 -31.7740
22.123737 91.669 -32.3982
22.284054 91.650 -33.0314
22.445534 91.633 -33.6719
22.608183 91.618 -34.3175
22.772012 91.607 -34.9665
22.937027 91.602 -35.6171
23.103238 91.603 -36.2677
23.270654 91.610 -36.9168
23.439282 91.626 -37.5630
23.609133 91.649 -38.2050
23.780215 91.681 -38.8415
23.952536 91.722 -39.4715
24.126106 91.772 -40.0941
24.300934 91.831 -40.7086
24.477028 91.899 -41.3150
24.654399 91.976 -41.9136
24.833055 92.060 -42.5055
25.013005 92.151 -43.0924
25.194260 92.248 -43.6769
25.376828 92.349 -44.2621
25.560719 92.453 -44.8515
25.745942 92.558 -45.4488
25.932508 92.663 -46.0574
26.120426 92.767 -46.6804
26.309705 92.868 -47.3199
26.500356 92.965 -47.9771
26.692388 93.058 -48.6521
26.885812 93.145 -49.3441
27.080638 93.227 -50.0511
27.276876 93.304 -50.7709
27.474535 93.376 -51.5006
27.673627 93.446 -52.2371
27.874161 93.514 -52.9774
28.076149 93.584 -53.7187
28.279600 93.657 -54.4583
28.484526 93.737 -55.1937
28.690937 93.827 -55.9228
28.898843 93.928 -56.6435
29.108256 94.044 -57.3542
29.319186 94.176 -58.0535
29.531645 94.323 -58.7403
29.745644 94.485 -59.4145
29.961193 94.659 -60.0765
30.178304 94.844 -60.7276
30.396989 95.033 -61.3701
30.617258 95.224 -62.0066
30.839123 95.410 -62.6403
31.062596 95.586 -63.2743
31.287688 95.747 -63.9110
31.514412 95.888 -64.5522
31.742778 96.006 -65.1982
31.972800 96.097 -65.8484
32.204488 96.159 -66.5010
32.437855 96.190 -67.1533
32.672913 96.191 -67.8025
32.909674 96.163 -68.4458
33.148151 96.108 -69.0814
33.388356 96.029 -69.7081
33.630302 95.929 -70.3259
33.874001 95.813 -70.9359
34.119466 95.685 -71.5397
34.366710 95.550 -72.1390
34.615745 95.412 -72.7355
34.866585 95.275 -73.3303
35.119243 95.145 -73.9238
35.373731 95.024 -74.5158
35.630064 94.916 -75.1059
35.888254 94.823 -75.6933
36.148315 94.749 -76.2780
36.410261 94.696 -76.8602
36.674104 94.664 -77.4410
36.939860 94.655 -78.0219
37.207542 94.670 -78.6048
37.477163 94.708 -79.1916
37.748738 94.769 -79.7838
38.022281 94.853 -80.3825
38.297806 94.958 -80.9879
38.575327 95.084 -81.5997
38.854860 95.230 -82.2172
39.136419 95.394 -82.8392
39.420017 95.576 -83.4649
39.705671 95.775 -84.0935
39.993395 95.990 -84.7249
40.283203 96.219 -85.3592
40.575112 96.462 -85.9971
40.869136 96.717 -86.6393
41.165290 96.982 -87.2870
41.463591 97.256 -87.9412
41.764053 97.536 -88.6025
42.066693 97.820 -89.2716
42.371525 98.105 -89.9484
42.678567 98.390 -90.6327
42.987834 98.671 -91.3238
43.299341 98.946 -92.0209
43.613106 99.213 -92.7232
43.929145 99.470 -93.4300
44.247473 99.714 -94.1411
44.568109 99.945 -94.8564
44.891068 100.160 -95.5759
45.216367 100.359 -96.2998
45.544023 100.541 -97.0279
45.874054 100.705 -97.7599
46.206476 100.852 -98.4952
46.541307 100.980 -99.2331
46.878565 101.091 -99.9728
47.218266 101.185 -100.7136
47.560429 101.262 -101.4552
47.905072 101.323 -102.1975
48.252212 101.370 -102.9407
48.601867 101.403 -103.6854
48.954056 101.424 -104.4323
49.308798 101.435 -105.1823
49.666109 101.437 -105.9361
50.026010 101.432 -106.6943
50.388520 101.422 -107.4571
50.753656 101.408 -108.2243
51.121437 101.393 -108.9952
51.491884 101.378 -109.7689
51.865016 101.365 -110.5444
52.240851 101.353 -111.3204
52.619410 101.345 -112.0960
53.000712 101.340 -112.8702
53.384777 101.338 -113.6420
53.771625 101.339 -114.4108
54.161276 101.342 -115.1760
54.553751 101.346 -115.9377
54.949070 101.350 -116.6957
55.347254 101.354 -117.4505
55.748323 101.355 -118.2024
56.152298 101.355 -118.9518
56.559201 101.351 -119.6990
56.969052 101.344 -120.4439
57.381873 101.333 -121.1868
57.797686 101.318 -121.9278
58.216512 101.300 -122.6675
58.638373 101.278 -123.4067
59.063291 101.253 -124.1472
59.491288 101.224 -124.8906
59.922386 101.193 -125.6386
60.356608 101.159 -126.3918
60.793977 101.122 -127.1504
61.234515 101.084 -127.9130
61.678246 101.044 -128.6780
62.125192 101.003 -129.4434
62.575377 100.962 -130.2073
63.028824 100.921 -130.9684
63.485557 100.880 -131.7255
63.945599 100.841 -132.4781
64.408975 100.803 -133.2259
64.875709 100.767 -133.9687
65.345825 100.732 -134.7064
65.819348 100.700 -135.4392
66.296302 100.671 -136.1672
66.776713 100.644 -136.8906
67.260604 100.620 -137.6094
67.748002 100.597 -138.3236
68.238932 100.577 -139.0330
68.733420 100.558 -139.7374
69.231490 100.541 -140.4363
69.733170 100.524 -141.1295
70.238485 100.508 -141.8169
70.747463 100.493 -142.4984
71.260128 100.478 -143.1740
71.776508 100.464 -143.8436
72.296630 100.450 -144.5070
72.820521 100.437 -145.1637
73.348209 100.424 -145.8135
73.879720 100.411 -146.4557
74.415083 100.399 -147.0904
74.954326 100.387 -147.7175
75.497475 100.374 -148.3372
76.044561 100.361 -148.9500
76.595612 100.348 -149.5562
77.150655 100.332 -150.1562
77.709720 100.315 -150.7502
78.272837 100.295 -151.3383
78.840034 100.273 -151.9205
79.411342 100.247 -152.4966
79.986789 100.217 -153.0666
80.566406 100.183 -153.6301
81.150224 100.146 -154.1870
81.738272 100.104 -154.7370
82.330581 100.060 -155.2802
82.927182 100.013 -155.8164
83.528107 99.965 -156.3459
84.133386 99.918 -156.8686
84.743051 99.874 -157.3847
85.357134 99.834 -157.8945
85.975667 99.804 -158.3980
86.598682 99.785 -158.8957
87.226212 99.781 -159.3877
87.858289 99.795 -159.8744
88.494946 99.831 -160.3560
89.136217 99.889 -160.8329
89.782135 99.972 -161.3051
90.432733 100.078 -161.7726
91.088046 100.205 -162.2355
91.748108 100.351 -162.6938
92.412952 100.510 -163.1474
93.082615 100.678 -163.5960
93.757130 100.849 -164.0395
94.436533 101.018 -164.4777
95.120859 101.179 -164.9106
95.810144 101.329 -165.3381
96.504423 101.465 -165.7605
97.203734 101.584 -166.1780
97.908112 101.686 -166.5908
98.617595 101.771 -166.9990
99.332219 101.839 -167.4028
100.052021 101.892 -167.8021
100.777039 101.932 -168.1967
101.507311 101.962 -168.5865
102.242875 101.983 -168.9712
102.983769 101.998 -169.3506
103.730032 102.007 -169.7243
104.481702 102.011 -170.0925
105.238820 102.011 -170.4550
106.001424 102.005 -170.8123
106.769554 101.993 -171.1644
107.543250 101.972 -171.5116
108.322553 101.942 -171.8542
109.107503 101.901 -172.1922
109.898141 101.847 -172.5258
110.694508 101.779 -172.8551
111.496646 101.698 -173.1802
112.304596 101.604 -173.5010
113.118402 101.497 -173.8175
113.938104 101.380 -174.1298
114.763747 101.254 -174.4378
115.595372 101.122 -174.7417
116.433024 100.985 -175.0412
117.276746 100.846 -175.3363
118.126581 100.707 -175.6267
118.982575 100.570 -175.9122
119.844772 100.434 -176.1925
120.713217 100.302 -176.4674
121.587954 100.172 -176.7370
122.469031 100.045 -177.0014
123.356492 99.919 -177.2610
124.250384 99.793 -177.5159
125.150753 99.665 -177.7664
126.057647 99.535 -178.0126
126.971113 99.400 -178.2545
127.891198 99.260 -178.4920
128.817950 99.114 -178.7253
129.751418 98.962 -178.9546
130.691651 98.803 -179.1799
131.638696 98.639 -179.4014
132.592604 98.472 -179.6192
133.553425 98.302 -179.8334
134.521208 98.133 179.9559
135.496004 97.968 179.7488
136.477864 97.811 179.5452
137.466839 97.663 179.3447
138.462981 97.530 179.1472
139.466340 97.412 178.9523
140.476971 97.313 178.7597
141.494925 97.232 178.5692
142.520256 97.170 178.3805
143.553016 97.123 178.1939
144.593260 97.090 178.0098
145.641043 97.066 177.8289
146.696418 97.048 177.6520
147.759441 97.032 177.4803
148.830166 97.014 177.3149
149.908651 96.990 177.1572
150.994951 96.960 177.0084
152.089123 96.922 176.8698
153.191223 96.875 176.7425
154.301310 96.821 176.6278
155.419441 96.760 176.5267
156.545674 96.695 176.4402
157.680069 96.627 176.3693
158.822683 96.558 176.3148
159.973578 96.490 176.2772
161.132813 96.424 176.2567
162.300447 96.361 176.2534
163.476543 96.302 176.2673
164.661162 96.248 176.2981
165.854364 96.198 176.3456
167.056213 96.154 176.4097
168.266772 96.115 176.4902
169.486102 96.082 176.5870
170.714268 96.055 176.6998
171.951334 96.036 176.8281
173.197364 96.023 176.9713
174.452424 96.017 177.1284
175.716578 96.019 177.2983
176.989893 96.027 177.4794
178.272434 96.041 177.6699
179.564270 96.061 177.8680
180.865467 96.084 178.0716
182.176092 96.111 178.2781
183.496216 96.139 178.4851
184.825905 96.169 178.6899
186.165229 96.199 178.8898
187.514259 96.230 179.0820
188.873065 96.261 179.2640
190.241717 96.292 179.4333
191.620287 96.325 179.5878
193.008847 96.359 179.7255
194.407468 96.395 179.8451
195.816225 96.433 179.9452
197.235190 96.471 -179.9749
198.664438 96.511 -179.9158
200.104042 96.551 -179.8777
201.554078 96.591 -179.8604
203.014622 96.629 -179.8631
204.485750 96.664 -179.8849
205.967538 96.697 -179.9243
207.460064 96.726 -179.9795
208.963405 96.750 179.9511
210.477640 96.770 179.8693
212.002848 96.785 179.7766
213.539108 96.796 179.6741
215.086500 96.803 179.5630
216.645105 96.806 179.4443
218.215005 96.805 179.3188
219.796281 96.801 179.1877
221.389015 96.794 179.0521
222.993292 96.782 178.9130
224.609193 96.766 178.7716
226.236804 96.745 178.6288
227.876209 96.718 178.4854
229.527494 96.685 178.3422
231.190745 96.646 178.1997
232.866048 96.601 178.0584
234.553491 96.549 177.9187
236.253163 96.493 177.7808
237.965150 96.433 177.6446
239.689544 96.369 177.5102
241.426433 96.302 177.3776
243.175909 96.234 177.2467
244.938062 96.166 177.1176
246.712984 96.098 176.9902
248.500768 96.032 176.8647
250.301507 95.968 176.7411
252.115295 95.907 176.6192
253.942226 95.850 176.4993
255.782396 95.797 176.3812
257.635901 95.749 176.2652
259.502837 95.706 176.1513
261.383301 95.668 176.0396
263.277392 95.637 175.9301
265.185209 95.612 175.8225
267.106850 95.592 175.7169
269.042417 95.579 175.6130
270.992009 95.571 175.5106
272.955729 95.568 175.4095
274.933678 95.570 175.3094
276.925961 95.575 175.2105
278.932681 95.583 175.1128
280.953942 95.594 175.0166
282.989850 95.608 174.9223
285.040511 95.623 174.8303
287.106032 95.641 174.7411
289.186521 95.663 174.6551
291.282086 95.688 174.5726
293.392836 95.718 174.4939
295.518881 95.754 174.4188
297.660333 95.795 174.3474
299.817302 95.842 174.2795
301.989902 95.893 174.2151
304.178245 95.948 174.1539
306.382446 96.005 174.0958
308.602620 96.062 174.0406
310.838882 96.118 173.9879
313.091348 96.171 173.9376
315.360137 96.219 173.8896
317.645367 96.261 173.8436
319.947156 96.296 173.7994
322.265625 96.322 173.7570
324.600895 96.340 173.7160
326.953086 96.348 173.6765
329.322323 96.346 173.6383
331.708729 96.334 173.6015
334.112427 96.311 173.5660
336.533543 96.279 173.5320
338.972204 96.236 173.4994
341.428536 96.184 173.4682
343.902668 96.123 173.4384
346.394729 96.056 173.4100
348.904848 95.983 173.3829
351.433156 95.907 173.3571
353.979786 95.829 173.3326
356.544869 95.753 173.3093
359.128540 95.680 173.2872
361.730934 95.614 173.2662
364.352185 95.558 173.2462
366.992431 95.514 173.2270
369.651810 95.485 173.2084
372.330459 95.472 173.1902
375.028519 95.477 173.1722
377.746130 95.500 173.1546
380.483434 95.540 173.1374
383.240574 95.595 173.1208
386.017693 95.664 173.1052
388.814937 95.744 173.0908
391.632450 95.832 173.0777
394.470380 95.927 173.0661
397.328875 96.024 173.0559
400.208084 96.122 173.0469
403.108157 96.219 173.0389
406.029245 96.314 173.0320
408.971500 96.405 173.0259
411.935076 96.494 173.0209
414.920127 96.580 173.0174
417.926810 96.663 173.0157
420.955280 96.744 173.0162
424.005695 96.824 173.0193
427.078215 96.903 173.0255
430.173000 96.983 173.0349
433.290211 97.064 173.0475
436.430010 97.145 173.0635
439.592562 97.226 173.0825
442.778031 97.306 173.1042
445.986583 97.383 173.1283
449.218386 97.457 173.1542
452.473607 97.526 173.1816
455.752418 97.587 173.2101
459.054987 97.640 173.2394
462.381489 97.684 173.2695
465.732096 97.718 173.3001
469.106983 97.742 173.3311
472.506325 97.755 173.3622
475.930301 97.760 173.3932
479.379088 97.755 173.4240
482.852867 97.744 173.4545
486.351817 97.725 173.4845
489.876123 97.702 173.5142
493.425968 97.674 173.5434
497.001536 97.642 173.5720
500.603014 97.607 173.5997
504.230589 97.570 173.6262
507.884452 97.530 173.6512
511.564792 97.488 173.6743
515.271802 97.443 173.6951
519.005673 97.397 173.7135
522.766602 97.349 173.7293
526.554785 97.302 173.7422
530.370418 97.257 173.7523
534.213700 97.215 173.7591
538.084833 97.179 173.7626
541.984018 97.150 173.7625
545.911457 97.129 173.7585
549.867357 97.117 173.7504
553.851922 97.113 173.7383
557.865362 97.118 173.7228
561.907884 97.129 173.7046
565.979700 97.145 173.6855
570.081022 97.164 173.6678
574.212064 97.183 173.6544
578.373042 97.200 173.6481
582.564171 97.215 173.6514
586.785671 97.225 173.6659
591.037762 97.231 173.6916
595.320665 97.232 173.7270
599.634604 97.228 173.7694
603.979804 97.218 173.8154
608.356491 97.203 173.8615
612.764893 97.184 173.9050
617.205240 97.160 173.9434
621.677763 97.134 173.9750
626.182696 97.105 173.9990
630.720274 97.075 174.0149
635.290733 97.047 174.0228
639.894312 97.021 174.0228
644.531250 97.000 174.0156
649.201789 96.984 174.0013
653.906173 96.975 173.9803
658.644647 96.973 173.9529
663.417457 96.979 173.9190
668.224854 96.990 173.8792
673.067086 97.007 173.8337
677.944408 97.028 173.7835
682.857073 97.051 173.7296
687.805336 97.074 173.6732
692.789457 97.096 173.6154
697.809695 97.115 173.5570
702.866312 97.132 173.4982
707.959571 97.145 173.4385
713.089738 97.153 173.3769
718.257080 97.157 173.3120
723.461867 97.157 173.2428
728.704370 97.153 173.1680
733.984862 97.146 173.0870
739.303619 97.135 172.9996
744.660918 97.122 172.9059
750.057038 97.106 172.8066
755.492260 97.089 172.7024
760.966869 97.070 172.5943
766.481148 97.050 172.4832
772.035387 97.028 172.3695
777.629873 97.004 172.2539
783.264900 96.977 172.1364
788.940760 96.947 172.0171
794.657750 96.912 171.8960
800.416168 96.872 171.7732
806.216313 96.825 171.6484
812.058489 96.773 171.5214
817.943000 96.713 171.3918
823.870152 96.648 171.2587
829.840255 96.576 171.1214
835.853619 96.499 170.9787
841.910559 96.417 170.8300
848.011390 96.332 170.6747
854.156430 96.243 170.5130
860.346000 96.153 170.3450
866.580422 96.062 170.1713
872.860020 95.971 169.9928
879.185124 95.881 169.8104
885.556062 95.793 169.6251
891.973166 95.709 169.4381
898.436771 95.629 169.2505
904.947215 95.555 169.0633
911.504835 95.487 168.8779
918.109975 95.427 168.6953
924.762978 95.376 168.5159
931.464192 95.333 168.3402
938.213966 95.301 168.1675
945.012651 95.277 167.9974
951.860602 95.264 167.8288
958.758176 95.259 167.6610
965.705733 95.262 167.4937
972.703635 95.272 167.3264
979.752246 95.289 167.1586
986.851935 95.312 166.9896
994.003071 95.340 166.8180
1001.206027 95.372 166.6422
1008.461179 95.410 166.4607
1015.768904 95.451 166.2723
1023.129584 95.498 166.0764
1030.543603 95.549 165.8723
1038.011347 95.606 165.6597
1045.533205 95.669 165.4382
1053.109569 95.737 165.2075
1060.740836 95.810 164.9676
1068.427401 95.888 164.7194
1076.169666 95.970 164.4643
1083.968035 96.055 164.2050
1091.822915 96.141 163.9445
1099.734713 96.225 163.6861
1107.703844 96.308 163.4322
1115.730723 96.387 163.1843
1123.815768 96.461 162.9432
1131.959400 96.529 162.7093
1140.162045 96.588 162.4829
1148.424129 96.640 162.2647
1156.746083 96.684 162.0557
1165.128342 96.719 161.8572
1173.571343 96.748 161.6711
1182.075524 96.772 161.4991
1190.641331 96.791 161.3426
1199.269209 96.807 161.2025
1207.959608 96.821 161.0793
1216.712981 96.835 160.9730
1225.529785 96.850 160.8835
1234.410479 96.864 160.8105
1243.355526 96.879 160.7537
1252.365393 96.894 160.7126
1261.440549 96.908 160.6863
1270.581467 96.920 160.6741
1279.788624 96.931 160.6754
1289.062500 96.940 160.6899
1298.403578 96.946 160.7179
1307.812346 96.950 160.7590
1317.289293 96.951 160.8130
1326.834914 96.951 160.8791
1336.449707 96.949 160.9562
1346.134173 96.946 161.0430
1355.888816 96.942 161.1375
1365.714145 96.938 161.2369
1375.610673 96.934 161.3385
1385.578915 96.929 161.4391
1395.619391 96.923 161.5367
1405.732624 96.916 161.6301
1415.919142 96.907 161.7197
1426.179476 96.897 161.8063
1436.514160 96.885 161.8912
1446.923734 96.872 161.9762
1457.408740 96.860 162.0629
1467.969724 96.847 162.1537
1478.607238 96.836 162.2505
1489.321836 96.827 162.3557
1500.114076 96.821 162.4710
1510.984521 96.817 162.5981
1521.933737 96.818 162.7383
1532.962297 96.822 162.8930
1544.070773 96.831 163.0626
1555.259747 96.843 163.2468
1566.529800 96.860 163.4442
1577.881521 96.880 163.6523
1589.315501 96.904 163.8684
1600.832336 96.931 164.0898
1612.432627 96.960 164.3140
1624.116978 96.991 164.5391
1635.886000 97.023 164.7632
1647.740304 97.057 164.9850
1659.680509 97.092 165.2039
1671.707238 97.128 165.4205
1683.821118 97.165 165.6368
1696.022780 97.203 165.8558
1708.312860 97.243 166.0808
1720.692000 97.285 166.3135
1733.160843 97.331 166.5534
1745.720041 97.381 166.7978
1758.370248 97.435 167.0423
1771.112124 97.493 167.2817
1783.946332 97.555 167.5109
1796.873543 97.619 167.7245
1809.894429 97.685 167.9177
1823.009670 97.753 168.0867
1836.219950 97.820 168.2295
1849.525956 97.885 168.3460
1862.928384 97.949 168.4386
1876.427931 98.010 168.5110
1890.025301 98.069 168.5673
1903.721204 98.126 168.6108
1917.516352 98.182 168.6439
1931.411466 98.236 168.6676
1945.407270 98.289 168.6817
1959.504493 98.341 168.6838
1973.703870 98.390 168.6702
1988.006142 98.436 168.6374
2002.412054 98.476 168.5831
2016.922357 98.511 168.5072
2031.537808 98.537 168.4113
2046.259169 98.554 168.2979
2061.087206 98.562 168.1697
2076.022694 98.559 168.0302
2091.066410 98.547 167.8824
2106.219139 98.525 167.7291
2121.481671 98.495 167.5718
2136.854802 98.457 167.4114
2152.339333 98.414 167.2479
2167.936071 98.367 167.0802
2183.645829 98.317 166.9066
2199.469427 98.266 166.7249
2215.407689 98.215 166.5332
2231.461446 98.165 166.3299
2247.631536 98.115 166.1144
2263.918800 98.067 165.8871
2280.324089 98.021 165.6494
2296.848258 97.975 165.4033
2313.492167 97.931 165.1512
2330.256685 97.887 164.8953
2347.142685 97.844 164.6370
2364.151049 97.801 164.3766
2381.282662 97.760 164.1140
2398.538418 97.719 163.8479
2415.919216 97.678 163.5766
2433.425962 97.638 163.2984
2451.059570 97.599 163.0114
2468.820958 97.559 162.7138
2486.711052 97.520 162.4045
2504.730786 97.481 162.0830
2522.881098 97.441 161.7496
2541.162934 97.402 161.4059
2559.577248 97.362 161.0542
2578.125000 97.323 160.6974
2596.807157 97.284 160.3387
2615.624692 97.247 159.9815
2634.578586 97.212 159.6288
2653.669829 97.180 159.2838
2672.899414 97.151 158.9497
2692.268345 97.125 158.6304
2711.777632 97.102 158.3309
2731.428290 97.082 158.0574
2751.221345 97.064 157.8173
2771.157829 97.048 157.6187
2791.238781 97.034 157.4699
2811.465248 97.019 157.3786
2831.838284 97.004 157.3510
2852.358952 96.989 157.3917
2873.028321 96.972 157.5037
2893.847468 96.953 157.6879
2914.817480 96.932 157.9442
2935.939449 96.907 158.2718
2957.214476 96.878 158.6701
2978.643672 96.846 159.1382
3000.228152 96.810 159.6754
3021.969041 96.771 160.2799
3043.867475 96.729 160.9492
3065.924593 96.688 161.6787
3088.141547 96.648 162.4620
3110.519493 96.611 163.2902
3133.059600 96.579 164.1523
3155.763041 96.555 165.0350
3178.631001 96.539 165.9231
3201.664672 96.533 166.7995
3224.865254 96.538 167.6467
3248.233957 96.554 168.4472
3271.771999 96.580 169.1857
3295.480608 96.614 169.8494
3319.361019 96.656 170.4302
3343.414477 96.702 170.9250
3367.642236 96.750 171.3364
3392.045560 96.800 171.6717
3416.625721 96.849 171.9415
3441.383999 96.897 172.1580
3466.321686 96.944 172.3327
3491.440082 96.993 172.4749
3516.740496 97.043 172.5902
3542.224247 97.096 172.6798
3567.892664 97.155 172.7404
3593.747085 97.220 172.7648
3619.788858 97.291 172.7438
3646.019340 97.369 172.6672
3672.439900 97.451 172.5258
3699.051913 97.537 172.3130
3725.856768 97.624 172.0259
3752.855862 97.708 171.6656
3780.050603 97.789 171.2369
3807.442408 97.863 170.7487
3835.032705 97.928 170.2122
3862.822933 97.984 169.6408
3890.814540 98.028 169.0485
3919.008986 98.060 168.4494
3947.407741 98.080 167.8572
3976.012284 98.088 167.2845
4004.824108 98.084 166.7425
4033.844715 98.069 166.2413
4063.075616 98.043 165.7892
4092.518337 98.006 165.3934
4122.174412 97.961 165.0600
4152.045387 97.906 164.7941
4182.132820 97.844 164.6000
4212.438278 97.775 164.4814
4242.963342 97.699 164.4413
4273.709604 97.619 164.4821
4304.678665 97.534 164.6055
4335.872141 97.446 164.8124
4367.291658 97.356 165.1031
4398.938854 97.263 165.4769
4430.815378 97.169 165.9325
4462.922893 97.074 166.4683
4495.263072 96.978 167.0826
4527.837601 96.881 167.7744
4560.648179 96.784 168.5426
4593.696515 96.686 169.3869
4626.984334 96.588 170.3077
4660.513370 96.491 171.3052
4694.285371 96.397 172.3801
4728.302098 96.306 173.5323
4762.565324 96.220 174.7611
4797.076835 96.143 176.0643
4831.838432 96.077 177.4382
4866.851925 96.024 178.8773
4902.119140 95.987 -179.6260
4937.641916 95.970 -178.0812
4973.422105 95.974 -176.4999
5009.461572 96.003 -174.8952
5045.762195 96.058 -173.2818
5082.325868 96.140 -171.6758
5119.154496 96.250 -170.0941
5156.250000 96.390 -168.5544
5193.614313 96.557 -167.0748
5231.249383 96.752 -165.6735
5269.157173 96.973 -164.3686
5307.339658 97.220 -163.1783
5345.798829 97.489 -162.1197
5384.536691 97.778 -161.2094
5423.555263 98.086 -160.4628
5462.856580 98.409 -159.8935
5502.442691 98.745 -159.5137
5542.315659 99.091 -159.3331
5582.477563 99.444 -159.3597
5622.930497 99.800 -159.5989
5663.676569 100.158 -160.0535
5704.717904 100.514 -160.7238
5746.056642 100.864 -161.6073
5787.694937 101.206 -162.6984
5829.634960 101.535 -163.9882
5871.878898 101.848 -165.4649
5914.428953 102.143 -167.1131
5957.287343 102.416 -168.9149
6000.456303 102.663 -170.8496
6043.938083 102.883 -172.8940
6087.734950 103.073 -175.0236
6131.849187 103.231 -177.2121
6176.283094 103.356 -179.4331
6221.038987 103.448 178.3400
6266.119200 103.506 176.1325
6311.526083 103.531 173.9683
6357.262002 103.525 171.8689
6403.329344 103.488 169.8531
6449.730508 103.424 167.9365
6496.467914 103.334 166.1316
6543.543998 103.223 164.4472
6590.961215 103.095 162.8889
6638.722037 102.952 161.4586
6686.828954 102.801 160.1550
6735.284473 102.646 158.9728
6784.091120 102.493 157.9030
6833.251441 102.347 156.9323
6882.767998 102.216 156.0426
6932.643372 102.104 155.2109
6982.880164 102.017 154.4083
7033.480992 101.961 153.6010
7084.448495 101.938 152.7506
7135.785329 101.950 151.8160
7187.494171 101.997 150.7551
7239.577717 102.075 149.5273
7292.038681 102.179 148.0957
7344.879799 102.304 146.4282
7398.103826 102.442 144.4990
7451.713536 102.583 142.2886
7505.711724 102.719 139.7843
7560.101205 102.842 136.9800
7614.884815 102.942 133.8759
7670.065409 103.010 130.4786
7725.645865 103.039 126.8008
7781.629080 103.020 122.8615
7838.017972 102.949 118.6848
7894.815481 102.818 114.2993
7952.024569 102.624 109.7359
8009.648217 102.364 105.0250
8067.689429 102.038 100.1929
8126.151233 101.648 95.2578
8185.036674 101.196 90.2250
8244.348824 100.687 85.0836
8304.090774 100.126 79.8033
8364.265639 99.521 74.3318
8424.876556 98.881 68.5929
8485.926684 98.213 62.4846
8547.419207 97.529 55.8783
8609.357330 96.840 48.6203
8671.744282 96.160 40.5409
8734.583316 95.504 31.4779
8797.877707 94.889 21.3276
8861.630756 94.333 10.1262
8925.845785 93.856 -1.8648
8990.526143 93.476 -14.1433
9055.675202 93.206 -26.0873
9121.296357 93.056 -37.1626
9187.393031 93.027 -47.0667
9253.968668 93.114 -55.7351
9321.026740 93.305 -63.2635
9388.570742 93.583 -69.8231
9456.604196 93.930 -75.6053
9525.130648 94.328 -80.7943
9594.153671 94.757 -85.5563
9663.676863 95.201 -90.0361
9733.703850 95.643 -94.3557
9804.238280 96.068 -98.6136
9875.283832 96.463 -102.8845
9946.844210 96.815 -107.2174
10018.923143 97.112 -111.6367
10091.524390 97.345 -116.1415
10164.651736 97.508 -120.7089
10238.308993 97.595 -125.2975
10312.500000 97.605 -129.8546
10387.228626 97.540 -134.3231
10462.498767 97.405 -138.6490
10538.314345 97.206 -142.7865
10614.679315 96.952 -146.7012
10691.597657 96.652 -150.3721
10769.073381 96.316 -153.7913
10847.110526 95.953 -156.9643
10925.713161 95.572 -159.9088
11004.885382 95.180 -162.6537
11084.631318 94.783 -165.2370
11164.955126 94.387 -167.7027
11245.860993 93.991 -170.0972
11327.353138 93.596 -172.4642
11409.435808 93.198 -174.8394
11492.113283 92.790 -177.2451
11575.389873 92.365 -179.6866
11659.269920 91.914 177.8500
11743.757796 91.429 175.3977
11828.857906 90.902 173.0065
11914.574686 90.330 170.7388
12000.912606 89.708 168.6650
12087.876166 89.039 166.8610
12175.469900 88.324 165.4073
12263.698373 87.569 164.3936
12352.566187 86.784 163.9291
12442.077974 85.981 164.1622
12532.238400 85.175 165.3159
12623.052165 84.389 167.7419
12714.524005 83.645 171.9865
12806.658687 82.972 178.7878
12899.461015 82.396 -171.2379
12992.935827 81.938 -158.5557
13087.087996 81.603 -145.5007
13181.922430 81.380 -134.8256
13277.444074 81.245 -127.5603
13373.657907 81.163 -123.1992
13470.568945 81.106 -120.8145
13568.182241 81.050 -119.5919
13666.502883 80.985 -118.9238
13765.535996 80.913 -118.3831
13865.286744 80.846 -117.6946
13965.760328 80.802 -116.7311
14066.961984 80.804 -115.5200
14168.896989 80.865 -114.2344
14271.570658 80.990 -113.1422
14374.988342 81.171 -112.5193
14479.155433 81.388 -112.5656
14584.077362 81.618 -113.3683
14689.759598 81.837 -114.9128
14796.207652 82.024 -117.1188
14903.427072 82.165 -119.8766
15011.423448 82.251 -123.0733
15120.202410 82.279 -126.6072
15229.769630 82.247 -130.3943
15340.130819 82.154 -134.3682
15451.291730 82.001 -138.4762
15563.258160 81.788 -142.6735
15676.035944 81.513 -146.9178
15789.630962 81.174 -151.1661
15904.049137 80.772 -155.3743
16019.296433 80.307 -159.4989
16135.378859 79.780 -163.5009
16252.302465 79.195 -167.3467
16370.073348 78.557 -171.0054
16488.697648 77.872 -174.4422
16608.181548 77.144 -177.6074
16728.531278 76.383 179.5769
16849.753112 75.598 177.2345
16971.853368 74.803 175.5602
17094.838414 74.019 174.8553
17218.714660 73.274 175.5719
17343.488565 72.605 178.3311
17469.166632 72.051 -176.2151
17595.755415 71.649 -167.9560
17723.261512 71.416 -158.2540
17851.691571 71.346 -149.7561
17981.052287 71.408 -144.4393
18111.350404 71.557 -142.6155
18242.592715 71.747 -143.6827
18374.786062 71.939 -146.9113
18507.937336 72.102 -151.7159
18642.053479 72.217 -157.6688
18777.141484 72.272 -164.4514
18913.208391 72.260 -171.8022
19050.261296 72.183 -179.4755
19188.307342 72.049 172.7889
19327.353727 71.869 165.2813
19467.407699 71.663 158.3223
19608.476560 71.457 152.2422
19750.567664 71.274 147.3551
19893.688419 71.137 143.9294
20037.846286 71.064 142.1633
