* Measurement data measured by REW V5.31.3
* Source: EXCL: Headset (USB-C to 3.5mm Headphone Jack Adapter), MICROPHONE (Master Volume), 0, volume: 0.750
* Format: 256k Log Swept Sine, 1 sweep at -12.0 dBFS with no timing reference
* Dated: Apr 1, 2025 10:34:38 PM
* REW Settings:
*  C-weighting compensation: Off
*  Target level: 75.0 dB
* Note: ; 
* Measurement: Satyr 3 (Massive Mod) R9
* Smoothing: 1/6 octave
* Frequency Step: 96 ppo
* Start Frequency: 20.0 Hz
*
* Freq(Hz) SPL(dB) Phase(degrees)
20.187378 88.154 -113.2423
20.333664 88.186 -113.3163
20.481010 88.229 -113.4168
20.629424 88.281 -113.5431
20.778913 88.340 -113.6944
20.929486 88.404 -113.8703
21.081150 88.473 -114.0704
21.233912 88.544 -114.2950
21.387782 88.617 -114.5439
21.542767 88.691 -114.8171
21.698874 88.764 -115.1145
21.856113 88.838 -115.4355
22.014492 88.910 -115.7793
22.174018 88.982 -116.1445
22.334700 89.053 -116.5292
22.496546 89.122 -116.9309
22.659566 89.190 -117.3462
22.823766 89.256 -117.7714
22.989157 89.321 -118.2022
23.155745 89.382 -118.6341
23.323542 89.441 -119.0627
23.492554 89.497 -119.4840
23.662790 89.549 -119.8949
23.834261 89.599 -120.2935
24.006973 89.644 -120.6793
24.180938 89.686 -121.0535
24.356163 89.724 -121.4183
24.532658 89.758 -121.7774
24.710431 89.788 -122.1348
24.889493 89.814 -122.4950
25.069853 89.835 -122.8619
25.251519 89.852 -123.2384
25.434502 89.863 -123.6265
25.618811 89.870 -124.0267
25.804456 89.873 -124.4384
25.991445 89.871 -124.8599
26.179790 89.866 -125.2891
26.369500 89.860 -125.7237
26.560584 89.851 -126.1616
26.753053 89.843 -126.6011
26.946917 89.836 -127.0415
27.142185 89.830 -127.4825
27.338869 89.827 -127.9244
27.536977 89.826 -128.3675
27.736522 89.828 -128.8121
27.937512 89.832 -129.2582
28.139959 89.838 -129.7051
28.343872 89.846 -130.1517
28.549264 89.856 -130.5964
28.756143 89.866 -131.0376
28.964522 89.877 -131.4734
29.174411 89.889 -131.9028
29.385821 89.902 -132.3247
29.598763 89.915 -132.7390
29.813248 89.931 -133.1459
30.029287 89.948 -133.5463
30.246891 89.967 -133.9413
30.466073 89.988 -134.3319
30.686842 90.012 -134.7195
30.909212 90.038 -135.1048
31.133193 90.067 -135.4887
31.358797 90.100 -135.8713
31.586035 90.135 -136.2529
31.814921 90.174 -136.6328
32.045465 90.216 -137.0106
32.277680 90.261 -137.3852
32.511577 90.309 -137.7557
32.747169 90.360 -138.1208
32.984469 90.414 -138.4794
33.223488 90.471 -138.8307
33.464239 90.531 -139.1736
33.706735 90.593 -139.5074
33.950987 90.657 -139.8316
34.197010 90.722 -140.1458
34.444816 90.789 -140.4500
34.694417 90.857 -140.7444
34.945827 90.927 -141.0298
35.199059 90.997 -141.3077
35.454126 91.069 -141.5800
35.711041 91.141 -141.8490
35.969818 91.213 -142.1172
36.230470 91.286 -142.3866
36.493011 91.359 -142.6587
36.757455 91.430 -142.9337
37.023814 91.501 -143.2112
37.292104 91.570 -143.4896
37.562338 91.638 -143.7673
37.834530 91.704 -144.0423
38.108695 91.768 -144.3136
38.384846 91.831 -144.5806
38.662999 91.894 -144.8439
38.943167 91.955 -145.1046
39.225365 92.016 -145.3642
39.509608 92.077 -145.6244
39.795911 92.137 -145.8868
40.084289 92.197 -146.1526
40.374756 92.256 -146.4226
40.667328 92.315 -146.6972
40.962020 92.373 -146.9767
41.258848 92.431 -147.2611
41.557827 92.487 -147.5506
41.858972 92.542 -147.8455
42.162299 92.595 -148.1470
42.467824 92.648 -148.4565
42.775564 92.699 -148.7759
43.085533 92.749 -149.1072
43.397749 92.797 -149.4520
43.712227 92.844 -149.8111
44.028983 92.889 -150.1840
44.348036 92.933 -150.5695
44.669400 92.976 -150.9653
44.993093 93.018 -151.3691
45.319131 93.060 -151.7789
45.647532 93.101 -152.1933
45.978313 93.142 -152.6116
46.311491 93.183 -153.0335
46.647083 93.222 -153.4589
46.985107 93.260 -153.8875
47.325581 93.296 -154.3183
47.668521 93.329 -154.7499
48.013947 93.359 -155.1808
48.361876 93.385 -155.6094
48.712326 93.408 -156.0347
49.065315 93.428 -156.4562
49.420863 93.444 -156.8739
49.778987 93.457 -157.2885
50.139706 93.468 -157.7006
50.503039 93.476 -158.1108
50.869005 93.482 -158.5195
51.237623 93.486 -158.9270
51.608912 93.488 -159.3334
51.982891 93.490 -159.7386
52.359580 93.490 -160.1428
52.739000 93.489 -160.5462
53.121168 93.488 -160.9487
53.506106 93.485 -161.3502
53.893833 93.482 -161.7505
54.284370 93.479 -162.1491
54.677737 93.475 -162.5454
55.073955 93.472 -162.9385
55.473043 93.468 -163.3275
55.875024 93.465 -163.7114
56.279917 93.463 -164.0895
56.687745 93.463 -164.4611
57.098527 93.463 -164.8259
57.512287 93.466 -165.1843
57.929045 93.469 -165.5375
58.348822 93.474 -165.8878
58.771642 93.479 -166.2390
59.197525 93.484 -166.5953
59.626495 93.489 -166.9613
60.058573 93.494 -167.3405
60.493782 93.499 -167.7346
60.932145 93.505 -168.1433
61.373685 93.510 -168.5641
61.818424 93.517 -168.9934
62.266386 93.526 -169.4272
62.717593 93.537 -169.8612
63.172071 93.549 -170.2922
63.629842 93.564 -170.7174
64.090930 93.580 -171.1354
64.555359 93.597 -171.5454
65.023154 93.616 -171.9474
65.494339 93.635 -172.3415
65.968938 93.654 -172.7283
66.446976 93.673 -173.1083
66.928478 93.692 -173.4823
67.413469 93.709 -173.8511
67.901975 93.725 -174.2152
68.394021 93.739 -174.5754
68.889632 93.752 -174.9319
69.388835 93.763 -175.2849
69.891655 93.772 -175.6347
70.398118 93.778 -175.9811
70.908252 93.783 -176.3241
71.422083 93.785 -176.6634
71.939636 93.785 -176.9991
72.460941 93.783 -177.3311
72.986023 93.778 -177.6594
73.514909 93.771 -177.9841
74.047629 93.762 -178.3053
74.584208 93.751 -178.6229
75.124676 93.737 -178.9370
75.669061 93.721 -179.2478
76.217390 93.704 -179.5553
76.769692 93.684 -179.8597
77.325997 93.662 179.8386
77.886333 93.639 179.5393
78.450730 93.614 179.2426
79.019216 93.588 178.9482
79.591822 93.561 178.6564
80.168577 93.533 178.3670
80.749512 93.504 178.0801
81.334656 93.475 177.7958
81.924040 93.445 177.5140
82.517696 93.415 177.2349
83.115653 93.385 176.9587
83.717943 93.354 176.6853
84.324598 93.323 176.4146
84.935649 93.292 176.1464
85.551128 93.261 175.8803
86.171066 93.229 175.6162
86.795497 93.197 175.3541
87.424453 93.164 175.0941
88.057967 93.132 174.8366
88.696071 93.099 174.5818
89.338800 93.066 174.3297
89.986185 93.032 174.0803
90.638262 92.999 173.8334
91.295065 92.965 173.5889
91.956626 92.931 173.3470
92.622982 92.897 173.1077
93.294166 92.863 172.8716
93.970214 92.829 172.6392
94.651161 92.794 172.4111
95.337042 92.759 172.1875
96.027894 92.724 171.9685
96.723752 92.689 171.7538
97.424652 92.654 171.5432
98.130631 92.619 171.3360
98.841726 92.584 171.1318
99.557974 92.550 170.9301
100.279412 92.517 170.7304
101.006078 92.485 170.5326
101.738010 92.453 170.3368
102.475245 92.423 170.1433
103.217823 92.394 169.9526
103.965782 92.367 169.7655
104.719161 92.341 169.5825
105.477999 92.316 169.4037
106.242336 92.292 169.2292
107.012212 92.270 169.0588
107.787666 92.248 168.8917
108.568740 92.228 168.7274
109.355474 92.208 168.5654
110.147909 92.190 168.4059
110.946086 92.173 168.2488
111.750047 92.156 168.0945
112.559834 92.141 167.9432
113.375489 92.126 167.7948
114.197055 92.111 167.6490
115.024574 92.097 167.5057
115.858089 92.083 167.3647
116.697645 92.070 167.2260
117.543284 92.056 167.0898
118.395051 92.042 166.9561
119.252990 92.027 166.8245
120.117147 92.013 166.6947
120.987565 91.998 166.5662
121.864291 91.982 166.4382
122.747370 91.966 166.3101
123.636848 91.949 166.1817
124.532771 91.932 166.0529
125.435187 91.913 165.9239
126.344142 91.894 165.7952
127.259684 91.874 165.6673
128.181860 91.852 165.5411
129.110718 91.830 165.4172
130.046308 91.807 165.2962
130.988677 91.783 165.1783
131.937875 91.759 165.0635
132.893951 91.733 164.9518
133.856956 91.707 164.8426
134.826938 91.680 164.7356
135.803950 91.651 164.6305
136.788041 91.622 164.5270
137.779264 91.591 164.4252
138.777669 91.559 164.3251
139.783309 91.526 164.2266
140.796237 91.491 164.1294
141.816504 91.454 164.0336
142.844165 91.417 163.9391
143.879273 91.377 163.8463
144.921881 91.337 163.7557
145.972045 91.295 163.6680
147.029819 91.252 163.5844
148.095257 91.208 163.5057
149.168417 91.163 163.4328
150.249353 91.117 163.3665
151.338121 91.070 163.3073
152.434780 91.023 163.2557
153.539385 90.975 163.2123
154.651995 90.928 163.1777
155.772667 90.880 163.1523
156.901460 90.832 163.1367
158.038432 90.785 163.1313
159.183644 90.739 163.1362
160.337154 90.692 163.1517
161.499023 90.647 163.1780
162.669312 90.602 163.2151
163.848081 90.558 163.2632
165.035392 90.515 163.3226
166.231306 90.472 163.3935
167.435887 90.431 163.4760
168.649196 90.391 163.5702
169.871298 90.352 163.6758
171.102255 90.315 163.7924
172.342133 90.280 163.9191
173.590995 90.247 164.0549
174.848907 90.217 164.1983
176.115934 90.189 164.3476
177.392143 90.164 164.5006
178.677599 90.142 164.6553
179.972371 90.123 164.8094
181.276525 90.105 164.9612
182.590129 90.090 165.1088
183.913252 90.076 165.2509
185.245964 90.064 165.3861
186.588332 90.054 165.5133
187.940428 90.045 165.6315
189.302322 90.038 165.7396
190.674085 90.032 165.8369
192.055788 90.027 165.9228
193.447503 90.022 165.9968
194.849303 90.018 166.0588
196.261262 90.014 166.1089
197.683452 90.009 166.1477
199.115948 90.005 166.1758
200.558824 90.000 166.1942
202.012156 89.995 166.2036
203.476019 89.989 166.2046
204.950490 89.983 166.1973
206.435646 89.977 166.1821
207.931564 89.970 166.1593
209.438322 89.962 166.1297
210.955998 89.954 166.0939
212.484672 89.946 166.0523
214.024424 89.938 166.0051
215.575333 89.930 165.9525
217.137481 89.921 165.8948
218.710948 89.913 165.8328
220.295818 89.905 165.7676
221.892172 89.896 165.7007
223.500094 89.889 165.6338
225.119668 89.882 165.5682
226.750978 89.876 165.5048
228.394109 89.870 165.4440
230.049147 89.866 165.3855
231.716178 89.862 165.3287
233.395289 89.860 165.2730
235.086567 89.858 165.2178
236.790102 89.858 165.1624
238.505980 89.858 165.1068
240.234293 89.858 165.0508
241.975130 89.859 164.9945
243.728581 89.861 164.9381
245.494739 89.862 164.8820
247.273695 89.864 164.8262
249.065542 89.865 164.7712
250.870374 89.865 164.7172
252.688284 89.865 164.6645
254.519367 89.865 164.6133
256.363720 89.864 164.5638
258.221437 89.863 164.5161
260.092616 89.861 164.4702
261.977354 89.858 164.4267
263.875750 89.855 164.3859
265.787903 89.852 164.3481
267.713911 89.849 164.3135
269.653877 89.846 164.2820
271.607900 89.843 164.2532
273.576083 89.841 164.2263
275.558528 89.838 164.2005
277.555338 89.836 164.1750
279.566619 89.833 164.1495
281.592474 89.832 164.1237
283.633009 89.830 164.0980
285.688331 89.829 164.0727
287.758546 89.829 164.0485
289.843763 89.829 164.0259
291.944090 89.830 164.0056
294.059638 89.831 163.9878
296.190515 89.833 163.9725
298.336833 89.837 163.9594
300.498705 89.841 163.9481
302.676243 89.846 163.9377
304.869559 89.851 163.9277
307.078770 89.858 163.9178
309.303989 89.865 163.9077
311.545334 89.872 163.8973
313.802919 89.880 163.8864
316.076865 89.888 163.8749
318.367288 89.896 163.8628
320.674309 89.904 163.8501
322.998047 89.911 163.8366
325.338624 89.919 163.8223
327.696162 89.925 163.8068
330.070783 89.931 163.7897
332.462612 89.935 163.7708
334.871773 89.939 163.7498
337.298392 89.941 163.7269
339.742595 89.942 163.7024
342.204510 89.940 163.6768
344.684265 89.937 163.6512
347.181989 89.932 163.6270
349.697813 89.925 163.6063
352.231868 89.916 163.5912
354.784285 89.905 163.5841
357.355198 89.892 163.5872
359.944741 89.879 163.6020
362.553049 89.865 163.6290
365.180258 89.851 163.6672
367.826505 89.837 163.7144
370.491927 89.826 163.7667
373.176665 89.815 163.8204
375.880856 89.806 163.8719
378.604644 89.798 163.9183
381.348169 89.791 163.9580
384.111575 89.785 163.9902
386.895006 89.779 164.0150
389.698607 89.773 164.0330
392.522524 89.767 164.0451
395.366904 89.761 164.0522
398.231895 89.754 164.0553
401.117648 89.746 164.0551
404.024312 89.737 164.0527
406.952038 89.727 164.0489
409.900981 89.716 164.0442
412.871292 89.703 164.0392
415.863128 89.689 164.0341
418.876643 89.673 164.0290
421.911996 89.656 164.0239
424.969344 89.637 164.0190
428.048847 89.616 164.0145
431.150666 89.593 164.0104
434.274961 89.569 164.0069
437.421897 89.543 164.0043
440.591636 89.516 164.0025
443.784345 89.488 164.0013
447.000189 89.459 164.0005
450.239337 89.429 163.9998
453.501956 89.398 163.9984
456.788219 89.368 163.9962
460.098294 89.337 163.9930
463.432356 89.306 163.9886
466.790578 89.276 163.9832
470.173135 89.246 163.9764
473.580203 89.217 163.9684
477.011961 89.189 163.9590
480.468586 89.161 163.9480
483.950259 89.135 163.9354
487.457163 89.109 163.9213
490.989478 89.084 163.9057
494.547390 89.061 163.8887
498.131084 89.038 163.8705
501.740748 89.016 163.8512
505.376568 88.995 163.8308
509.038735 88.974 163.8092
512.727439 88.955 163.7863
516.442874 88.937 163.7621
520.185232 88.920 163.7365
523.954708 88.903 163.7101
527.751500 88.887 163.6842
531.575805 88.871 163.6609
535.427822 88.856 163.6434
539.307753 88.842 163.6354
543.215800 88.828 163.6409
547.152165 88.816 163.6633
551.117055 88.806 163.7043
555.110677 88.799 163.7634
559.133237 88.796 163.8373
563.184947 88.797 163.9207
567.266018 88.802 164.0074
571.376661 88.811 164.0914
575.517092 88.824 164.1683
579.687526 88.840 164.2349
583.888181 88.857 164.2900
588.119275 88.875 164.3335
592.381030 88.893 164.3665
596.673667 88.912 164.3906
600.997410 88.929 164.4078
605.352485 88.946 164.4203
609.739119 88.961 164.4297
614.157540 88.975 164.4376
618.607979 88.988 164.4449
623.090667 89.000 164.4525
627.605839 89.010 164.4605
632.153730 89.019 164.4689
636.734576 89.026 164.4771
641.348617 89.032 164.4840
645.996094 89.037 164.4889
650.677248 89.041 164.4910
655.392323 89.044 164.4899
660.141566 89.045 164.4855
664.925224 89.045 164.4781
669.743546 89.044 164.4681
674.596784 89.042 164.4559
679.485191 89.039 164.4421
684.409020 89.036 164.4266
689.368530 89.031 164.4095
694.363979 89.026 164.3901
699.395626 89.021 164.3678
704.463736 89.014 164.3420
709.568570 89.007 164.3124
714.710396 88.998 164.2788
719.889483 88.989 164.2415
725.106099 88.978 164.2008
730.360516 88.965 164.1573
735.653010 88.951 164.1111
740.983855 88.936 164.0625
746.353329 88.919 164.0114
751.761713 88.900 163.9576
757.209288 88.880 163.9011
762.696339 88.858 163.8417
768.223151 88.835 163.7792
773.790013 88.811 163.7136
779.397214 88.785 163.6449
785.045047 88.759 163.5734
790.733808 88.731 163.4995
796.463791 88.703 163.4233
802.235296 88.675 163.3450
808.048623 88.646 163.2642
813.904077 88.618 163.1801
819.801961 88.589 163.0921
825.742584 88.561 162.9998
831.726255 88.533 162.9025
837.753287 88.505 162.7999
843.823992 88.477 162.6917
849.938689 88.450 162.5781
856.097695 88.422 162.4596
862.301332 88.395 162.3373
868.549922 88.367 162.2126
874.843793 88.339 162.0869
881.183272 88.312 161.9617
887.568689 88.284 161.8383
894.000378 88.256 161.7175
900.478673 88.230 161.5996
907.003913 88.203 161.4847
913.576437 88.178 161.3723
920.196588 88.154 161.2617
926.864712 88.131 161.1520
933.581156 88.110 161.0425
940.346270 88.089 160.9324
947.160407 88.070 160.8215
954.023921 88.053 160.7099
960.937172 88.037 160.5980
967.900519 88.022 160.4865
974.914325 88.009 160.3762
981.978956 87.998 160.2675
989.094780 87.988 160.1606
996.262169 87.981 160.0551
1003.481495 87.976 159.9504
1010.753136 87.973 159.8458
1018.077470 87.972 159.7403
1025.454879 87.974 159.6328
1032.885748 87.977 159.5223
1040.370463 87.982 159.4080
1047.909417 87.989 159.2891
1055.503000 87.996 159.1655
1063.151610 88.004 159.0374
1070.855645 88.012 158.9059
1078.615506 88.019 158.7719
1086.431599 88.027 158.6370
1094.304330 88.033 158.5023
1102.234110 88.038 158.3690
1110.221353 88.042 158.2383
1118.266475 88.045 158.1110
1126.369895 88.046 157.9880
1134.532035 88.046 157.8698
1142.753322 88.044 157.7573
1151.034184 88.041 157.6513
1159.375052 88.036 157.5526
1167.776361 88.030 157.4621
1176.238550 88.022 157.3802
1184.762060 88.013 157.3073
1193.347334 88.003 157.2434
1201.994821 87.992 157.1888
1210.704971 87.980 157.1440
1219.478238 87.967 157.1092
1228.315080 87.954 157.0853
1237.215957 87.940 157.0729
1246.181334 87.925 157.0729
1255.211678 87.910 157.0861
1264.307459 87.895 157.1133
1273.469152 87.880 157.1550
1282.697235 87.865 157.2123
1291.992188 87.851 157.2860
1301.354495 87.836 157.3766
1310.784647 87.823 157.4842
1320.283132 87.811 157.6081
1329.850448 87.800 157.7469
1339.487093 87.790 157.8987
1349.193569 87.783 158.0613
1358.970381 87.777 158.2332
1368.818041 87.772 158.4127
1378.737061 87.770 158.5991
1388.727958 87.770 158.7920
1398.791253 87.771 158.9915
1408.927471 87.775 159.1977
1419.137140 87.781 159.4109
1429.420793 87.790 159.6313
1439.778965 87.801 159.8580
1450.212197 87.816 160.0903
1460.721033 87.833 160.3270
1471.306019 87.853 160.5668
1481.967709 87.875 160.8089
1492.706658 87.899 161.0527
1503.523426 87.924 161.2984
1514.418576 87.950 161.5472
1525.392678 87.976 161.8006
1536.446302 88.001 162.0606
1547.580025 88.026 162.3292
1558.794428 88.050 162.6082
1570.090095 88.072 162.8996
1581.467615 88.092 163.2054
1592.927581 88.111 163.5281
1604.470591 88.127 163.8701
1616.097246 88.143 164.2336
1627.808153 88.157 164.6203
1639.603922 88.171 165.0303
1651.485168 88.186 165.4618
1663.452510 88.202 165.9104
1675.506573 88.221 166.3699
1687.647984 88.242 166.8330
1699.877377 88.266 167.2919
1712.195390 88.293 167.7400
1724.602663 88.323 168.1715
1737.099845 88.354 168.5824
1749.687587 88.386 168.9700
1762.366544 88.420 169.3337
1775.137379 88.453 169.6739
1788.000756 88.487 169.9923
1800.957346 88.520 170.2913
1814.007826 88.552 170.5734
1827.152874 88.584 170.8407
1840.393177 88.615 171.0943
1853.729425 88.645 171.3340
1867.162312 88.675 171.5583
1880.692540 88.704 171.7651
1894.320813 88.733 171.9520
1908.047843 88.760 172.1169
1921.874344 88.786 172.2580
1935.801038 88.809 172.3738
1949.828650 88.830 172.4637
1963.957912 88.848 172.5280
1978.189561 88.863 172.5675
1992.524338 88.874 172.5839
2006.962991 88.880 172.5789
2021.506272 88.883 172.5549
2036.154940 88.883 172.5135
2050.909758 88.878 172.4562
2065.771495 88.870 172.3839
2080.740927 88.859 172.2970
2095.818833 88.845 172.1963
2111.006001 88.829 172.0826
2126.303220 88.809 171.9567
2141.711290 88.788 171.8196
2157.231013 88.764 171.6721
2172.863198 88.738 171.5148
2188.608660 88.710 171.3483
2204.468221 88.681 171.1728
2220.442706 88.650 170.9889
2236.532950 88.618 170.7979
2252.739789 88.583 170.6015
2269.064070 88.547 170.4020
2285.506644 88.510 170.2019
2302.068367 88.471 170.0034
2318.750104 88.432 169.8079
2335.552723 88.392 169.6156
2352.477101 88.353 169.4255
2369.524119 88.315 169.2356
2386.694668 88.278 169.0435
2403.989641 88.242 168.8467
2421.409941 88.208 168.6434
2438.956476 88.175 168.4321
2456.630160 88.144 168.2115
2474.431915 88.114 167.9807
2492.362668 88.085 167.7386
2510.423356 88.057 167.4844
2528.614918 88.030 167.2175
2546.938304 88.002 166.9382
2565.394469 87.975 166.6476
2583.984375 87.946 166.3481
2602.708991 87.915 166.0428
2621.569293 87.882 165.7358
2640.566265 87.846 165.4320
2659.700897 87.808 165.1364
2678.974186 87.766 164.8539
2698.387137 87.722 164.5899
2717.940763 87.674 164.3493
2737.636082 87.623 164.1371
2757.474121 87.569 163.9584
2777.455915 87.513 163.8180
2797.582506 87.454 163.7207
2817.854942 87.392 163.6711
2838.274281 87.329 163.6738
2858.841586 87.265 163.7331
2879.557931 87.199 163.8532
2900.424394 87.133 164.0380
2921.442065 87.067 164.2907
2942.612039 87.002 164.6140
2963.935418 86.939 165.0096
2985.413316 86.878 165.4786
3007.046852 86.820 166.0209
3028.837153 86.766 166.6359
3050.785356 86.717 167.3217
3072.892604 86.673 168.0751
3095.160050 86.636 168.8911
3117.588856 86.605 169.7625
3140.180190 86.583 170.6799
3162.935230 86.569 171.6318
3185.855163 86.565 172.6045
3208.941182 86.569 173.5824
3232.194493 86.583 174.5494
3255.616307 86.605 175.4890
3279.207844 86.635 176.3859
3302.970336 86.671 177.2269
3326.905021 86.713 178.0019
3351.013146 86.757 178.7041
3375.295969 86.803 179.3311
3399.754755 86.850 179.8835
3424.390779 86.895 -179.6352
3449.205326 86.940 -179.2198
3474.199690 86.984 -178.8656
3499.375173 87.027 -178.5690
3524.733088 87.070 -178.3289
3550.274757 87.113 -178.1471
3576.001511 87.158 -178.0280
3601.914692 87.205 -177.9779
3628.015651 87.253 -178.0032
3654.305748 87.301 -178.1094
3680.786354 87.348 -178.2995
3707.458849 87.393 -178.5733
3734.324624 87.434 -178.9269
3761.385080 87.469 -179.3530
3788.641627 87.497 -179.8413
3816.095686 87.517 179.6208
3843.748688 87.528 179.0473
3871.602076 87.529 178.4528
3899.657300 87.522 177.8518
3927.915825 87.505 177.2579
3956.379122 87.481 176.6830
3985.048676 87.450 176.1367
4013.925981 87.414 175.6264
4043.012544 87.373 175.1563
4072.309879 87.329 174.7283
4101.819515 87.283 174.3419
4131.542990 87.236 173.9948
4161.481854 87.187 173.6836
4191.637667 87.137 173.4042
4222.012001 87.085 173.1528
4252.606441 87.032 172.9259
4283.422580 86.975 172.7215
4314.462026 86.914 172.5382
4345.726396 86.849 172.3762
4377.217321 86.778 172.2365
4408.936442 86.701 172.1210
4440.885413 86.616 172.0327
4473.065899 86.524 171.9753
4505.479579 86.423 171.9533
4538.128141 86.314 171.9724
4571.013288 86.196 172.0389
4604.136735 86.069 172.1611
4637.500207 85.934 172.3479
4671.105446 85.791 172.6095
4704.954201 85.640 172.9571
4739.048239 85.485 173.4019
4773.389336 85.325 173.9547
4807.979283 85.165 174.6254
4842.819883 85.006 175.4214
4877.912952 84.852 176.3478
4913.260320 84.708 177.4055
4948.863830 84.576 178.5915
4984.725337 84.461 179.8980
5020.846712 84.367 -178.6875
5057.229836 84.298 -177.1817
5093.876609 84.255 -175.6054
5130.788938 84.243 -173.9827
5167.968750 84.263 -172.3398
5205.417982 84.315 -170.7047
5243.138586 84.400 -169.1053
5281.132530 84.517 -167.5692
5319.401793 84.663 -166.1219
5357.948371 84.836 -164.7869
5396.774274 85.033 -163.5840
5435.881525 85.250 -162.5300
5475.272163 85.484 -161.6374
5514.948243 85.729 -160.9150
5554.911831 85.983 -160.3674
5595.165012 86.240 -159.9952
5635.709884 86.496 -159.7954
5676.548561 86.747 -159.7607
5717.683172 86.991 -159.8801
5759.115861 87.222 -160.1386
5800.848789 87.440 -160.5177
5842.884130 87.641 -160.9956
5885.224077 87.824 -161.5480
5927.870837 87.989 -162.1489
5970.826633 88.136 -162.7715
6014.093704 88.266 -163.3896
6057.674306 88.380 -163.9784
6101.570711 88.483 -164.5161
6145.785208 88.578 -164.9850
6190.320101 88.668 -165.3727
6235.177712 88.760 -165.6728
6280.360380 88.859 -165.8859
6325.870460 88.969 -166.0201
6371.710325 89.097 -166.0914
6417.882365 89.247 -166.1241
6464.388986 89.424 -166.1508
6511.232613 89.630 -166.2117
6558.415689 89.867 -166.3542
6605.940673 90.134 -166.6303
6653.810042 90.429 -167.0939
6702.026292 90.746 -167.7972
6750.591937 91.080 -168.7869
6799.509509 91.421 -170.1005
6848.781558 91.762 -171.7644
6898.410653 92.091 -173.7919
6948.399380 92.401 -176.1843
6998.750346 92.682 -178.9309
7049.466176 92.927 177.9882
7100.549514 93.130 174.6010
7152.003023 93.284 170.9406
7203.829385 93.386 167.0446
7256.031302 93.432 162.9520
7308.611496 93.420 158.7029
7361.572708 93.349 154.3365
7414.917698 93.218 149.8901
7468.649249 93.029 145.3981
7522.770160 92.781 140.8907
7577.283253 92.478 136.3933
7632.191371 92.122 131.9253
7687.497376 91.715 127.4996
7743.204151 91.261 123.1219
7799.314600 90.763 118.7903
7855.831649 90.225 114.4949
7912.758244 89.650 110.2178
7970.097352 89.041 105.9328
8027.851962 88.403 101.6040
8086.025087 87.738 97.1848
8144.619758 87.050 92.6149
8203.639030 86.343 87.8156
8263.085980 85.623 82.6826
8322.963708 84.894 77.0757
8383.275334 84.166 70.8006
8444.024002 83.448 63.5852
8505.212881 82.754 55.0474
8566.845160 82.099 44.6699
8628.924051 81.501 31.8460
8691.452792 80.980 16.1644
8754.434642 80.556 -1.9228
8817.872884 80.247 -20.6063
8881.770826 80.062 -37.6383
8946.131799 80.003 -51.8579
9010.959157 80.062 -63.3380
9076.256282 80.225 -72.6583
9142.026576 80.470 -80.4144
9208.273470 80.775 -87.0741
9275.000415 81.119 -92.9777
9342.210891 81.480 -98.3683
9409.908403 81.844 -103.4191
9478.096478 82.197 -108.2536
9546.778672 82.527 -112.9583
9615.958566 82.826 -117.5922
9685.639765 83.089 -122.1931
9755.825904 83.311 -126.7838
9826.520640 83.490 -131.3759
9897.727659 83.626 -135.9746
9969.450674 83.717 -140.5819
10041.693423 83.764 -145.1979
10114.459673 83.768 -149.8219
10187.753217 83.728 -154.4530
10261.577877 83.644 -159.0881
10335.937500 83.515 -163.7220
10410.835964 83.341 -168.3467
10486.277173 83.120 -172.9517
10562.265060 82.853 -177.5247
10638.803587 82.540 177.9464
10715.896743 82.182 173.4733
10793.548548 81.778 169.0662
10871.763050 81.331 164.7343
10950.544327 80.840 160.4868
11029.896485 80.307 156.3343
11109.823662 79.732 152.2893
11190.330024 79.115 148.3669
11271.419768 78.456 144.5839
11353.097122 77.757 140.9583
11435.366344 77.017 137.5059
11518.231722 76.240 134.2385
11601.697577 75.427 131.1594
11685.768261 74.583 128.2596
11770.448155 73.714 125.5148
11855.741674 72.825 122.8821
11941.653265 71.924 120.3003
12028.187408 71.022 117.6923
12115.348612 70.127 114.9716
12203.141422 69.252 112.0529
12291.570415 68.410 108.8632
12380.640201 67.615 105.3527
12470.355424 66.884 101.5035
12560.720760 66.241 97.3311
12651.740920 65.715 92.8820
12743.420650 65.340 88.2251
12835.764729 65.148 83.4396
12928.777972 65.163 78.6013
13022.465227 65.389 73.7701
13116.831378 65.807 68.9818
13211.881345 66.381 64.2438
13307.620084 67.068 59.5383
13404.052584 67.825 54.8274
13501.183875 68.615 50.0609
13599.019019 69.412 45.1850
13697.563116 70.192 40.1501
13796.821305 70.937 34.9168
13896.798760 71.635 29.4599
13997.500692 72.275 23.7709
14098.932352 72.850 17.8589
14201.099028 73.352 11.7497
14304.006046 73.781 5.4834
14407.658770 74.138 -0.8898
14512.062604 74.427 -7.3161
14617.222992 74.658 -13.7466
14723.145416 74.840 -20.1454
14829.835397 74.986 -26.4953
14937.298497 75.108 -32.8017
15045.540320 75.212 -39.0900
15154.566507 75.301 -45.3995
15264.382743 75.371 -51.7714
15374.994752 75.410 -58.2356
15486.408302 75.406 -64.8018
15598.629201 75.346 -71.4548
15711.663298 75.220 -78.1580
15825.516487 75.024 -84.8641
15940.194703 74.757 -91.5275
16055.703925 74.424 -98.1155
16172.050174 74.033 -104.6115
16289.239516 73.594 -111.0155
16407.278061 73.114 -117.3376
16526.171961 72.602 -123.5936
16645.927415 72.064 -129.7991
16766.550667 71.504 -135.9690
16888.048005 70.929 -142.1180
17010.425762 70.342 -148.2620
17133.690320 69.748 -154.4205
17257.848103 69.155 -160.6201
17382.905584 68.568 -166.8932
17508.869284 67.997 -173.2786
17635.745768 67.447 -179.8196
17763.541652 66.928 173.4385
17892.263597 66.445 166.4496
18021.918315 66.005 159.1678
18152.512564 65.612 151.5461
18284.053153 65.268 143.5308
18416.546939 64.976 135.0547
18550.000830 64.735 126.0247
18684.421783 64.542 116.3108
18819.816805 64.388 105.7349
18956.192956 64.265 94.0681
19093.557344 64.163 81.0758
19231.917131 64.070 66.6719
19371.279531 63.983 51.2535
19511.651807 63.899 36.0377
19653.041280 63.823 22.8649
19795.455318 63.765 13.3810
19938.901348 63.732 8.4888
