* Measurement data measured by REW V5.31.3
* Source: EXCL: Headset (USB-C to 3.5mm Headphone Jack Adapter), MICROPHONE (Master Volume), 0, volume: 0.750
* Format: 256k Log Swept Sine, 1 sweep at -12.0 dBFS with no timing reference
* Dated: Apr 1, 2025 10:31:39 PM
* REW Settings:
*  C-weighting compensation: Off
*  Target level: 75.0 dB
* Note: ; 
* Measurement: Satyr 3 (Massive Mod) L9
* Smoothing: 1/6 octave
* Frequency Step: 96 ppo
* Start Frequency: 20.0 Hz
*
* Freq(Hz) SPL(dB) Phase(degrees)
20.187378 87.766 -111.3012
20.333664 87.793 -111.4808
20.481010 87.830 -111.7203
20.629424 87.874 -112.0112
20.778913 87.925 -112.3438
20.929486 87.983 -112.7078
21.081150 88.045 -113.0933
21.233912 88.113 -113.4910
21.387782 88.184 -113.8932
21.542767 88.259 -114.2936
21.698874 88.338 -114.6880
21.856113 88.420 -115.0746
22.014492 88.506 -115.4536
22.174018 88.594 -115.8272
22.334700 88.684 -116.1992
22.496546 88.776 -116.5744
22.659566 88.867 -116.9577
22.823766 88.958 -117.3540
22.989157 89.045 -117.7670
23.155745 89.129 -118.1987
23.323542 89.208 -118.6497
23.492554 89.281 -119.1189
23.662790 89.348 -119.6033
23.834261 89.407 -120.0992
24.006973 89.460 -120.6020
24.180938 89.506 -121.1072
24.356163 89.546 -121.6108
24.532658 89.582 -122.1097
24.710431 89.614 -122.6017
24.889493 89.642 -123.0858
25.069853 89.669 -123.5620
25.251519 89.693 -124.0308
25.434502 89.716 -124.4932
25.618811 89.738 -124.9499
25.804456 89.759 -125.4013
25.991445 89.778 -125.8471
26.179790 89.796 -126.2869
26.369500 89.813 -126.7195
26.560584 89.828 -127.1441
26.753053 89.842 -127.5598
26.946917 89.854 -127.9667
27.142185 89.867 -128.3654
27.338869 89.879 -128.7577
27.536977 89.892 -129.1461
27.736522 89.905 -129.5339
27.937512 89.920 -129.9246
28.139959 89.936 -130.3217
28.343872 89.953 -130.7284
28.549264 89.972 -131.1472
28.756143 89.991 -131.5797
28.964522 90.012 -132.0267
29.174411 90.033 -132.4880
29.385821 90.056 -132.9629
29.598763 90.079 -133.4495
29.813248 90.104 -133.9459
30.029287 90.130 -134.4495
30.246891 90.158 -134.9573
30.466073 90.187 -135.4663
30.686842 90.219 -135.9732
30.909212 90.254 -136.4748
31.133193 90.291 -136.9681
31.358797 90.332 -137.4504
31.586035 90.377 -137.9197
31.814921 90.425 -138.3743
32.045465 90.476 -138.8136
32.277680 90.532 -139.2376
32.511577 90.590 -139.6470
32.747169 90.652 -140.0433
32.984469 90.716 -140.4283
33.223488 90.783 -140.8045
33.464239 90.851 -141.1745
33.706735 90.921 -141.5409
33.950987 90.993 -141.9064
34.197010 91.065 -142.2734
34.444816 91.137 -142.6436
34.694417 91.210 -143.0182
34.945827 91.283 -143.3974
35.199059 91.356 -143.7807
35.454126 91.428 -144.1665
35.711041 91.500 -144.5527
35.969818 91.570 -144.9369
36.230470 91.639 -145.3166
36.493011 91.706 -145.6896
36.757455 91.771 -146.0543
37.023814 91.834 -146.4096
37.292104 91.895 -146.7554
37.562338 91.953 -147.0920
37.834530 92.008 -147.4205
38.108695 92.061 -147.7423
38.384846 92.112 -148.0592
38.662999 92.161 -148.3733
38.943167 92.209 -148.6868
39.225365 92.256 -149.0022
39.509608 92.303 -149.3215
39.795911 92.350 -149.6469
40.084289 92.397 -149.9797
40.374756 92.445 -150.3210
40.667328 92.494 -150.6712
40.962020 92.543 -151.0302
41.258848 92.593 -151.3977
41.557827 92.643 -151.7734
41.858972 92.693 -152.1569
42.162299 92.744 -152.5478
42.467824 92.795 -152.9456
42.775564 92.845 -153.3495
43.085533 92.895 -153.7583
43.397749 92.944 -154.1707
43.712227 92.993 -154.5845
44.028983 93.040 -154.9980
44.348036 93.087 -155.4091
44.669400 93.132 -155.8165
44.993093 93.175 -156.2192
45.319131 93.217 -156.6170
45.647532 93.256 -157.0105
45.978313 93.293 -157.4005
46.311491 93.328 -157.7886
46.647083 93.360 -158.1768
46.985107 93.389 -158.5672
47.325581 93.416 -158.9619
47.668521 93.440 -159.3627
48.013947 93.463 -159.7712
48.361876 93.482 -160.1880
48.712326 93.500 -160.6132
49.065315 93.515 -161.0465
49.420863 93.529 -161.4874
49.778987 93.540 -161.9352
50.139706 93.550 -162.3895
50.503039 93.558 -162.8497
50.869005 93.564 -163.3154
51.237623 93.569 -163.7854
51.608912 93.573 -164.2584
51.982891 93.575 -164.7323
52.359580 93.576 -165.2051
52.739000 93.575 -165.6746
53.121168 93.573 -166.1396
53.506106 93.570 -166.5991
53.893833 93.566 -167.0534
54.284370 93.561 -167.5031
54.677737 93.556 -167.9493
55.073955 93.550 -168.3939
55.473043 93.544 -168.8385
55.875024 93.539 -169.2853
56.279917 93.533 -169.7366
56.687745 93.528 -170.1944
57.098527 93.523 -170.6603
57.512287 93.520 -171.1353
57.929045 93.518 -171.6185
58.348822 93.517 -172.1075
58.771642 93.518 -172.5979
59.197525 93.521 -173.0835
59.626495 93.525 -173.5578
60.058573 93.531 -174.0152
60.493782 93.539 -174.4522
60.932145 93.548 -174.8681
61.373685 93.560 -175.2653
61.818424 93.573 -175.6480
62.266386 93.587 -176.0214
62.717593 93.603 -176.3907
63.172071 93.621 -176.7601
63.629842 93.641 -177.1326
64.090930 93.661 -177.5100
64.555359 93.683 -177.8930
65.023154 93.705 -178.2814
65.494339 93.727 -178.6743
65.968938 93.749 -179.0705
66.446976 93.770 -179.4688
66.928478 93.791 -179.8676
67.413469 93.810 179.7343
67.901975 93.829 179.3378
68.394021 93.846 178.9436
68.889632 93.861 178.5515
69.388835 93.875 178.1613
69.891655 93.886 177.7723
70.398118 93.896 177.3842
70.908252 93.903 176.9967
71.422083 93.907 176.6103
71.939636 93.910 176.2256
72.460941 93.909 175.8436
72.986023 93.906 175.4653
73.514909 93.900 175.0914
74.047629 93.892 174.7221
74.584208 93.881 174.3574
75.124676 93.867 173.9969
75.669061 93.850 173.6401
76.217390 93.830 173.2862
76.769692 93.807 172.9344
77.325997 93.783 172.5840
77.886333 93.756 172.2348
78.450730 93.727 171.8866
79.019216 93.696 171.5396
79.591822 93.665 171.1941
80.168577 93.633 170.8504
80.749512 93.600 170.5087
81.334656 93.567 170.1693
81.924040 93.534 169.8324
82.517696 93.501 169.4982
83.115653 93.469 169.1671
83.717943 93.436 168.8389
84.324598 93.404 168.5135
84.935649 93.371 168.1907
85.551128 93.338 167.8700
86.171066 93.305 167.5515
86.795497 93.271 167.2352
87.424453 93.237 166.9216
88.057967 93.202 166.6112
88.696071 93.167 166.3045
89.338800 93.132 166.0016
89.986185 93.096 165.7030
90.638262 93.060 165.4086
91.295065 93.024 165.1186
91.956626 92.988 164.8333
92.622982 92.951 164.5526
93.294166 92.914 164.2762
93.970214 92.877 164.0040
94.651161 92.841 163.7355
95.337042 92.804 163.4702
96.027894 92.767 163.2079
96.723752 92.731 162.9484
97.424652 92.695 162.6918
98.130631 92.659 162.4382
98.841726 92.624 162.1877
99.557974 92.589 161.9406
100.279412 92.555 161.6966
101.006078 92.522 161.4557
101.738010 92.489 161.2178
102.475245 92.458 160.9828
103.217823 92.428 160.7505
103.965782 92.398 160.5208
104.719161 92.370 160.2936
105.477999 92.343 160.0686
106.242336 92.317 159.8455
107.012212 92.292 159.6242
107.787666 92.268 159.4048
108.568740 92.245 159.1877
109.355474 92.223 158.9733
110.147909 92.202 158.7619
110.946086 92.182 158.5538
111.750047 92.163 158.3488
112.559834 92.144 158.1469
113.375489 92.126 157.9479
114.197055 92.108 157.7518
115.024574 92.090 157.5584
115.858089 92.073 157.3676
116.697645 92.055 157.1791
117.543284 92.038 156.9930
118.395051 92.021 156.8090
119.252990 92.003 156.6271
120.117147 91.985 156.4471
120.987565 91.966 156.2686
121.864291 91.947 156.0910
122.747370 91.927 155.9132
123.636848 91.906 155.7344
124.532771 91.885 155.5538
125.435187 91.863 155.3708
126.344142 91.840 155.1858
127.259684 91.815 154.9994
128.181860 91.790 154.8131
129.110718 91.763 154.6287
130.046308 91.735 154.4482
130.988677 91.705 154.2740
131.937875 91.674 154.1079
132.893951 91.640 153.9516
133.856956 91.605 153.8064
134.826938 91.569 153.6731
135.803950 91.531 153.5522
136.788041 91.492 153.4439
137.779264 91.453 153.3480
138.777669 91.414 153.2639
139.783309 91.375 153.1901
140.796237 91.336 153.1247
141.816504 91.298 153.0654
142.844165 91.260 153.0098
143.879273 91.223 152.9550
144.921881 91.187 152.8989
145.972045 91.153 152.8392
147.029819 91.118 152.7747
148.095257 91.084 152.7046
149.168417 91.051 152.6287
150.249353 91.017 152.5475
151.338121 90.982 152.4620
152.434780 90.947 152.3735
153.539385 90.911 152.2837
154.651995 90.875 152.1946
155.772667 90.837 152.1079
156.901460 90.798 152.0258
158.038432 90.759 151.9499
159.183644 90.720 151.8821
160.337154 90.680 151.8240
161.499023 90.640 151.7770
162.669312 90.600 151.7424
163.848081 90.561 151.7211
165.035392 90.522 151.7137
166.231306 90.485 151.7205
167.435887 90.449 151.7411
168.649196 90.415 151.7745
169.871298 90.383 151.8195
171.102255 90.354 151.8738
172.342133 90.328 151.9352
173.590995 90.304 152.0012
174.848907 90.283 152.0689
176.115934 90.265 152.1357
177.392143 90.249 152.1987
178.677599 90.235 152.2553
179.972371 90.224 152.3032
181.276525 90.214 152.3406
182.590129 90.206 152.3661
183.913252 90.199 152.3788
185.245964 90.193 152.3781
186.588332 90.187 152.3639
187.940428 90.180 152.3360
189.302322 90.174 152.2945
190.674085 90.167 152.2396
192.055788 90.159 152.1713
193.447503 90.150 152.0902
194.849303 90.140 151.9966
196.261262 90.128 151.8918
197.683452 90.114 151.7767
199.115948 90.100 151.6531
200.558824 90.084 151.5222
202.012156 90.068 151.3856
203.476019 90.050 151.2447
204.950490 90.031 151.1010
206.435646 90.012 150.9561
207.931564 89.992 150.8118
209.438322 89.971 150.6696
210.955998 89.950 150.5305
212.484672 89.928 150.3956
214.024424 89.907 150.2653
215.575333 89.886 150.1400
217.137481 89.865 150.0200
218.710948 89.845 149.9051
220.295818 89.825 149.7949
221.892172 89.806 149.6888
223.500094 89.788 149.5863
225.119668 89.772 149.4867
226.750978 89.756 149.3896
228.394109 89.741 149.2948
230.049147 89.728 149.2021
231.716178 89.715 149.1115
233.395289 89.704 149.0227
235.086567 89.694 148.9355
236.790102 89.685 148.8499
238.505980 89.677 148.7656
240.234293 89.670 148.6826
241.975130 89.664 148.6011
243.728581 89.659 148.5210
245.494739 89.654 148.4423
247.273695 89.650 148.3651
249.065542 89.647 148.2892
250.870374 89.644 148.2143
252.688284 89.641 148.1401
254.519367 89.638 148.0663
256.363720 89.635 147.9926
258.221437 89.632 147.9189
260.092616 89.628 147.8455
261.977354 89.624 147.7728
263.875750 89.620 147.7012
265.787903 89.616 147.6315
267.713911 89.611 147.5639
269.653877 89.606 147.4988
271.607900 89.601 147.4361
273.576083 89.596 147.3760
275.558528 89.592 147.3185
277.555338 89.587 147.2635
279.566619 89.584 147.2112
281.592474 89.580 147.1612
283.633009 89.578 147.1133
285.688331 89.575 147.0673
287.758546 89.574 147.0229
289.843763 89.573 146.9799
291.944090 89.574 146.9375
294.059638 89.575 146.8951
296.190515 89.576 146.8522
298.336833 89.578 146.8085
300.498705 89.581 146.7640
302.676243 89.585 146.7191
304.869559 89.588 146.6747
307.078770 89.593 146.6312
309.303989 89.598 146.5893
311.545334 89.603 146.5493
313.802919 89.610 146.5114
316.076865 89.617 146.4752
318.367288 89.624 146.4406
320.674309 89.632 146.4070
322.998047 89.641 146.3737
325.338624 89.649 146.3402
327.696162 89.658 146.3056
330.070783 89.667 146.2692
332.462612 89.675 146.2305
334.871773 89.683 146.1887
337.298392 89.690 146.1435
339.742595 89.697 146.0947
342.204510 89.703 146.0425
344.684265 89.709 145.9874
347.181989 89.713 145.9302
349.697813 89.716 145.8716
352.231868 89.719 145.8123
354.784285 89.720 145.7527
357.355198 89.720 145.6931
359.944741 89.719 145.6335
362.553049 89.716 145.5739
365.180258 89.713 145.5140
367.826505 89.709 145.4537
370.491927 89.704 145.3928
373.176665 89.699 145.3310
375.880856 89.693 145.2683
378.604644 89.686 145.2047
381.348169 89.679 145.1400
384.111575 89.672 145.0742
386.895006 89.664 145.0074
389.698607 89.656 144.9394
392.522524 89.648 144.8703
395.366904 89.639 144.8005
398.231895 89.630 144.7303
401.117648 89.621 144.6605
404.024312 89.611 144.5917
406.952038 89.600 144.5245
409.900981 89.588 144.4592
412.871292 89.575 144.3961
415.863128 89.560 144.3355
418.876643 89.545 144.2776
421.911996 89.528 144.2227
424.969344 89.510 144.1708
428.048847 89.491 144.1217
431.150666 89.471 144.0748
434.274961 89.449 144.0291
437.421897 89.427 143.9836
440.591636 89.404 143.9371
443.784345 89.380 143.8886
447.000189 89.355 143.8379
450.239337 89.331 143.7847
453.501956 89.306 143.7292
456.788219 89.280 143.6719
460.098294 89.255 143.6128
463.432356 89.229 143.5520
466.790578 89.204 143.4896
470.173135 89.179 143.4254
473.580203 89.155 143.3599
477.011961 89.131 143.2932
480.468586 89.108 143.2258
483.950259 89.085 143.1581
487.457163 89.064 143.0903
490.989478 89.044 143.0229
494.547390 89.025 142.9560
498.131084 89.008 142.8898
501.740748 88.991 142.8248
505.376568 88.977 142.7609
509.038735 88.963 142.6985
512.727439 88.952 142.6372
516.442874 88.942 142.5768
520.185232 88.935 142.5165
523.954708 88.930 142.4560
527.751500 88.927 142.3945
531.575805 88.926 142.3318
535.427822 88.927 142.2676
539.307753 88.931 142.2021
543.215800 88.937 142.1353
547.152165 88.944 142.0676
551.117055 88.954 141.9990
555.110677 88.966 141.9297
559.133237 88.980 141.8594
563.184947 88.997 141.7879
567.266018 89.015 141.7145
571.376661 89.034 141.6389
575.517092 89.055 141.5607
579.687526 89.078 141.4800
583.888181 89.101 141.3970
588.119275 89.124 141.3123
592.381030 89.148 141.2266
596.673667 89.172 141.1407
600.997410 89.195 141.0550
605.352485 89.219 140.9697
609.739119 89.242 140.8846
614.157540 89.265 140.7993
618.607979 89.287 140.7127
623.090667 89.308 140.6240
627.605839 89.329 140.5323
632.153730 89.348 140.4365
636.734576 89.367 140.3355
641.348617 89.385 140.2285
645.996094 89.402 140.1144
650.677248 89.418 139.9929
655.392323 89.432 139.8636
660.141566 89.445 139.7267
664.925224 89.457 139.5826
669.743546 89.467 139.4320
674.596784 89.476 139.2762
679.485191 89.483 139.1161
684.409020 89.489 138.9532
689.368530 89.494 138.7884
694.363979 89.497 138.6224
699.395626 89.499 138.4556
704.463736 89.499 138.2882
709.568570 89.499 138.1200
714.710396 89.497 137.9510
719.889483 89.494 137.7810
725.106099 89.489 137.6098
730.360516 89.484 137.4370
735.653010 89.477 137.2621
740.983855 89.470 137.0838
746.353329 89.461 136.9013
751.761713 89.452 136.7138
757.209288 89.441 136.5208
762.696339 89.428 136.3223
768.223151 89.415 136.1185
773.790013 89.400 135.9092
779.397214 89.385 135.6944
785.045047 89.368 135.4737
790.733808 89.350 135.2471
796.463791 89.332 135.0145
802.235296 89.313 134.7760
808.048623 89.294 134.5319
813.904077 89.274 134.2827
819.801961 89.255 134.0287
825.742584 89.235 133.7703
831.726255 89.215 133.5078
837.753287 89.195 133.2408
843.823992 89.176 132.9696
849.938689 89.156 132.6940
856.097695 89.137 132.4141
862.301332 89.119 132.1301
868.549922 89.101 131.8419
874.843793 89.083 131.5489
881.183272 89.066 131.2504
887.568689 89.049 130.9453
894.000378 89.033 130.6332
900.478673 89.016 130.3137
907.003913 89.000 129.9877
913.576437 88.983 129.6566
920.196588 88.966 129.3226
926.864712 88.948 128.9882
933.581156 88.930 128.6556
940.346270 88.913 128.3266
947.160407 88.896 128.0020
954.023921 88.880 127.6816
960.937172 88.866 127.3643
967.900519 88.854 127.0485
974.914325 88.844 126.7322
981.978956 88.836 126.4133
989.094780 88.830 126.0903
996.262169 88.825 125.7620
1003.481495 88.822 125.4283
1010.753136 88.819 125.0899
1018.077470 88.817 124.7482
1025.454879 88.816 124.4054
1032.885748 88.815 124.0631
1040.370463 88.814 123.7229
1047.909417 88.814 123.3854
1055.503000 88.814 123.0506
1063.151610 88.815 122.7179
1070.855645 88.815 122.3865
1078.615506 88.815 122.0560
1086.431599 88.815 121.7261
1094.304330 88.814 121.3970
1102.234110 88.812 121.0697
1110.221353 88.809 120.7455
1118.266475 88.804 120.4259
1126.369895 88.797 120.1124
1134.532035 88.788 119.8059
1142.753322 88.778 119.5067
1151.034184 88.766 119.2148
1159.375052 88.752 118.9305
1167.776361 88.737 118.6545
1176.238550 88.719 118.3883
1184.762060 88.699 118.1345
1193.347334 88.678 117.8957
1201.994821 88.655 117.6742
1210.704971 88.632 117.4713
1219.478238 88.608 117.2867
1228.315080 88.584 117.1190
1237.215957 88.562 116.9654
1246.181334 88.540 116.8228
1255.211678 88.519 116.6883
1264.307459 88.498 116.5603
1273.469152 88.478 116.4388
1282.697235 88.457 116.3247
1291.992188 88.436 116.2195
1301.354495 88.415 116.1246
1310.784647 88.393 116.0405
1320.283132 88.372 115.9671
1329.850448 88.350 115.9041
1339.487093 88.328 115.8514
1349.193569 88.305 115.8100
1358.970381 88.283 115.7808
1368.818041 88.261 115.7652
1378.737061 88.239 115.7637
1388.727958 88.218 115.7762
1398.791253 88.198 115.8024
1408.927471 88.179 115.8421
1419.137140 88.162 115.8953
1429.420793 88.147 115.9629
1439.778965 88.133 116.0455
1450.212197 88.122 116.1442
1460.721033 88.112 116.2592
1471.306019 88.106 116.3906
1481.967709 88.102 116.5371
1492.706658 88.100 116.6965
1503.523426 88.101 116.8663
1514.418576 88.103 117.0445
1525.392678 88.106 117.2309
1536.446302 88.109 117.4273
1547.580025 88.111 117.6375
1558.794428 88.111 117.8657
1570.090095 88.111 118.1158
1581.467615 88.109 118.3896
1592.927581 88.107 118.6870
1604.470591 88.105 119.0060
1616.097246 88.102 119.3439
1627.808153 88.100 119.6970
1639.603922 88.097 120.0620
1651.485168 88.094 120.4360
1663.452510 88.090 120.8173
1675.506573 88.086 121.2058
1687.647984 88.081 121.6027
1699.877377 88.076 122.0104
1712.195390 88.071 122.4309
1724.602663 88.066 122.8654
1737.099845 88.063 123.3132
1749.687587 88.062 123.7721
1762.366544 88.064 124.2383
1775.137379 88.070 124.7072
1788.000756 88.079 125.1731
1800.957346 88.091 125.6301
1814.007826 88.107 126.0725
1827.152874 88.125 126.4959
1840.393177 88.144 126.8976
1853.729425 88.165 127.2767
1867.162312 88.185 127.6347
1880.692540 88.205 127.9743
1894.320813 88.223 128.2988
1908.047843 88.241 128.6116
1921.874344 88.257 128.9152
1935.801038 88.273 129.2104
1949.828650 88.290 129.4958
1963.957912 88.307 129.7672
1978.189561 88.324 130.0182
1992.524338 88.343 130.2416
2006.962991 88.362 130.4312
2021.506272 88.381 130.5826
2036.154940 88.398 130.6937
2050.909758 88.414 130.7646
2065.771495 88.427 130.7969
2080.740927 88.437 130.7930
2095.818833 88.443 130.7567
2111.006001 88.446 130.6924
2126.303220 88.444 130.6050
2141.711290 88.438 130.4994
2157.231013 88.429 130.3798
2172.863198 88.416 130.2495
2188.608660 88.400 130.1110
2204.468221 88.382 129.9664
2220.442706 88.361 129.8174
2236.532950 88.339 129.6650
2252.739789 88.315 129.5094
2269.064070 88.290 129.3508
2285.506644 88.264 129.1892
2302.068367 88.237 129.0247
2318.750104 88.209 128.8571
2335.552723 88.181 128.6866
2352.477101 88.152 128.5132
2369.524119 88.122 128.3384
2386.694668 88.091 128.1642
2403.989641 88.060 127.9931
2421.409941 88.029 127.8270
2438.956476 87.998 127.6673
2456.630160 87.968 127.5149
2474.431915 87.939 127.3698
2492.362668 87.912 127.2311
2510.423356 87.888 127.0964
2528.614918 87.866 126.9626
2546.938304 87.847 126.8258
2565.394469 87.831 126.6824
2583.984375 87.816 126.5293
2602.708991 87.803 126.3645
2621.569293 87.790 126.1877
2640.566265 87.776 126.0005
2659.700897 87.760 125.8061
2678.974186 87.742 125.6097
2698.387137 87.720 125.4185
2717.940763 87.694 125.2404
2737.636082 87.664 125.0843
2757.474121 87.629 124.9590
2777.455915 87.592 124.8724
2797.582506 87.551 124.8311
2817.854942 87.507 124.8411
2838.274281 87.462 124.9068
2858.841586 87.416 125.0319
2879.557931 87.369 125.2197
2900.424394 87.323 125.4727
2921.442065 87.277 125.7938
2942.612039 87.233 126.1852
2963.935418 87.192 126.6489
2985.413316 87.153 127.1857
3007.046852 87.120 127.7946
3028.837153 87.091 128.4727
3050.785356 87.069 129.2141
3072.892604 87.054 130.0103
3095.160050 87.048 130.8500
3117.588856 87.050 131.7195
3140.180190 87.060 132.6030
3162.935230 87.078 133.4837
3185.855163 87.103 134.3447
3208.941182 87.134 135.1704
3232.194493 87.169 135.9484
3255.616307 87.206 136.6705
3279.207844 87.241 137.3340
3302.970336 87.273 137.9415
3326.905021 87.301 138.5013
3351.013146 87.323 139.0259
3375.295969 87.338 139.5301
3399.754755 87.347 140.0289
3424.390779 87.353 140.5352
3449.205326 87.356 141.0571
3474.199690 87.361 141.5967
3499.375173 87.370 142.1483
3524.733088 87.387 142.6989
3550.274757 87.413 143.2290
3576.001511 87.450 143.7145
3601.914692 87.498 144.1301
3628.015651 87.557 144.4518
3654.305748 87.624 144.6605
3680.786354 87.696 144.7436
3707.458849 87.770 144.6960
3734.324624 87.842 144.5208
3761.385080 87.907 144.2277
3788.641627 87.965 143.8322
3816.095686 88.011 143.3533
3843.748688 88.044 142.8121
3871.602076 88.064 142.2298
3899.657300 88.071 141.6267
3927.915825 88.065 141.0210
3956.379122 88.048 140.4279
3985.048676 88.019 139.8596
4013.925981 87.981 139.3252
4043.012544 87.934 138.8313
4072.309879 87.879 138.3824
4101.819515 87.818 137.9818
4131.542990 87.750 137.6318
4161.481854 87.675 137.3348
4191.637667 87.594 137.0933
4222.012001 87.506 136.9101
4252.606441 87.412 136.7886
4283.422580 87.311 136.7329
4314.462026 87.203 136.7474
4345.726396 87.088 136.8366
4377.217321 86.967 137.0051
4408.936442 86.839 137.2567
4440.885413 86.706 137.5948
4473.065899 86.568 138.0218
4505.479579 86.427 138.5388
4538.128141 86.282 139.1464
4571.013288 86.135 139.8448
4604.136735 85.986 140.6343
4637.500207 85.838 141.5155
4671.105446 85.690 142.4897
4704.954201 85.544 143.5587
4739.048239 85.402 144.7242
4773.389336 85.266 145.9878
4807.979283 85.137 147.3498
4842.819883 85.019 148.8092
4877.912952 84.913 150.3629
4913.260320 84.823 152.0046
4948.863830 84.751 153.7249
4984.725337 84.701 155.5107
5020.846712 84.674 157.3458
5057.229836 84.672 159.2105
5093.876609 84.698 161.0829
5130.788938 84.751 162.9396
5167.968750 84.832 164.7566
5205.417982 84.940 166.5103
5243.138586 85.074 168.1787
5281.132530 85.232 169.7414
5319.401793 85.410 171.1808
5357.948371 85.607 172.4824
5396.774274 85.819 173.6345
5435.881525 86.043 174.6293
5475.272163 86.273 175.4617
5514.948243 86.508 176.1301
5554.911831 86.744 176.6356
5595.165012 86.976 176.9823
5635.709884 87.201 177.1772
5676.548561 87.417 177.2303
5717.683172 87.619 177.1546
5759.115861 87.807 176.9657
5800.848789 87.977 176.6815
5842.884130 88.127 176.3217
5885.224077 88.257 175.9071
5927.870837 88.366 175.4597
5970.826633 88.453 175.0014
6014.093704 88.520 174.5545
6057.674306 88.565 174.1407
6101.570711 88.591 173.7807
6145.785208 88.600 173.4943
6190.320101 88.594 173.2991
6235.177712 88.575 173.2107
6280.360380 88.546 173.2416
6325.870460 88.512 173.4008
6371.710325 88.476 173.6924
6417.882365 88.444 174.1158
6464.388986 88.418 174.6638
6511.232613 88.405 175.3226
6558.415689 88.409 176.0704
6605.940673 88.435 176.8770
6653.810042 88.486 177.7034
6702.026292 88.565 178.5023
6750.591937 88.674 179.2202
6799.509509 88.810 179.7997
6848.781558 88.973 -179.8159
6898.410653 89.156 -179.6787
6948.399380 89.354 -179.8321
6998.750346 89.557 179.6923
7049.466176 89.756 178.8767
7100.549514 89.943 177.7177
7152.003023 90.108 176.2250
7203.829385 90.242 174.4197
7256.031302 90.339 172.3325
7308.611496 90.391 170.0008
7361.572708 90.394 167.4667
7414.917698 90.344 164.7751
7468.649249 90.238 161.9719
7522.770160 90.074 159.1033
7577.283253 89.852 156.2132
7632.191371 89.573 153.3430
7687.497376 89.238 150.5287
7743.204151 88.851 147.7998
7799.314600 88.414 145.1762
7855.831649 87.933 142.6661
7912.758244 87.413 140.2644
7970.097352 86.859 137.9512
8027.851962 86.278 135.6921
8086.025087 85.675 133.4399
8144.619758 85.054 131.1362
8203.639030 84.421 128.7133
8263.085980 83.776 126.0953
8322.963708 83.124 123.1971
8383.275334 82.466 119.9187
8444.024002 81.805 116.1370
8505.212881 81.145 111.6888
8566.845160 80.493 106.3475
8628.924051 79.861 99.7881
8691.452792 79.264 91.5512
8754.434642 78.723 81.0427
8817.872884 78.264 67.7003
8881.770826 77.913 51.5432
8946.131799 77.690 33.9139
9010.959157 77.605 17.1594
9076.256282 77.654 2.9795
9142.026576 77.819 -8.3358
9208.273470 78.073 -17.2869
9275.000415 78.385 -24.5062
9342.210891 78.727 -30.5078
9409.908403 79.074 -35.6588
9478.096478 79.405 -40.2083
9546.778672 79.705 -44.3203
9615.958566 79.964 -48.0991
9685.639765 80.174 -51.6067
9755.825904 80.331 -54.8758
9826.520640 80.433 -57.9189
9897.727659 80.480 -60.7364
9969.450674 80.474 -63.3213
10041.693423 80.418 -65.6639
10114.459673 80.316 -67.7537
10187.753217 80.171 -69.5803
10261.577877 79.989 -71.1335
10335.937500 79.772 -72.4020
10410.835964 79.524 -73.3715
10486.277173 79.250 -74.0234
10562.265060 78.953 -74.3352
10638.803587 78.637 -74.2817
10715.896743 78.311 -73.8401
10793.548548 77.982 -72.9980
10871.763050 77.659 -71.7640
10950.544327 77.354 -70.1783
11029.896485 77.078 -68.3180
11109.823662 76.838 -66.2937
11190.330024 76.639 -64.2339
11271.419768 76.480 -62.2634
11353.097122 76.356 -60.4805
11435.366344 76.257 -58.9446
11518.231722 76.173 -57.6748
11601.697577 76.094 -56.6570
11685.768261 76.014 -55.8573
11770.448155 75.926 -55.2337
11855.741674 75.828 -54.7460
11941.653265 75.721 -54.3618
12028.187408 75.605 -54.0595
12115.348612 75.483 -53.8303
12203.141422 75.359 -53.6785
12291.570415 75.237 -53.6228
12380.640201 75.120 -53.6945
12470.355424 75.009 -53.9349
12560.720760 74.904 -54.3891
12651.740920 74.801 -55.0987
12743.420650 74.694 -56.0947
12835.764729 74.576 -57.3927
12928.777972 74.441 -58.9927
13022.465227 74.281 -60.8817
13116.831378 74.091 -63.0398
13211.881345 73.871 -65.4478
13307.620084 73.620 -68.0927
13404.052584 73.341 -70.9719
13501.183875 73.036 -74.0942
13599.019019 72.709 -77.4791
13697.563116 72.364 -81.1537
13796.821305 72.004 -85.1503
13896.798760 71.630 -89.5028
13997.500692 71.244 -94.2445
14098.932352 70.848 -99.4056
14201.099028 70.444 -105.0111
14304.006046 70.033 -111.0780
14407.658770 69.621 -117.6121
14512.062604 69.212 -124.6002
14617.222992 68.812 -132.0011
14723.145416 68.432 -139.7304
14829.835397 68.079 -147.6471
14937.298497 67.767 -155.5479
15045.540320 67.506 -163.1821
15154.566507 67.311 -170.3006
15264.382743 67.193 -176.7382
15374.994752 67.158 177.4973
15486.408302 67.204 172.1902
15598.629201 67.318 166.9863
15711.663298 67.475 161.5359
15825.516487 67.645 155.6115
15940.194703 67.796 149.1408
16055.703925 67.898 142.1749
16172.050174 67.927 134.8365
16289.239516 67.866 127.2783
16407.278061 67.705 119.6541
16526.171961 67.439 112.1004
16645.927415 67.072 104.7268
16766.550667 66.607 97.6127
16888.048005 66.053 90.8110
17010.425762 65.416 84.3554
17133.690320 64.706 78.2675
17257.848103 63.929 72.5638
17382.905584 63.092 67.2593
17508.869284 62.200 62.3685
17635.745768 61.259 57.9041
17763.541652 60.275 53.8710
17892.263597 59.254 50.2610
18021.918315 58.204 47.0445
18152.512564 57.133 44.1634
18284.053153 56.056 41.5261
18416.546939 54.990 39.0073
18550.000830 53.955 36.4552
18684.421783 52.980 33.7083
18819.816805 52.096 30.6202
18956.192956 51.337 27.0920
19093.557344 50.728 23.1060
19231.917131 50.279 18.7556
19371.279531 49.980 14.2596
19511.651807 49.805 9.9491
19653.041280 49.716 6.2209
19795.455318 49.680 3.4677
19938.901348 49.669 2.0040
