* Measurement data measured by REW V5.31.3
* Source: EXCL: Headset (USB-C to 3.5mm Headphone Jack Adapter), MICROPHONE (Master Volume), 0, volume: 0.260
* Format: 256k Log Swept Sine, 1 sweep at -12.0 dBFS with no timing reference
* Dated: Feb 19, 2025 7:48:07 PM
* REW Settings:
*  C-weighting compensation: Off
*  Target level: 75.0 dB
* Note: ; 
* Measurement: Satyr 3 R1
* Smoothing: 1/6 octave
* Frequency Step: 96 ppo
* Start Frequency: 20.0 Hz
*
* Freq(Hz) SPL(dB) Phase(degrees)
20.141602 93.371 -32.5622
20.287556 93.386 -32.7739
20.434568 93.406 -33.0577
20.582645 93.431 -33.4065
20.731796 93.459 -33.8121
20.882027 93.492 -34.2665
21.033346 93.527 -34.7616
21.185763 93.565 -35.2896
21.339284 93.605 -35.8432
21.493917 93.647 -36.4155
21.649671 93.693 -37.0005
21.806553 93.741 -37.5927
21.964572 93.792 -38.1875
22.123737 93.848 -38.7812
22.284054 93.907 -39.3714
22.445534 93.971 -39.9568
22.608183 94.039 -40.5370
22.772012 94.111 -41.1125
22.937027 94.187 -41.6845
23.103238 94.266 -42.2549
23.270654 94.348 -42.8252
23.439282 94.430 -43.3973
23.609133 94.513 -43.9724
23.780215 94.595 -44.5513
23.952536 94.676 -45.1347
24.126106 94.754 -45.7225
24.300934 94.830 -46.3146
24.477028 94.903 -46.9107
24.654399 94.973 -47.5106
24.833055 95.041 -48.1144
25.013005 95.107 -48.7224
25.194260 95.172 -49.3353
25.376828 95.237 -49.9536
25.560719 95.303 -50.5785
25.745942 95.370 -51.2105
25.932508 95.439 -51.8502
26.120426 95.510 -52.4975
26.309705 95.585 -53.1521
26.500356 95.662 -53.8128
26.692388 95.742 -54.4784
26.885812 95.826 -55.1472
27.080638 95.912 -55.8174
27.276876 96.002 -56.4875
27.474535 96.094 -57.1563
27.673627 96.188 -57.8230
27.874161 96.284 -58.4875
28.076149 96.380 -59.1501
28.279600 96.476 -59.8115
28.484526 96.571 -60.4728
28.690937 96.665 -61.1352
28.898843 96.756 -61.7997
29.108256 96.843 -62.4670
29.319186 96.926 -63.1377
29.531645 97.005 -63.8118
29.745644 97.080 -64.4889
29.961193 97.150 -65.1682
30.178304 97.216 -65.8487
30.396989 97.278 -66.5292
30.617258 97.338 -67.2085
30.839123 97.395 -67.8853
31.062596 97.451 -68.5586
31.287688 97.507 -69.2273
31.514412 97.564 -69.8906
31.742778 97.622 -70.5481
31.972800 97.683 -71.1992
32.204488 97.746 -71.8436
32.437855 97.814 -72.4814
32.672913 97.885 -73.1125
32.909674 97.961 -73.7372
33.148151 98.040 -74.3558
33.388356 98.123 -74.9687
33.630302 98.209 -75.5765
33.874001 98.297 -76.1801
34.119466 98.387 -76.7803
34.366710 98.477 -77.3783
34.615745 98.566 -77.9753
34.866585 98.654 -78.5726
35.119243 98.739 -79.1717
35.373731 98.821 -79.7736
35.630064 98.899 -80.3793
35.888254 98.973 -80.9895
36.148315 99.042 -81.6041
36.410261 99.106 -82.2230
36.674104 99.165 -82.8454
36.939860 99.220 -83.4702
37.207542 99.271 -84.0966
37.477163 99.318 -84.7234
37.748738 99.363 -85.3503
38.022281 99.405 -85.9769
38.297806 99.446 -86.6037
38.575327 99.485 -87.2316
38.854860 99.522 -87.8615
39.136419 99.559 -88.4951
39.420017 99.595 -89.1335
39.705671 99.629 -89.7780
39.993395 99.663 -90.4295
40.283203 99.696 -91.0886
40.575112 99.728 -91.7556
40.869136 99.761 -92.4302
41.165290 99.793 -93.1122
41.463591 99.826 -93.8008
41.764053 99.860 -94.4954
42.066693 99.896 -95.1952
42.371525 99.933 -95.8993
42.678567 99.973 -96.6072
42.987834 100.014 -97.3184
43.299341 100.058 -98.0327
43.613106 100.103 -98.7502
43.929145 100.150 -99.4711
44.247473 100.199 -100.1960
44.568109 100.250 -100.9252
44.891068 100.302 -101.6594
45.216367 100.355 -102.3992
45.544023 100.410 -103.1452
45.874054 100.466 -103.8978
46.206476 100.523 -104.6568
46.541307 100.582 -105.4221
46.878565 100.641 -106.1927
47.218266 100.701 -106.9675
47.560429 100.762 -107.7452
47.905072 100.823 -108.5246
48.252212 100.883 -109.3045
48.601867 100.943 -110.0844
48.954056 101.002 -110.8639
49.308798 101.060 -111.6432
49.666109 101.117 -112.4224
50.026010 101.173 -113.2018
50.388520 101.226 -113.9816
50.753656 101.278 -114.7617
51.121437 101.329 -115.5423
51.491884 101.377 -116.3236
51.865016 101.424 -117.1056
52.240851 101.468 -117.8886
52.619410 101.510 -118.6726
53.000712 101.550 -119.4577
53.384777 101.586 -120.2437
53.771625 101.620 -121.0304
54.161276 101.650 -121.8176
54.553751 101.677 -122.6051
54.949070 101.701 -123.3925
55.347254 101.722 -124.1795
55.748323 101.739 -124.9652
56.152298 101.754 -125.7486
56.559201 101.765 -126.5285
56.969052 101.775 -127.3039
57.381873 101.784 -128.0741
57.797686 101.791 -128.8394
58.216512 101.797 -129.6009
58.638373 101.804 -130.3609
59.063291 101.811 -131.1223
59.491288 101.819 -131.8883
59.922386 101.827 -132.6612
60.356608 101.836 -133.4418
60.793977 101.845 -134.2293
61.234515 101.855 -135.0215
61.678246 101.864 -135.8151
62.125192 101.872 -136.6069
62.575377 101.879 -137.3938
63.028824 101.885 -138.1738
63.485557 101.888 -138.9453
63.945599 101.888 -139.7078
64.408975 101.886 -140.4614
64.875709 101.881 -141.2063
65.345825 101.873 -141.9431
65.819348 101.864 -142.6724
66.296302 101.852 -143.3945
66.776713 101.838 -144.1099
67.260604 101.823 -144.8191
67.748002 101.808 -145.5225
68.238932 101.791 -146.2203
68.733420 101.774 -146.9129
69.231490 101.757 -147.6002
69.733170 101.740 -148.2822
70.238485 101.722 -148.9587
70.747463 101.703 -149.6296
71.260128 101.685 -150.2946
71.776508 101.666 -150.9533
72.296630 101.646 -151.6057
72.820521 101.626 -152.2517
73.348209 101.605 -152.8915
73.879720 101.584 -153.5256
74.415083 101.561 -154.1544
74.954326 101.538 -154.7782
75.497475 101.514 -155.3972
76.044561 101.489 -156.0110
76.595612 101.462 -156.6192
77.150655 101.435 -157.2212
77.709720 101.406 -157.8166
78.272837 101.377 -158.4050
78.840034 101.346 -158.9864
79.411342 101.314 -159.5611
79.986789 101.281 -160.1292
80.566406 101.247 -160.6910
81.150224 101.213 -161.2467
81.738272 101.177 -161.7963
82.330581 101.142 -162.3397
82.927182 101.105 -162.8768
83.528107 101.069 -163.4076
84.133386 101.032 -163.9319
84.743051 100.995 -164.4495
85.357134 100.959 -164.9601
85.975667 100.922 -165.4637
86.598682 100.886 -165.9599
87.226212 100.851 -166.4488
87.858289 100.816 -166.9303
88.494946 100.782 -167.4047
89.136217 100.750 -167.8723
89.782135 100.718 -168.3335
90.432733 100.687 -168.7888
91.088046 100.657 -169.2386
91.748108 100.628 -169.6832
92.412952 100.600 -170.1228
93.082615 100.571 -170.5573
93.757130 100.543 -170.9867
94.436533 100.514 -171.4109
95.120859 100.484 -171.8299
95.810144 100.453 -172.2437
96.504423 100.421 -172.6523
97.203734 100.387 -173.0556
97.908112 100.350 -173.4535
98.617595 100.311 -173.8457
99.332219 100.270 -174.2318
100.052021 100.226 -174.6118
100.777039 100.181 -174.9857
101.507311 100.134 -175.3536
102.242875 100.085 -175.7159
102.983769 100.036 -176.0731
103.730032 99.987 -176.4258
104.481702 99.937 -176.7745
105.238820 99.889 -177.1196
106.001424 99.841 -177.4611
106.769554 99.795 -177.7991
107.543250 99.750 -178.1334
108.322553 99.708 -178.4636
109.107503 99.666 -178.7894
109.898141 99.627 -179.1106
110.694508 99.588 -179.4267
111.496646 99.551 -179.7378
112.304596 99.514 179.9561
113.118402 99.477 179.6548
113.938104 99.440 179.3582
114.763747 99.403 179.0660
115.595372 99.365 178.7784
116.433024 99.327 178.4955
117.276746 99.288 178.2176
118.126581 99.248 177.9454
118.982575 99.207 177.6794
119.844772 99.165 177.4199
120.713217 99.122 177.1674
121.587954 99.078 176.9217
122.469031 99.034 176.6827
123.356492 98.990 176.4502
124.250384 98.946 176.2238
125.150753 98.903 176.0033
126.057647 98.860 175.7883
126.971113 98.818 175.5783
127.891198 98.778 175.3728
128.817950 98.739 175.1714
129.751418 98.701 174.9738
130.691651 98.664 174.7798
131.638696 98.629 174.5895
132.592604 98.595 174.4029
133.553425 98.562 174.2203
134.521208 98.529 174.0418
135.496004 98.497 173.8676
136.477864 98.464 173.6976
137.466839 98.431 173.5319
138.462981 98.397 173.3699
139.466340 98.362 173.2111
140.476971 98.325 173.0548
141.494925 98.286 172.9002
142.520256 98.244 172.7466
143.553016 98.201 172.5933
144.593260 98.155 172.4402
145.641043 98.107 172.2869
146.696418 98.058 172.1339
147.759441 98.007 171.9813
148.830166 97.956 171.8299
149.908651 97.904 171.6804
150.994951 97.852 171.5336
152.089123 97.801 171.3904
153.191223 97.749 171.2517
154.301310 97.699 171.1183
155.419441 97.649 170.9911
156.545674 97.599 170.8711
157.680069 97.550 170.7591
158.822683 97.500 170.6559
159.973578 97.451 170.5620
161.132813 97.401 170.4781
162.300447 97.351 170.4046
163.476543 97.300 170.3421
164.661162 97.248 170.2911
165.854364 97.196 170.2518
167.056213 97.142 170.2249
168.266772 97.088 170.2106
169.486102 97.032 170.2098
170.714268 96.976 170.2234
171.951334 96.919 170.2525
173.197364 96.861 170.2980
174.452424 96.803 170.3612
175.716578 96.745 170.4432
176.989893 96.686 170.5452
178.272434 96.627 170.6682
179.564270 96.568 170.8131
180.865467 96.509 170.9807
182.176092 96.451 171.1713
183.496216 96.394 171.3849
184.825905 96.337 171.6216
186.165229 96.282 171.8809
187.514259 96.228 172.1621
188.873065 96.176 172.4641
190.241717 96.126 172.7855
191.620287 96.078 173.1241
193.008847 96.033 173.4774
194.407468 95.991 173.8421
195.816225 95.952 174.2144
197.235190 95.917 174.5901
198.664438 95.886 174.9645
200.104042 95.859 175.3328
201.554078 95.836 175.6901
203.014622 95.818 176.0315
204.485750 95.804 176.3525
205.967538 95.796 176.6492
207.460064 95.794 176.9181
208.963405 95.796 177.1564
210.477640 95.805 177.3624
212.002848 95.819 177.5347
213.539108 95.839 177.6733
215.086500 95.864 177.7785
216.645105 95.895 177.8513
218.215005 95.931 177.8931
219.796281 95.970 177.9054
221.389015 96.013 177.8903
222.993292 96.060 177.8496
224.609193 96.108 177.7858
226.236804 96.158 177.7011
227.876209 96.208 177.5977
229.527494 96.259 177.4780
231.190745 96.309 177.3441
232.866048 96.358 177.1980
234.553491 96.407 177.0419
236.253163 96.454 176.8778
237.965150 96.499 176.7077
239.689544 96.543 176.5334
241.426433 96.584 176.3566
243.175909 96.622 176.1789
244.938062 96.658 176.0015
246.712984 96.690 175.8256
248.500768 96.720 175.6525
250.301507 96.745 175.4831
252.115295 96.768 175.3184
253.942226 96.787 175.1589
255.782396 96.804 175.0052
257.635901 96.818 174.8578
259.502837 96.830 174.7168
261.383301 96.840 174.5822
263.277392 96.849 174.4540
265.185209 96.855 174.3325
267.106850 96.860 174.2178
269.042417 96.862 174.1102
270.992009 96.862 174.0100
272.955729 96.860 173.9172
274.933678 96.854 173.8315
276.925961 96.845 173.7526
278.932681 96.832 173.6799
280.953942 96.815 173.6126
282.989850 96.794 173.5503
285.040511 96.769 173.4924
287.106032 96.739 173.4385
289.186521 96.706 173.3884
291.282086 96.668 173.3417
293.392836 96.627 173.2980
295.518881 96.582 173.2570
297.660333 96.535 173.2186
299.817302 96.486 173.1824
301.989902 96.434 173.1483
304.178245 96.382 173.1165
306.382446 96.329 173.0867
308.602620 96.276 173.0591
310.838882 96.224 173.0338
313.091348 96.174 173.0105
315.360137 96.125 172.9892
317.645367 96.079 172.9696
319.947156 96.037 172.9515
322.265625 95.998 172.9344
324.600895 95.963 172.9183
326.953086 95.933 172.9028
329.322323 95.908 172.8875
331.708729 95.888 172.8720
334.112427 95.874 172.8562
336.533543 95.865 172.8398
338.972204 95.862 172.8227
341.428536 95.864 172.8049
343.902668 95.870 172.7865
346.394729 95.881 172.7676
348.904848 95.896 172.7484
351.433156 95.913 172.7293
353.979786 95.933 172.7108
356.544869 95.954 172.6936
359.128540 95.974 172.6784
361.730934 95.994 172.6659
364.352185 96.012 172.6570
366.992431 96.028 172.6524
369.651810 96.040 172.6528
372.330459 96.048 172.6584
375.028519 96.053 172.6696
377.746130 96.053 172.6860
380.483434 96.049 172.7070
383.240574 96.040 172.7314
386.017693 96.027 172.7582
388.814937 96.011 172.7857
391.632450 95.991 172.8127
394.470380 95.969 172.8381
397.328875 95.945 172.8611
400.208084 95.920 172.8813
403.108157 95.896 172.8986
406.029245 95.873 172.9131
408.971500 95.853 172.9253
411.935076 95.835 172.9355
414.920127 95.821 172.9442
417.926810 95.811 172.9517
420.955280 95.805 172.9587
424.005695 95.803 172.9655
427.078215 95.805 172.9726
430.173000 95.809 172.9807
433.290211 95.817 172.9900
436.430010 95.826 173.0010
439.592562 95.835 173.0138
442.778031 95.845 173.0284
445.986583 95.853 173.0447
449.218386 95.859 173.0626
452.473607 95.863 173.0821
455.752418 95.865 173.1032
459.054987 95.864 173.1262
462.381489 95.860 173.1512
465.732096 95.855 173.1786
469.106983 95.847 173.2084
472.506325 95.838 173.2407
475.930301 95.828 173.2754
479.379088 95.817 173.3126
482.852867 95.805 173.3522
486.351817 95.793 173.3940
489.876123 95.782 173.4380
493.425968 95.771 173.4837
497.001536 95.762 173.5308
500.603014 95.755 173.5788
504.230589 95.751 173.6270
507.884452 95.750 173.6750
511.564792 95.754 173.7223
515.271802 95.763 173.7684
519.005673 95.778 173.8131
522.766602 95.799 173.8563
526.554785 95.827 173.8977
530.370418 95.860 173.9376
534.213700 95.900 173.9758
538.084833 95.944 174.0125
541.984018 95.992 174.0475
545.911457 96.042 174.0808
549.867357 96.094 174.1121
553.851922 96.145 174.1412
557.865362 96.193 174.1679
561.907884 96.237 174.1922
565.979700 96.277 174.2143
570.081022 96.309 174.2347
574.212064 96.333 174.2545
578.373042 96.349 174.2753
582.564171 96.354 174.2990
586.785671 96.349 174.3281
591.037762 96.334 174.3654
595.320665 96.307 174.4137
599.634604 96.271 174.4752
603.979804 96.225 174.5512
608.356491 96.172 174.6411
612.764893 96.112 174.7428
617.205240 96.047 174.8525
621.677763 95.979 174.9659
626.182696 95.911 175.0785
630.720274 95.843 175.1866
635.290733 95.777 175.2877
639.894312 95.715 175.3804
644.531250 95.658 175.4642
649.201789 95.607 175.5394
653.906173 95.563 175.6067
658.644647 95.527 175.6667
663.417457 95.500 175.7200
668.224854 95.481 175.7672
673.067086 95.472 175.8085
677.944408 95.471 175.8441
682.857073 95.480 175.8739
687.805336 95.498 175.8975
692.789457 95.524 175.9144
697.809695 95.557 175.9244
702.866312 95.597 175.9275
707.959571 95.643 175.9243
713.089738 95.692 175.9155
718.257080 95.743 175.9026
723.461867 95.795 175.8867
728.704370 95.846 175.8688
733.984862 95.895 175.8494
739.303619 95.941 175.8287
744.660918 95.984 175.8064
750.057038 96.022 175.7822
755.492260 96.056 175.7559
760.966869 96.086 175.7276
766.481148 96.112 175.6975
772.035387 96.134 175.6662
777.629873 96.152 175.6345
783.264900 96.167 175.6031
788.940760 96.179 175.5724
794.657750 96.187 175.5426
800.416168 96.191 175.5131
806.216313 96.190 175.4832
812.058489 96.183 175.4518
817.943000 96.170 175.4176
823.870152 96.150 175.3797
829.840255 96.123 175.3374
835.853619 96.089 175.2902
841.910559 96.049 175.2379
848.011390 96.005 175.1802
854.156430 95.957 175.1172
860.346000 95.909 175.0488
866.580422 95.863 174.9747
872.860020 95.820 174.8948
879.185124 95.784 174.8089
885.556062 95.756 174.7167
891.973166 95.738 174.6180
898.436771 95.730 174.5131
904.947215 95.732 174.4027
911.504835 95.745 174.2877
918.109975 95.766 174.1694
924.762978 95.795 174.0490
931.464192 95.830 173.9275
938.213966 95.870 173.8054
945.012651 95.913 173.6829
951.860602 95.957 173.5599
958.758176 96.001 173.4362
965.705733 96.044 173.3120
972.703635 96.084 173.1877
979.752246 96.121 173.0646
986.851935 96.155 172.9442
994.003071 96.186 172.8276
1001.206027 96.215 172.7149
1008.461179 96.242 172.6050
1015.768904 96.269 172.4956
1023.129584 96.298 172.3836
1030.543603 96.328 172.2659
1038.011347 96.362 172.1401
1045.533205 96.398 172.0051
1053.109569 96.438 171.8610
1060.740836 96.482 171.7091
1068.427401 96.530 171.5513
1076.169666 96.580 171.3896
1083.968035 96.633 171.2257
1091.822915 96.687 171.0603
1099.734713 96.741 170.8934
1107.703844 96.794 170.7247
1115.730723 96.843 170.5536
1123.815768 96.888 170.3804
1131.959400 96.927 170.2054
1140.162045 96.959 170.0294
1148.424129 96.985 169.8534
1156.746083 97.003 169.6785
1165.128342 97.014 169.5061
1173.571343 97.020 169.3378
1182.075524 97.020 169.1753
1190.641331 97.018 169.0207
1199.269209 97.014 168.8764
1207.959608 97.010 168.7445
1216.712981 97.007 168.6270
1225.529785 97.007 168.5250
1234.410479 97.012 168.4389
1243.355526 97.022 168.3682
1252.365393 97.037 168.3120
1261.440549 97.058 168.2691
1270.581467 97.084 168.2383
1279.788624 97.116 168.2182
1289.062500 97.152 168.2071
1298.403578 97.192 168.2029
1307.812346 97.234 168.2038
1317.289293 97.278 168.2085
1326.834914 97.322 168.2166
1336.449707 97.364 168.2287
1346.134173 97.405 168.2462
1355.888816 97.443 168.2700
1365.714145 97.478 168.3011
1375.610673 97.510 168.3404
1385.578915 97.537 168.3884
1395.619391 97.561 168.4460
1405.732624 97.582 168.5139
1415.919142 97.599 168.5921
1426.179476 97.614 168.6809
1436.514160 97.626 168.7800
1446.923734 97.636 168.8888
1457.408740 97.645 169.0060
1467.969724 97.653 169.1298
1478.607238 97.661 169.2572
1489.321836 97.668 169.3849
1500.114076 97.673 169.5100
1510.984521 97.678 169.6309
1521.933737 97.679 169.7472
1532.962297 97.678 169.8600
1544.070773 97.674 169.9709
1555.259747 97.666 170.0808
1566.529800 97.655 170.1902
1577.881521 97.641 170.2992
1589.315501 97.625 170.4083
1600.832336 97.606 170.5190
1612.432627 97.584 170.6346
1624.116978 97.561 170.7595
1635.886000 97.537 170.8983
1647.740304 97.513 171.0549
1659.680509 97.490 171.2312
1671.707238 97.469 171.4267
1683.821118 97.450 171.6385
1696.022780 97.435 171.8624
1708.312860 97.424 172.0927
1720.692000 97.416 172.3238
1733.160843 97.412 172.5504
1745.720041 97.411 172.7689
1758.370248 97.414 172.9769
1771.112124 97.421 173.1742
1783.946332 97.431 173.3622
1796.873543 97.444 173.5431
1809.894429 97.462 173.7188
1823.009670 97.482 173.8899
1836.219950 97.507 174.0557
1849.525956 97.534 174.2148
1862.928384 97.564 174.3657
1876.427931 97.595 174.5071
1890.025301 97.627 174.6378
1903.721204 97.658 174.7558
1917.516352 97.689 174.8589
1931.411466 97.718 174.9454
1945.407270 97.744 175.0154
1959.504493 97.767 175.0705
1973.703870 97.788 175.1129
1988.006142 97.806 175.1447
2002.412054 97.823 175.1669
2016.922357 97.840 175.1804
2031.537808 97.856 175.1851
2046.259169 97.875 175.1803
2061.087206 97.896 175.1635
2076.022694 97.921 175.1313
2091.066410 97.950 175.0798
2106.219139 97.983 175.0054
2121.481671 98.021 174.9059
2136.854802 98.064 174.7802
2152.339333 98.110 174.6285
2167.936071 98.160 174.4520
2183.645829 98.214 174.2532
2199.469427 98.271 174.0351
2215.407689 98.332 173.8006
2231.461446 98.397 173.5520
2247.631536 98.466 173.2910
2263.918800 98.540 173.0183
2280.324089 98.618 172.7345
2296.848258 98.700 172.4399
2313.492167 98.786 172.1351
2330.256685 98.875 171.8205
2347.142685 98.967 171.4962
2364.151049 99.061 171.1619
2381.282662 99.156 170.8176
2398.538418 99.251 170.4633
2415.919216 99.345 170.0990
2433.425962 99.435 169.7252
2451.059570 99.522 169.3432
2468.820958 99.604 168.9554
2486.711052 99.680 168.5648
2504.730786 99.750 168.1743
2522.881098 99.812 167.7864
2541.162934 99.866 167.4024
2559.577248 99.911 167.0226
2578.125000 99.948 166.6472
2596.807157 99.975 166.2761
2615.624692 99.993 165.9094
2634.578586 99.999 165.5484
2653.669829 99.995 165.1948
2672.899414 99.979 164.8514
2692.268345 99.951 164.5216
2711.777632 99.911 164.2097
2731.428290 99.859 163.9203
2751.221345 99.795 163.6591
2771.157829 99.720 163.4315
2791.238781 99.634 163.2430
2811.465248 99.538 163.0984
2831.838284 99.433 163.0016
2852.358952 99.319 162.9556
2873.028321 99.198 162.9627
2893.847468 99.070 163.0257
2914.817480 98.936 163.1479
2935.939449 98.798 163.3336
2957.214476 98.655 163.5872
2978.643672 98.510 163.9137
3000.228152 98.363 164.3163
3021.969041 98.218 164.7970
3043.867475 98.075 165.3548
3065.924593 97.938 165.9861
3088.141547 97.808 166.6851
3110.519493 97.687 167.4435
3133.059600 97.579 168.2511
3155.763041 97.483 169.0959
3178.631001 97.403 169.9640
3201.664672 97.339 170.8394
3224.865254 97.291 171.7044
3248.233957 97.261 172.5400
3271.771999 97.248 173.3276
3295.480608 97.251 174.0495
3319.361019 97.269 174.6911
3343.414477 97.299 175.2422
3367.642236 97.339 175.6977
3392.045560 97.387 176.0574
3416.625721 97.439 176.3261
3441.383999 97.494 176.5124
3466.321686 97.551 176.6270
3491.440082 97.608 176.6815
3516.740496 97.664 176.6866
3542.224247 97.720 176.6512
3567.892664 97.775 176.5817
3593.747085 97.829 176.4819
3619.788858 97.883 176.3535
3646.019340 97.935 176.1970
3672.439900 97.985 176.0124
3699.051913 98.032 175.8004
3725.856768 98.075 175.5635
3752.855862 98.111 175.3067
3780.050603 98.141 175.0374
3807.442408 98.164 174.7653
3835.032705 98.178 174.5017
3862.822933 98.183 174.2588
3890.814540 98.181 174.0486
3919.008986 98.171 173.8826
3947.407741 98.155 173.7711
3976.012284 98.134 173.7225
4004.824108 98.109 173.7431
4033.844715 98.081 173.8367
4063.075616 98.052 174.0047
4092.518337 98.023 174.2460
4122.174412 97.995 174.5577
4152.045387 97.969 174.9357
4182.132820 97.946 175.3755
4212.438278 97.927 175.8724
4242.963342 97.911 176.4228
4273.709604 97.899 177.0237
4304.678665 97.892 177.6731
4335.872141 97.891 178.3694
4367.291658 97.896 179.1112
4398.938854 97.908 179.8972
4430.815378 97.928 -179.2742
4462.922893 97.957 -178.4053
4495.263072 97.997 -177.4989
4527.837601 98.047 -176.5592
4560.648179 98.109 -175.5914
4593.696515 98.184 -174.6015
4626.984334 98.272 -173.5969
4660.513370 98.373 -172.5853
4694.285371 98.487 -171.5749
4728.302098 98.614 -170.5736
4762.565324 98.753 -169.5893
4797.076835 98.904 -168.6295
4831.838432 99.066 -167.7013
4866.851925 99.238 -166.8111
4902.119140 99.420 -165.9649
4937.641916 99.610 -165.1675
4973.422105 99.808 -164.4232
5009.461572 100.013 -163.7353
5045.762195 100.224 -163.1064
5082.325868 100.441 -162.5389
5119.154496 100.662 -162.0350
5156.250000 100.888 -161.5974
5193.614313 101.116 -161.2292
5231.249383 101.348 -160.9344
5269.157173 101.582 -160.7181
5307.339658 101.817 -160.5864
5345.798829 102.054 -160.5463
5384.536691 102.289 -160.6055
5423.555263 102.524 -160.7723
5462.856580 102.756 -161.0546
5502.442691 102.985 -161.4602
5542.315659 103.209 -161.9954
5582.477563 103.427 -162.6653
5622.930497 103.636 -163.4731
5663.676569 103.836 -164.4196
5704.717904 104.024 -165.5027
5746.056642 104.199 -166.7175
5787.694937 104.359 -168.0553
5829.634960 104.501 -169.5042
5871.878898 104.625 -171.0493
5914.428953 104.729 -172.6729
5957.287343 104.812 -174.3556
6000.456303 104.874 -176.0770
6043.938083 104.915 -177.8165
6087.734950 104.934 -179.5547
6131.849187 104.934 178.7263
6176.283094 104.915 177.0414
6221.038987 104.880 175.4029
6266.119200 104.829 173.8196
6311.526083 104.767 172.2967
6357.262002 104.694 170.8360
6403.329344 104.614 169.4361
6449.730508 104.530 168.0923
6496.467914 104.445 166.7968
6543.543998 104.362 165.5387
6590.961215 104.285 164.3036
6638.722037 104.217 163.0741
6686.828954 104.160 161.8293
6735.284473 104.118 160.5456
6784.091120 104.091 159.1976
6833.251441 104.081 157.7593
6882.767998 104.086 156.2057
6932.643372 104.102 154.5149
6982.880164 104.127 152.6691
7033.480992 104.156 150.6560
7084.448495 104.182 148.4694
7135.785329 104.198 146.1094
7187.494171 104.200 143.5825
7239.577717 104.181 140.9001
7292.038681 104.136 138.0784
7344.879799 104.060 135.1364
7398.103826 103.951 132.0945
7451.713536 103.806 128.9726
7505.711724 103.623 125.7881
7560.101205 103.403 122.5548
7614.884815 103.147 119.2811
7670.065409 102.856 115.9694
7725.645865 102.533 112.6154
7781.629080 102.179 109.2078
7838.017972 101.797 105.7285
7894.815481 101.392 102.1526
7952.024569 100.965 98.4478
8009.648217 100.521 94.5737
8067.689429 100.063 90.4802
8126.151233 99.598 86.1049
8185.036674 99.130 81.3697
8244.348824 98.666 76.1770
8304.090774 98.215 70.4047
8364.265639 97.782 63.9014
8424.876556 97.378 56.4825
8485.926684 97.011 47.9335
8547.419207 96.689 38.0325
8609.357330 96.421 26.6143
8671.744282 96.215 13.6968
8734.583316 96.077 -0.3655
8797.877707 96.015 -14.8424
8861.630756 96.030 -28.8470
8925.845785 96.123 -41.6940
8990.526143 96.290 -53.0875
9055.675202 96.523 -63.0571
9121.296357 96.812 -71.8007
9187.393031 97.143 -79.5618
9253.968668 97.502 -86.5708
9321.026740 97.876 -93.0233
9388.570742 98.250 -99.0777
9456.604196 98.610 -104.8582
9525.130648 98.946 -110.4583
9594.153671 99.244 -115.9451
9663.676863 99.496 -121.3617
9733.703850 99.692 -126.7292
9804.238280 99.825 -132.0500
9875.283832 99.889 -137.3099
9946.844210 99.880 -142.4815
10018.923143 99.797 -147.5284
10091.524390 99.639 -152.4089
10164.651736 99.409 -157.0796
10238.308993 99.109 -161.4980
10312.500000 98.745 -165.6254
10387.228626 98.322 -169.4280
10462.498767 97.846 -172.8804
10538.314345 97.328 -175.9672
10614.679315 96.774 -178.6880
10691.597657 96.197 178.9401
10769.073381 95.608 176.8782
10847.110526 95.018 175.0665
10925.713161 94.436 173.4275
11004.885382 93.871 171.8751
11084.631318 93.325 170.3266
11164.955126 92.799 168.7155
11245.860993 92.284 167.0008
11327.353138 91.772 165.1719
11409.435808 91.251 163.2476
11492.113283 90.710 161.2720
11575.389873 90.139 159.3088
11659.269920 89.529 157.4367
11743.757796 88.875 155.7471
11828.857906 88.174 154.3439
11914.574686 87.426 153.3451
12000.912606 86.634 152.8847
12087.876166 85.803 153.1122
12175.469900 84.942 154.1818
12263.698373 84.064 156.2246
12352.566187 83.187 159.2966
12442.077974 82.330 163.3141
12532.238400 81.516 168.0259
12623.052165 80.769 173.0892
12714.524005 80.110 178.2633
12806.658687 79.559 -176.3505
12899.461015 79.137 -170.0622
12992.935827 78.869 -161.2094
13087.087996 78.782 -146.4991
13181.922430 78.895 -122.1708
13277.444074 79.211 -94.0221
13373.657907 79.707 -74.9130
13470.568945 80.345 -65.3229
13568.182241 81.074 -61.2373
13666.502883 81.850 -60.2052
13765.535996 82.633 -61.0229
13865.286744 83.395 -63.0838
13965.760328 84.113 -66.0594
14066.961984 84.771 -69.7554
14168.896989 85.358 -74.0440
14271.570658 85.864 -78.8285
14374.988342 86.282 -84.0259
14479.155433 86.608 -89.5569
14584.077362 86.838 -95.3438
14689.759598 86.974 -101.3107
14796.207652 87.014 -107.3849
14903.427072 86.963 -113.4995
15011.423448 86.823 -119.5933
15120.202410 86.597 -125.6091
15229.769630 86.289 -131.4930
15340.130819 85.901 -137.1908
15451.291730 85.436 -142.6475
15563.258160 84.897 -147.8086
15676.035944 84.287 -152.6230
15789.630962 83.613 -157.0489
15904.049137 82.880 -161.0594
16019.296433 82.097 -164.6494
16135.378859 81.274 -167.8415
16252.302465 80.422 -170.6901
16370.073348 79.553 -173.2786
16488.697648 78.677 -175.7068
16608.181548 77.806 -178.0679
16728.531278 76.943 179.5798
16849.753112 76.091 177.2364
16971.853368 75.247 174.9727
17094.838414 74.406 172.9294
17218.714660 73.566 171.3054
17343.488565 72.728 170.3356
17469.166632 71.897 170.2491
17595.755415 71.086 171.1900
17723.261512 70.313 173.0940
17851.691571 69.597 175.5777
17981.052287 68.956 177.9753
18111.350404 68.404 179.5826
18242.592715 67.948 179.9329
18374.786062 67.590 178.8804
18507.937336 67.329 176.4963
18642.053479 67.163 172.9310
18777.141484 67.087 168.3351
18913.208391 67.090 162.8483
19050.261296 67.155 156.6312
19188.307342 67.263 149.9064
19327.353727 67.391 142.9844
19467.407699 67.521 136.2601
19608.476560 67.638 130.1751
19750.567664 67.733 125.1635
19893.688419 67.800 121.5968
20037.846286 67.834 119.7434
