* Measurement data measured by REW V5.31.3
* Source: EXCL: Headset (USB-C to 3.5mm Headphone Jack Adapter), MICROPHONE (Master Volume), 0, volume: 0.260
* Format: 256k Log Swept Sine, 1 sweep at -12.0 dBFS with no timing reference
* Dated: Feb 14, 2025 1:52:25 PM
* REW Settings:
*  C-weighting compensation: Off
*  Target level: 75.0 dB
* Note: ; 
* Measurement: Satyr 3 R8
* Smoothing: 1/6 octave
* Frequency Step: 96 ppo
* Start Frequency: 20.0 Hz
*
* Freq(Hz) SPL(dB) Phase(degrees)
20.141602 94.479 -30.0067
20.287556 94.498 -30.1906
20.434568 94.522 -30.4385
20.582645 94.548 -30.7456
20.731796 94.572 -31.1071
20.882027 94.593 -31.5180
21.033346 94.608 -31.9738
21.185763 94.616 -32.4702
21.339284 94.616 -33.0029
21.493917 94.608 -33.5679
21.649671 94.592 -34.1608
21.806553 94.569 -34.7773
21.964572 94.542 -35.4129
22.123737 94.511 -36.0633
22.284054 94.479 -36.7243
22.445534 94.448 -37.3922
22.608183 94.419 -38.0635
22.772012 94.396 -38.7355
22.937027 94.379 -39.4060
23.103238 94.371 -40.0733
23.270654 94.372 -40.7363
23.439282 94.383 -41.3939
23.609133 94.406 -42.0453
23.780215 94.440 -42.6898
23.952536 94.485 -43.3267
24.126106 94.541 -43.9552
24.300934 94.608 -44.5751
24.477028 94.685 -45.1860
24.654399 94.770 -45.7885
24.833055 94.863 -46.3835
25.013005 94.961 -46.9728
25.194260 95.064 -47.5589
25.376828 95.168 -48.1448
25.560719 95.274 -48.7341
25.745942 95.378 -49.3301
25.932508 95.479 -49.9360
26.120426 95.577 -50.5540
26.309705 95.669 -51.1857
26.500356 95.756 -51.8313
26.692388 95.836 -52.4899
26.885812 95.910 -53.1595
27.080638 95.979 -53.8376
27.276876 96.042 -54.5211
27.474535 96.102 -55.2071
27.673627 96.161 -55.8930
27.874161 96.220 -56.5769
28.076149 96.283 -57.2580
28.279600 96.352 -57.9362
28.484526 96.430 -58.6124
28.690937 96.520 -59.2878
28.898843 96.625 -59.9642
29.108256 96.744 -60.6432
29.319186 96.880 -61.3261
29.531645 97.030 -62.0137
29.745644 97.195 -62.7064
29.961193 97.370 -63.4038
30.178304 97.553 -64.1051
30.396989 97.739 -64.8089
30.617258 97.923 -65.5141
30.839123 98.102 -66.2190
31.062596 98.270 -66.9224
31.287688 98.423 -67.6235
31.514412 98.557 -68.3215
31.742778 98.669 -69.0161
31.972800 98.756 -69.7073
32.204488 98.816 -70.3953
32.437855 98.848 -71.0804
32.672913 98.852 -71.7629
32.909674 98.828 -72.4430
33.148151 98.778 -73.1208
33.388356 98.704 -73.7960
33.630302 98.610 -74.4686
33.874001 98.497 -75.1381
34.119466 98.371 -75.8041
34.366710 98.235 -76.4664
34.615745 98.094 -77.1245
34.866585 97.952 -77.7780
35.119243 97.813 -78.4267
35.373731 97.682 -79.0701
35.630064 97.562 -79.7077
35.888254 97.456 -80.3389
36.148315 97.368 -80.9632
36.410261 97.300 -81.5798
36.674104 97.254 -82.1885
36.939860 97.230 -82.7888
37.207542 97.230 -83.3808
37.477163 97.255 -83.9649
37.748738 97.303 -84.5419
38.022281 97.376 -85.1131
38.297806 97.472 -85.6802
38.575327 97.589 -86.2453
38.854860 97.728 -86.8108
39.136419 97.886 -87.3788
39.420017 98.063 -87.9514
39.705671 98.257 -88.5301
39.993395 98.466 -89.1158
40.283203 98.690 -89.7088
40.575112 98.926 -90.3087
40.869136 99.174 -90.9149
41.165290 99.431 -91.5265
41.463591 99.696 -92.1428
41.764053 99.968 -92.7631
42.066693 100.243 -93.3873
42.371525 100.521 -94.0157
42.678567 100.798 -94.6487
42.987834 101.073 -95.2873
43.299341 101.343 -95.9328
43.613106 101.606 -96.5864
43.929145 101.859 -97.2492
44.247473 102.102 -97.9219
44.568109 102.331 -98.6045
44.891068 102.545 -99.2964
45.216367 102.743 -99.9962
45.544023 102.924 -100.7019
45.874054 103.088 -101.4117
46.206476 103.234 -102.1238
46.541307 103.362 -102.8369
46.878565 103.473 -103.5501
47.218266 103.566 -104.2634
47.560429 103.642 -104.9767
47.905072 103.702 -105.6907
48.252212 103.748 -106.4060
48.601867 103.780 -107.1236
48.954056 103.800 -107.8447
49.308798 103.810 -108.5703
49.666109 103.812 -109.3013
50.026010 103.807 -110.0382
50.388520 103.797 -110.7813
50.753656 103.784 -111.5301
51.121437 103.770 -112.2841
51.491884 103.756 -113.0424
51.865016 103.743 -113.8039
52.240851 103.733 -114.5675
52.619410 103.725 -115.3320
53.000712 103.721 -116.0965
53.384777 103.720 -116.8599
53.771625 103.722 -117.6215
54.161276 103.726 -118.3808
54.553751 103.731 -119.1376
54.949070 103.736 -119.8919
55.347254 103.740 -120.6437
55.748323 103.742 -121.3932
56.152298 103.741 -122.1407
56.559201 103.738 -122.8863
56.969052 103.730 -123.6301
57.381873 103.719 -124.3723
57.797686 103.705 -125.1130
58.216512 103.686 -125.8528
58.638373 103.664 -126.5923
59.063291 103.639 -127.3326
59.491288 103.610 -128.0746
59.922386 103.578 -128.8193
60.356608 103.544 -129.5670
60.793977 103.507 -130.3178
61.234515 103.468 -131.0711
61.678246 103.427 -131.8260
62.125192 103.386 -132.5815
62.575377 103.344 -133.3362
63.028824 103.302 -134.0890
63.485557 103.261 -134.8386
63.945599 103.221 -135.5843
64.408975 103.182 -136.3253
64.875709 103.145 -137.0611
65.345825 103.109 -137.7917
65.819348 103.075 -138.5168
66.296302 103.043 -139.2365
66.776713 103.013 -139.9509
67.260604 102.985 -140.6601
67.748002 102.959 -141.3643
68.238932 102.934 -142.0636
68.733420 102.912 -142.7577
69.231490 102.891 -143.4465
69.733170 102.871 -144.1298
70.238485 102.852 -144.8073
70.747463 102.835 -145.4789
71.260128 102.818 -146.1443
71.776508 102.801 -146.8036
72.296630 102.785 -147.4570
72.820521 102.770 -148.1043
73.348209 102.755 -148.7455
73.879720 102.740 -149.3803
74.415083 102.726 -150.0085
74.954326 102.711 -150.6294
75.497475 102.697 -151.2428
76.044561 102.682 -151.8482
76.595612 102.666 -152.4458
77.150655 102.649 -153.0358
77.709720 102.630 -153.6186
78.272837 102.608 -154.1947
78.840034 102.584 -154.7643
79.411342 102.557 -155.3275
79.986789 102.526 -155.8845
80.566406 102.491 -156.4354
81.150224 102.452 -156.9802
81.738272 102.410 -157.5193
82.330581 102.365 -158.0528
82.927182 102.318 -158.5810
83.528107 102.269 -159.1040
84.133386 102.222 -159.6221
84.743051 102.177 -160.1353
85.357134 102.138 -160.6437
85.975667 102.107 -161.1476
86.598682 102.088 -161.6469
87.226212 102.084 -162.1417
87.858289 102.099 -162.6317
88.494946 102.135 -163.1167
89.136217 102.194 -163.5965
89.782135 102.278 -164.0707
90.432733 102.384 -164.5390
91.088046 102.512 -165.0013
91.748108 102.658 -165.4573
92.412952 102.817 -165.9073
93.082615 102.985 -166.3514
93.757130 103.155 -166.7899
94.436533 103.323 -167.2231
95.120859 103.483 -167.6514
95.810144 103.632 -168.0748
96.504423 103.767 -168.4933
97.203734 103.884 -168.9070
97.908112 103.984 -169.3156
98.617595 104.067 -169.7190
99.332219 104.133 -170.1169
100.052021 104.185 -170.5092
100.777039 104.223 -170.8959
101.507311 104.251 -171.2769
102.242875 104.271 -171.6523
102.983769 104.283 -172.0222
103.730032 104.290 -172.3869
104.481702 104.293 -172.7469
105.238820 104.290 -173.1024
106.001424 104.282 -173.4538
106.769554 104.268 -173.8013
107.543250 104.245 -174.1450
108.322553 104.213 -174.4845
109.107503 104.170 -174.8198
109.898141 104.115 -175.1506
110.694508 104.046 -175.4769
111.496646 103.963 -175.7990
112.304596 103.868 -176.1167
113.118402 103.760 -176.4304
113.938104 103.642 -176.7400
114.763747 103.516 -177.0453
115.595372 103.383 -177.3460
116.433024 103.246 -177.6417
117.276746 103.107 -177.9321
118.126581 102.969 -178.2168
118.982575 102.832 -178.4959
119.844772 102.697 -178.7697
120.713217 102.565 -179.0383
121.587954 102.435 -179.3024
122.469031 102.308 -179.5621
123.356492 102.182 -179.8179
124.250384 102.056 179.9301
125.150753 101.928 179.6815
126.057647 101.797 179.4365
126.971113 101.662 179.1950
127.891198 101.521 178.9571
128.817950 101.374 178.7227
129.751418 101.221 178.4919
130.691651 101.061 178.2642
131.638696 100.896 178.0394
132.592604 100.727 177.8173
133.553425 100.556 177.5976
134.521208 100.386 177.3803
135.496004 100.219 177.1654
136.477864 100.059 176.9530
137.466839 99.910 176.7430
138.462981 99.773 176.5353
139.466340 99.653 176.3301
140.476971 99.551 176.1277
141.494925 99.467 175.9283
142.520256 99.400 175.7326
143.553016 99.350 175.5413
144.593260 99.312 175.3556
145.641043 99.284 175.1768
146.696418 99.262 175.0063
147.759441 99.241 174.8461
148.830166 99.219 174.6981
149.908651 99.191 174.5642
150.994951 99.158 174.4459
152.089123 99.116 174.3444
153.191223 99.068 174.2604
154.301310 99.012 174.1940
155.419441 98.951 174.1451
156.545674 98.887 174.1132
157.680069 98.822 174.0976
158.822683 98.757 174.0977
159.973578 98.693 174.1128
161.132813 98.633 174.1425
162.300447 98.577 174.1863
163.476543 98.525 174.2442
164.661162 98.478 174.3158
165.854364 98.437 174.4008
167.056213 98.402 174.4982
168.266772 98.373 174.6069
169.486102 98.351 174.7254
170.714268 98.336 174.8520
171.951334 98.328 174.9849
173.197364 98.327 175.1223
174.452424 98.334 175.2625
175.716578 98.349 175.4038
176.989893 98.370 175.5444
178.272434 98.397 175.6826
179.564270 98.428 175.8165
180.865467 98.463 175.9444
182.176092 98.500 176.0645
183.496216 98.538 176.1753
184.825905 98.576 176.2755
186.165229 98.613 176.3639
187.514259 98.648 176.4398
188.873065 98.683 176.5021
190.241717 98.716 176.5502
191.620287 98.748 176.5834
193.008847 98.779 176.6013
194.407468 98.811 176.6035
195.816225 98.842 176.5901
197.235190 98.873 176.5615
198.664438 98.903 176.5180
200.104042 98.933 176.4606
201.554078 98.960 176.3905
203.014622 98.986 176.3089
204.485750 99.008 176.2172
205.967538 99.026 176.1170
207.460064 99.041 176.0097
208.963405 99.050 175.8965
210.477640 99.055 175.7788
212.002848 99.056 175.6574
213.539108 99.053 175.5333
215.086500 99.046 175.4073
216.645105 99.036 175.2804
218.215005 99.024 175.1530
219.796281 99.008 175.0257
221.389015 98.990 174.8988
222.993292 98.968 174.7723
224.609193 98.943 174.6462
226.236804 98.913 174.5204
227.876209 98.878 174.3950
229.527494 98.837 174.2701
231.190745 98.791 174.1458
232.866048 98.738 174.0227
234.553491 98.681 173.9009
236.253163 98.618 173.7807
237.965150 98.551 173.6622
239.689544 98.480 173.5457
241.426433 98.408 173.4313
243.175909 98.334 173.3192
244.938062 98.260 173.2098
246.712984 98.186 173.1033
248.500768 98.115 172.9995
250.301507 98.046 172.8984
252.115295 97.980 172.7995
253.942226 97.918 172.7026
255.782396 97.860 172.6075
257.635901 97.808 172.5145
259.502837 97.761 172.4238
261.383301 97.720 172.3357
263.277392 97.685 172.2501
265.185209 97.657 172.1665
267.106850 97.635 172.0844
269.042417 97.619 172.0030
270.992009 97.608 171.9218
272.955729 97.602 171.8405
274.933678 97.601 171.7593
276.925961 97.603 171.6786
278.932681 97.608 171.5991
280.953942 97.615 171.5214
282.989850 97.625 171.4461
285.040511 97.637 171.3734
287.106032 97.652 171.3034
289.186521 97.671 171.2365
291.282086 97.694 171.1725
293.392836 97.721 171.1116
295.518881 97.755 171.0536
297.660333 97.794 170.9987
299.817302 97.839 170.9467
301.989902 97.889 170.8976
304.178245 97.944 170.8510
306.382446 98.000 170.8069
308.602620 98.057 170.7650
310.838882 98.112 170.7250
313.091348 98.165 170.6869
315.360137 98.213 170.6504
317.645367 98.255 170.6156
319.947156 98.289 170.5822
322.265625 98.316 170.5503
324.600895 98.333 170.5195
326.953086 98.341 170.4896
329.322323 98.339 170.4605
331.708729 98.327 170.4319
334.112427 98.305 170.4036
336.533543 98.272 170.3757
338.972204 98.229 170.3483
341.428536 98.177 170.3212
343.902668 98.117 170.2948
346.394729 98.051 170.2689
348.904848 97.978 170.2435
351.433156 97.903 170.2186
353.979786 97.826 170.1940
356.544869 97.751 170.1693
359.128540 97.679 170.1444
361.730934 97.614 170.1191
364.352185 97.559 170.0934
366.992431 97.517 170.0674
369.651810 97.489 170.0410
372.330459 97.477 170.0145
375.028519 97.483 169.9878
377.746130 97.508 169.9609
380.483434 97.549 169.9338
383.240574 97.606 169.9062
386.017693 97.677 169.8782
388.814937 97.759 169.8497
391.632450 97.849 169.8206
394.470380 97.945 169.7910
397.328875 98.043 169.7610
400.208084 98.142 169.7308
403.108157 98.240 169.7003
406.029245 98.336 169.6699
408.971500 98.428 169.6393
411.935076 98.517 169.6089
414.920127 98.603 169.5787
417.926810 98.686 169.5490
420.955280 98.766 169.5198
424.005695 98.846 169.4915
427.078215 98.925 169.4644
430.173000 99.004 169.4388
433.290211 99.082 169.4152
436.430010 99.161 169.3939
439.592562 99.240 169.3752
442.778031 99.317 169.3590
445.986583 99.391 169.3454
449.218386 99.462 169.3340
452.473607 99.527 169.3247
455.752418 99.585 169.3170
459.054987 99.634 169.3108
462.381489 99.674 169.3060
465.732096 99.703 169.3025
469.106983 99.722 169.3004
472.506325 99.731 169.2993
475.930301 99.731 169.2993
479.379088 99.721 169.3002
482.852867 99.704 169.3017
486.351817 99.680 169.3039
489.876123 99.650 169.3069
493.425968 99.616 169.3107
497.001536 99.578 169.3157
500.603014 99.536 169.3219
504.230589 99.492 169.3296
507.884452 99.445 169.3387
511.564792 99.395 169.3491
515.271802 99.343 169.3608
519.005673 99.289 169.3736
522.766602 99.235 169.3872
526.554785 99.181 169.4015
530.370418 99.128 169.4160
534.213700 99.080 169.4302
538.084833 99.038 169.4433
541.984018 99.003 169.4545
545.911457 98.977 169.4630
549.867357 98.961 169.4682
553.851922 98.954 169.4697
557.865362 98.956 169.4674
561.907884 98.966 169.4612
565.979700 98.981 169.4512
570.081022 99.000 169.4376
574.212064 99.021 169.4206
578.373042 99.041 169.4007
582.564171 99.058 169.3782
586.785671 99.070 169.3539
591.037762 99.077 169.3286
595.320665 99.078 169.3032
599.634604 99.071 169.2789
603.979804 99.057 169.2566
608.356491 99.035 169.2374
612.764893 99.008 169.2220
617.205240 98.974 169.2106
621.677763 98.937 169.2030
626.182696 98.897 169.1982
630.720274 98.856 169.1947
635.290733 98.816 169.1909
639.894312 98.780 169.1848
644.531250 98.749 169.1750
649.201789 98.724 169.1603
653.906173 98.706 169.1397
658.644647 98.696 169.1129
663.417457 98.693 169.0798
668.224854 98.697 169.0402
673.067086 98.707 168.9944
677.944408 98.720 168.9429
682.857073 98.736 168.8861
687.805336 98.753 168.8249
692.789457 98.768 168.7599
697.809695 98.781 168.6919
702.866312 98.791 168.6210
707.959571 98.797 168.5477
713.089738 98.798 168.4717
718.257080 98.795 168.3930
723.461867 98.786 168.3112
728.704370 98.773 168.2263
733.984862 98.756 168.1382
739.303619 98.736 168.0474
744.660918 98.712 167.9542
750.057038 98.687 167.8596
755.492260 98.659 167.7641
760.966869 98.631 167.6686
766.481148 98.601 167.5739
772.035387 98.569 167.4800
777.629873 98.536 167.3866
783.264900 98.501 167.2928
788.940760 98.463 167.1967
794.657750 98.422 167.0967
800.416168 98.375 166.9910
806.216313 98.323 166.8780
812.058489 98.265 166.7568
817.943000 98.200 166.6267
823.870152 98.129 166.4879
829.840255 98.050 166.3408
835.853619 97.966 166.1862
841.910559 97.876 166.0255
848.011390 97.780 165.8594
854.156430 97.682 165.6891
860.346000 97.580 165.5156
866.580422 97.476 165.3402
872.860020 97.372 165.1644
879.185124 97.269 164.9896
885.556062 97.167 164.8177
891.973166 97.067 164.6505
898.436771 96.972 164.4895
904.947215 96.882 164.3362
911.504835 96.799 164.1918
918.109975 96.723 164.0576
924.762978 96.656 163.9340
931.464192 96.598 163.8212
938.213966 96.551 163.7187
945.012651 96.514 163.6252
951.860602 96.487 163.5394
958.758176 96.471 163.4591
965.705733 96.464 163.3828
972.703635 96.465 163.3083
979.752246 96.474 163.2339
986.851935 96.491 163.1577
994.003071 96.514 163.0778
1001.206027 96.542 162.9921
1008.461179 96.576 162.8988
1015.768904 96.615 162.7962
1023.129584 96.660 162.6829
1030.543603 96.711 162.5578
1038.011347 96.767 162.4205
1045.533205 96.829 162.2708
1053.109569 96.898 162.1093
1060.740836 96.972 161.9366
1068.427401 97.052 161.7535
1076.169666 97.136 161.5607
1083.968035 97.223 161.3594
1091.822915 97.311 161.1508
1099.734713 97.399 160.9365
1107.703844 97.485 160.7182
1115.730723 97.567 160.4980
1123.815768 97.642 160.2778
1131.959400 97.710 160.0604
1140.162045 97.769 159.8484
1148.424129 97.819 159.6454
1156.746083 97.860 159.4548
1165.128342 97.892 159.2799
1173.571343 97.918 159.1232
1182.075524 97.938 158.9862
1190.641331 97.955 158.8693
1199.269209 97.970 158.7714
1207.959608 97.984 158.6902
1216.712981 97.999 158.6229
1225.529785 98.014 158.5668
1234.410479 98.031 158.5198
1243.355526 98.048 158.4801
1252.365393 98.064 158.4469
1261.440549 98.079 158.4201
1270.581467 98.092 158.4003
1279.788624 98.101 158.3888
1289.062500 98.107 158.3878
1298.403578 98.109 158.3997
1307.812346 98.107 158.4268
1317.289293 98.102 158.4711
1326.834914 98.093 158.5333
1336.449707 98.083 158.6126
1346.134173 98.071 158.7072
1355.888816 98.058 158.8137
1365.714145 98.045 158.9284
1375.610673 98.031 159.0475
1385.578915 98.016 159.1683
1395.619391 97.999 159.2896
1405.732624 97.980 159.4119
1415.919142 97.958 159.5374
1426.179476 97.934 159.6699
1436.514160 97.908 159.8137
1446.923734 97.881 159.9732
1457.408740 97.854 160.1523
1467.969724 97.828 160.3535
1478.607238 97.804 160.5775
1489.321836 97.786 160.8232
1500.114076 97.773 161.0875
1510.984521 97.766 161.3658
1521.933737 97.767 161.6532
1532.962297 97.773 161.9449
1544.070773 97.786 162.2373
1555.259747 97.804 162.5287
1566.529800 97.826 162.8191
1577.881521 97.851 163.1098
1589.315501 97.879 163.4027
1600.832336 97.909 163.6989
1612.432627 97.941 163.9987
1624.116978 97.975 164.3010
1635.886000 98.010 164.6041
1647.740304 98.048 164.9064
1659.680509 98.087 165.2064
1671.707238 98.128 165.5032
1683.821118 98.172 165.7962
1696.022780 98.217 166.0855
1708.312860 98.265 166.3713
1720.692000 98.316 166.6536
1733.160843 98.370 166.9320
1745.720041 98.427 167.2048
1758.370248 98.488 167.4692
1771.112124 98.551 167.7211
1783.946332 98.617 167.9558
1796.873543 98.684 168.1693
1809.894429 98.751 168.3591
1823.009670 98.816 168.5248
1836.219950 98.879 168.6688
1849.525956 98.939 168.7950
1862.928384 98.996 168.9084
1876.427931 99.049 169.0144
1890.025301 99.100 169.1177
1903.721204 99.150 169.2216
1917.516352 99.198 169.3275
1931.411466 99.246 169.4346
1945.407270 99.293 169.5410
1959.504493 99.340 169.6436
1973.703870 99.385 169.7393
1988.006142 99.429 169.8248
2002.412054 99.469 169.8971
2016.922357 99.505 169.9537
2031.537808 99.535 169.9930
2046.259169 99.559 170.0136
2061.087206 99.575 170.0149
2076.022694 99.584 169.9960
2091.066410 99.584 169.9567
2106.219139 99.576 169.8975
2121.481671 99.561 169.8205
2136.854802 99.538 169.7284
2152.339333 99.510 169.6242
2167.936071 99.477 169.5100
2183.645829 99.441 169.3864
2199.469427 99.404 169.2526
2215.407689 99.367 169.1068
2231.461446 99.331 168.9465
2247.631536 99.297 168.7701
2263.918800 99.265 168.5764
2280.324089 99.235 168.3651
2296.848258 99.207 168.1367
2313.492167 99.180 167.8919
2330.256685 99.154 167.6315
2347.142685 99.129 167.3559
2364.151049 99.103 167.0655
2381.282662 99.077 166.7612
2398.538418 99.049 166.4445
2415.919216 99.021 166.1169
2433.425962 98.991 165.7800
2451.059570 98.959 165.4348
2468.820958 98.926 165.0812
2486.711052 98.892 164.7188
2504.730786 98.857 164.3473
2522.881098 98.821 163.9668
2541.162934 98.784 163.5790
2559.577248 98.746 163.1867
2578.125000 98.707 162.7937
2596.807157 98.668 162.4042
2615.624692 98.630 162.0226
2634.578586 98.594 161.6530
2653.669829 98.561 161.2987
2672.899414 98.531 160.9633
2692.268345 98.505 160.6501
2711.777632 98.483 160.3625
2731.428290 98.466 160.1041
2751.221345 98.453 159.8785
2771.157829 98.444 159.6887
2791.238781 98.437 159.5378
2811.465248 98.431 159.4293
2831.838284 98.426 159.3668
2852.358952 98.418 159.3544
2873.028321 98.408 159.3969
2893.847468 98.393 159.4989
2914.817480 98.373 159.6651
2935.939449 98.347 159.8996
2957.214476 98.315 160.2053
2978.643672 98.277 160.5839
3000.228152 98.234 161.0358
3021.969041 98.186 161.5595
3043.867475 98.134 162.1520
3065.924593 98.081 162.8084
3088.141547 98.028 163.5228
3110.519493 97.976 164.2879
3133.059600 97.927 165.0953
3155.763041 97.883 165.9350
3178.631001 97.846 166.7954
3201.664672 97.818 167.6626
3224.865254 97.799 168.5214
3248.233957 97.790 169.3559
3271.771999 97.791 170.1508
3295.480608 97.801 170.8928
3319.361019 97.820 171.5720
3343.414477 97.844 172.1829
3367.642236 97.874 172.7248
3392.045560 97.906 173.2016
3416.625721 97.941 173.6208
3441.383999 97.976 173.9919
3466.321686 98.013 174.3240
3491.440082 98.053 174.6244
3516.740496 98.096 174.8969
3542.224247 98.143 175.1414
3567.892664 98.197 175.3541
3593.747085 98.257 175.5281
3619.788858 98.323 175.6552
3646.019340 98.396 175.7271
3672.439900 98.473 175.7377
3699.051913 98.553 175.6835
3725.856768 98.634 175.5651
3752.855862 98.713 175.3864
3780.050603 98.789 175.1549
3807.442408 98.859 174.8807
3835.032705 98.923 174.5759
3862.822933 98.980 174.2538
3890.814540 99.028 173.9276
3919.008986 99.069 173.6103
3947.407741 99.102 173.3132
3976.012284 99.127 173.0460
4004.824108 99.147 172.8158
4033.844715 99.161 172.6273
4063.075616 99.171 172.4828
4092.518337 99.177 172.3824
4122.174412 99.180 172.3242
4152.045387 99.181 172.3056
4182.132820 99.179 172.3233
4212.438278 99.176 172.3741
4242.963342 99.171 172.4551
4273.709604 99.164 172.5640
4304.678665 99.154 172.6990
4335.872141 99.142 172.8585
4367.291658 99.127 173.0413
4398.938854 99.109 173.2465
4430.815378 99.087 173.4737
4462.922893 99.060 173.7226
4495.263072 99.029 173.9939
4527.837601 98.991 174.2885
4560.648179 98.947 174.6085
4593.696515 98.896 174.9562
4626.984334 98.837 175.3348
4660.513370 98.772 175.7481
4694.285371 98.700 176.2002
4728.302098 98.622 176.6956
4762.565324 98.540 177.2394
4797.076835 98.453 177.8365
4831.838432 98.364 178.4924
4866.851925 98.276 179.2122
4902.119140 98.189 -179.9995
4937.641916 98.106 -179.1385
4973.422105 98.030 -178.2017
5009.461572 97.963 -177.1878
5045.762195 97.909 -176.0968
5082.325868 97.869 -174.9312
5119.154496 97.846 -173.6958
5156.250000 97.842 -172.3981
5193.614313 97.860 -171.0485
5231.249383 97.901 -169.6604
5269.157173 97.966 -168.2497
5307.339658 98.057 -166.8346
5345.798829 98.172 -165.4349
5384.536691 98.312 -164.0709
5423.555263 98.477 -162.7633
5462.856580 98.664 -161.5313
5502.442691 98.873 -160.3928
5542.315659 99.102 -159.3633
5582.477563 99.350 -158.4555
5622.930497 99.615 -157.6797
5663.676569 99.894 -157.0433
5704.717904 100.188 -156.5512
5746.056642 100.493 -156.2062
5787.694937 100.809 -156.0095
5829.634960 101.133 -155.9609
5871.878898 101.464 -156.0592
5914.428953 101.799 -156.3025
5957.287343 102.136 -156.6883
6000.456303 102.473 -157.2131
6043.938083 102.806 -157.8728
6087.734950 103.134 -158.6624
6131.849187 103.453 -159.5763
6176.283094 103.762 -160.6084
6221.038987 104.058 -161.7520
6266.119200 104.338 -163.0001
6311.526083 104.603 -164.3453
6357.262002 104.850 -165.7806
6403.329344 105.079 -167.2991
6449.730508 105.291 -168.8949
6496.467914 105.486 -170.5627
6543.543998 105.664 -172.2996
6590.961215 105.829 -174.1045
6638.722037 105.982 -175.9789
6686.828954 106.124 -177.9272
6735.284473 106.258 -179.9565
6784.091120 106.385 177.9237
6833.251441 106.506 175.7023
6882.767998 106.621 173.3678
6932.643372 106.730 170.9092
6982.880164 106.831 168.3177
7033.480992 106.922 165.5875
7084.448495 107.000 162.7161
7135.785329 107.061 159.7055
7187.494171 107.101 156.5612
7239.577717 107.119 153.2922
7292.038681 107.109 149.9109
7344.879799 107.068 146.4322
7398.103826 106.995 142.8727
7451.713536 106.885 139.2507
7505.711724 106.738 135.5853
7560.101205 106.550 131.8955
7614.884815 106.322 128.1998
7670.065409 106.051 124.5149
7725.645865 105.740 120.8542
7781.629080 105.387 117.2269
7838.017972 104.995 113.6365
7894.815481 104.566 110.0797
7952.024569 104.101 106.5454
8009.648217 103.605 103.0144
8067.689429 103.079 99.4586
8126.151233 102.527 95.8405
8185.036674 101.952 92.1120
8244.348824 101.360 88.2129
8304.090774 100.754 84.0676
8364.265639 100.140 79.5810
8424.876556 99.525 74.6301
8485.926684 98.919 69.0536
8547.419207 98.333 62.6343
8609.357330 97.782 55.0772
8671.744282 97.284 45.9888
8734.583316 96.860 34.8858
8797.877707 96.530 21.3214
8861.630756 96.315 5.2572
8925.845785 96.228 -12.4069
8990.526143 96.272 -29.8812
9055.675202 96.440 -45.5428
9121.296357 96.715 -58.7844
9187.393031 97.074 -69.8121
9253.968668 97.493 -79.1150
9321.026740 97.949 -87.1653
9388.570742 98.419 -94.3358
9456.604196 98.888 -100.9021
9525.130648 99.339 -107.0641
9594.153671 99.760 -112.9662
9663.676863 100.142 -118.7118
9733.703850 100.475 -124.3719
9804.238280 100.751 -129.9928
9875.283832 100.966 -135.5992
9946.844210 101.113 -141.1988
10018.923143 101.191 -146.7849
10091.524390 101.196 -152.3404
10164.651736 101.129 -157.8414
10238.308993 100.992 -163.2603
10312.500000 100.786 -168.5685
10387.228626 100.515 -173.7390
10462.498767 100.183 -178.7475
10538.314345 99.795 176.4261
10614.679315 99.355 171.7977
10691.597657 98.868 167.3777
10769.073381 98.340 163.1719
10847.110526 97.774 159.1808
10925.713161 97.175 155.4008
11004.885382 96.546 151.8248
11084.631318 95.891 148.4430
11164.955126 95.210 145.2438
11245.860993 94.507 142.2147
11327.353138 93.782 139.3412
11409.435808 93.036 136.6071
11492.113283 92.271 133.9916
11575.389873 91.489 131.4675
11659.269920 90.692 128.9977
11743.757796 89.885 126.5319
11828.857906 89.073 124.0045
11914.574686 88.263 121.3331
12000.912606 87.464 118.4193
12087.876166 86.684 115.1526
12175.469900 85.932 111.4158
12263.698373 85.216 107.0934
12352.566187 84.540 102.0820
12442.077974 83.906 96.3016
12532.238400 83.316 89.7130
12623.052165 82.767 82.3379
12714.524005 82.265 74.2866
12806.658687 81.816 65.7794
12899.461015 81.438 57.1436
12992.935827 81.156 48.7716
13087.087996 81.000 41.0363
13181.922430 80.999 34.2071
13277.444074 81.174 28.3983
13373.657907 81.524 23.5657
13470.568945 82.029 19.5396
13568.182241 82.653 16.0760
13666.502883 83.355 12.9097
13765.535996 84.094 9.7988
13865.286744 84.835 6.5527
13965.760328 85.550 3.0444
14066.961984 86.217 -0.7924
14168.896989 86.820 -4.9715
14271.570658 87.348 -9.4655
14374.988342 87.793 -14.2167
14479.155433 88.153 -19.1475
14584.077362 88.426 -24.1710
14689.759598 88.619 -29.1996
14796.207652 88.738 -34.1539
14903.427072 88.795 -38.9689
15011.423448 88.805 -43.6005
15120.202410 88.783 -48.0305
15229.769630 88.748 -52.2711
15340.130819 88.715 -56.3638
15451.291730 88.692 -60.3730
15563.258160 88.683 -64.3730
15676.035944 88.684 -68.4334
15789.630962 88.685 -72.6055
15904.049137 88.671 -76.9144
16019.296433 88.629 -81.3580
16135.378859 88.549 -85.9126
16252.302465 88.424 -90.5414
16370.073348 88.253 -95.2057
16488.697648 88.037 -99.8739
16608.181548 87.784 -104.5277
16728.531278 87.502 -109.1655
16849.753112 87.200 -113.8009
16971.853368 86.885 -118.4589
17094.838414 86.567 -123.1707
17218.714660 86.248 -127.9686
17343.488565 85.932 -132.8828
17469.166632 85.621 -137.9393
17595.755415 85.313 -143.1599
17723.261512 85.007 -148.5630
17851.691571 84.702 -154.1641
17981.052287 84.393 -159.9755
18111.350404 84.079 -166.0052
18242.592715 83.758 -172.2568
18374.786062 83.430 -178.7322
18507.937336 83.101 174.5588
18642.053479 82.783 167.5911
18777.141484 82.490 160.3193
18913.208391 82.237 152.6923
19050.261296 82.033 144.6826
19188.307342 81.881 136.3385
19327.353727 81.774 127.8395
19467.407699 81.703 119.5344
19608.476560 81.654 111.9231
19750.567664 81.621 105.5757
19893.688419 81.599 101.0193
20037.846286 81.588 98.6411
