* Measurement data measured by REW V5.31.3
* Source: EXCL: Headset (USB-C to 3.5mm Headphone Jack Adapter), MICROPHONE (Master Volume), 0, volume: 0.260
* Format: 256k Log Swept Sine, 1 sweep at -12.0 dBFS with no timing reference
* Dated: Feb 14, 2025 8:24:58 PM
* REW Settings:
*  C-weighting compensation: Off
*  Target level: 75.0 dB
* Note: ; 
* Measurement: Satyr 3 L7
* Smoothing: 1/6 octave
* Frequency Step: 96 ppo
* Start Frequency: 20.0 Hz
*
* Freq(Hz) SPL(dB) Phase(degrees)
20.141602 91.593 -24.3320
20.287556 91.607 -24.5716
20.434568 91.623 -24.8906
20.582645 91.640 -25.2779
20.731796 91.655 -25.7218
20.882027 91.666 -26.2107
21.033346 91.672 -26.7342
21.185763 91.672 -27.2834
21.339284 91.665 -27.8512
21.493917 91.652 -28.4321
21.649671 91.633 -29.0224
21.806553 91.612 -29.6195
21.964572 91.588 -30.2217
22.123737 91.563 -30.8282
22.284054 91.539 -31.4385
22.445534 91.518 -32.0525
22.608183 91.500 -32.6699
22.772012 91.488 -33.2908
22.937027 91.481 -33.9149
23.103238 91.482 -34.5420
23.270654 91.491 -35.1722
23.439282 91.509 -35.8055
23.609133 91.536 -36.4421
23.780215 91.575 -37.0825
23.952536 91.624 -37.7274
24.126106 91.685 -38.3775
24.300934 91.758 -39.0335
24.477028 91.841 -39.6961
24.654399 91.935 -40.3655
24.833055 92.037 -41.0413
25.013005 92.147 -41.7227
25.194260 92.261 -42.4082
25.376828 92.378 -43.0956
25.560719 92.496 -43.7825
25.745942 92.613 -44.4663
25.932508 92.727 -45.1445
26.120426 92.837 -45.8151
26.309705 92.941 -46.4768
26.500356 93.039 -47.1292
26.692388 93.131 -47.7732
26.885812 93.216 -48.4103
27.080638 93.295 -49.0430
27.276876 93.368 -49.6741
27.474535 93.436 -50.3067
27.673627 93.501 -50.9435
27.874161 93.565 -51.5863
28.076149 93.630 -52.2365
28.279600 93.698 -52.8941
28.484526 93.773 -53.5583
28.690937 93.858 -54.2277
28.898843 93.955 -54.9002
29.108256 94.068 -55.5739
29.319186 94.196 -56.2468
29.531645 94.342 -56.9174
29.745644 94.503 -57.5848
29.961193 94.677 -58.2487
30.178304 94.862 -58.9091
30.396989 95.052 -59.5668
30.617258 95.242 -60.2227
30.839123 95.428 -60.8778
31.062596 95.604 -61.5333
31.287688 95.765 -62.1906
31.514412 95.907 -62.8510
31.742778 96.026 -63.5157
31.972800 96.120 -64.1856
32.204488 96.187 -64.8615
32.437855 96.225 -65.5434
32.672913 96.234 -66.2306
32.909674 96.215 -66.9214
33.148151 96.169 -67.6137
33.388356 96.099 -68.3043
33.630302 96.008 -68.9900
33.874001 95.898 -69.6678
34.119466 95.774 -70.3352
34.366710 95.640 -70.9909
34.615745 95.501 -71.6347
34.866585 95.362 -72.2673
35.119243 95.225 -72.8908
35.373731 95.097 -73.5075
35.630064 94.981 -74.1199
35.888254 94.879 -74.7302
36.148315 94.795 -75.3402
36.410261 94.733 -75.9510
36.674104 94.692 -76.5628
36.939860 94.675 -77.1755
37.207542 94.683 -77.7886
37.477163 94.715 -78.4013
37.748738 94.772 -79.0128
38.022281 94.852 -79.6223
38.297806 94.955 -80.2291
38.575327 95.079 -80.8331
38.854860 95.223 -81.4345
39.136419 95.386 -82.0341
39.420017 95.566 -82.6333
39.705671 95.762 -83.2339
39.993395 95.973 -83.8378
40.283203 96.199 -84.4469
40.575112 96.437 -85.0625
40.869136 96.688 -85.6853
41.165290 96.949 -86.3155
41.463591 97.218 -86.9525
41.764053 97.494 -87.5956
42.066693 97.775 -88.2437
42.371525 98.058 -88.8961
42.678567 98.340 -89.5524
42.987834 98.618 -90.2124
43.299341 98.891 -90.8761
43.613106 99.156 -91.5436
43.929145 99.411 -92.2154
44.247473 99.653 -92.8917
44.568109 99.881 -93.5731
44.891068 100.095 -94.2598
45.216367 100.293 -94.9521
45.544023 100.474 -95.6497
45.874054 100.639 -96.3523
46.206476 100.786 -97.0588
46.541307 100.916 -97.7684
46.878565 101.029 -98.4800
47.218266 101.125 -99.1932
47.560429 101.205 -99.9081
47.905072 101.270 -100.6251
48.252212 101.320 -101.3450
48.601867 101.357 -102.0688
48.954056 101.382 -102.7967
49.308798 101.397 -103.5286
49.666109 101.403 -104.2638
50.026010 101.401 -105.0011
50.388520 101.394 -105.7393
50.753656 101.384 -106.4776
51.121437 101.373 -107.2155
51.491884 101.361 -107.9534
51.865016 101.351 -108.6917
52.240851 101.343 -109.4311
52.619410 101.338 -110.1722
53.000712 101.337 -110.9154
53.384777 101.338 -111.6604
53.771625 101.341 -112.4070
54.161276 101.346 -113.1548
54.553751 101.351 -113.9034
54.949070 101.357 -114.6525
55.347254 101.361 -115.4021
55.748323 101.364 -116.1518
56.152298 101.365 -116.9013
56.559201 101.363 -117.6501
56.969052 101.358 -118.3974
57.381873 101.350 -119.1421
57.797686 101.338 -119.8831
58.216512 101.322 -120.6199
58.638373 101.304 -121.3525
59.063291 101.281 -122.0818
59.491288 101.256 -122.8093
59.922386 101.227 -123.5370
60.356608 101.196 -124.2667
60.793977 101.162 -125.0000
61.234515 101.127 -125.7378
61.678246 101.090 -126.4803
62.125192 101.053 -127.2272
62.575377 101.015 -127.9775
63.028824 100.978 -128.7297
63.485557 100.941 -129.4819
63.945599 100.906 -130.2326
64.408975 100.871 -130.9800
64.875709 100.839 -131.7229
65.345825 100.808 -132.4604
65.819348 100.779 -133.1917
66.296302 100.752 -133.9165
66.776713 100.727 -134.6346
67.260604 100.704 -135.3459
67.748002 100.683 -136.0504
68.238932 100.664 -136.7482
68.733420 100.646 -137.4392
69.231490 100.630 -138.1238
69.733170 100.615 -138.8023
70.238485 100.601 -139.4752
70.747463 100.588 -140.1428
71.260128 100.575 -140.8056
71.776508 100.563 -141.4639
72.296630 100.552 -142.1177
72.820521 100.541 -142.7670
73.348209 100.531 -143.4115
73.879720 100.521 -144.0509
74.415083 100.512 -144.6852
74.954326 100.502 -145.3144
75.497475 100.492 -145.9387
76.044561 100.481 -146.5582
76.595612 100.470 -147.1729
77.150655 100.456 -147.7827
77.709720 100.441 -148.3877
78.272837 100.423 -148.9876
78.840034 100.403 -149.5823
79.411342 100.378 -150.1714
79.986789 100.350 -150.7547
80.566406 100.318 -151.3317
81.150224 100.282 -151.9019
81.738272 100.242 -152.4649
82.330581 100.199 -153.0203
82.927182 100.154 -153.5682
83.528107 100.107 -154.1086
84.133386 100.061 -154.6420
84.743051 100.018 -155.1686
85.357134 99.980 -155.6889
85.975667 99.951 -156.2034
86.598682 99.934 -156.7123
87.226212 99.932 -157.2157
87.858289 99.949 -157.7139
88.494946 99.988 -158.2068
89.136217 100.050 -158.6945
89.782135 100.136 -159.1770
90.432733 100.246 -159.6544
91.088046 100.378 -160.1267
91.748108 100.527 -160.5940
92.412952 100.690 -161.0564
93.082615 100.862 -161.5138
93.757130 101.037 -161.9660
94.436533 101.209 -162.4128
95.120859 101.373 -162.8540
95.810144 101.527 -163.2896
96.504423 101.665 -163.7193
97.203734 101.788 -164.1434
97.908112 101.892 -164.5617
98.617595 101.979 -164.9743
99.332219 102.050 -165.3810
100.052021 102.106 -165.7819
100.777039 102.148 -166.1770
101.507311 102.180 -166.5662
102.242875 102.204 -166.9497
102.983769 102.220 -167.3278
103.730032 102.231 -167.7007
104.481702 102.238 -168.0686
105.238820 102.239 -168.4314
106.001424 102.235 -168.7893
106.769554 102.224 -169.1421
107.543250 102.206 -169.4899
108.322553 102.177 -169.8327
109.107503 102.138 -170.1707
109.898141 102.086 -170.5043
110.694508 102.021 -170.8340
111.496646 101.942 -171.1601
112.304596 101.850 -171.4829
113.118402 101.745 -171.8026
113.938104 101.630 -172.1189
114.763747 101.507 -172.4318
115.595372 101.377 -172.7412
116.433024 101.243 -173.0472
117.276746 101.106 -173.3497
118.126581 100.970 -173.6487
118.982575 100.835 -173.9442
119.844772 100.702 -174.2361
120.713217 100.572 -174.5244
121.587954 100.445 -174.8090
122.469031 100.320 -175.0903
123.356492 100.197 -175.3687
124.250384 100.073 -175.6443
125.150753 99.947 -175.9176
126.057647 99.818 -176.1885
126.971113 99.685 -176.4571
127.891198 99.546 -176.7234
128.817950 99.400 -176.9872
129.751418 99.247 -177.2483
130.691651 99.088 -177.5065
131.638696 98.922 -177.7614
132.592604 98.752 -178.0120
133.553425 98.580 -178.2573
134.521208 98.408 -178.4960
135.496004 98.238 -178.7268
136.477864 98.075 -178.9481
137.466839 97.921 -179.1585
138.462981 97.781 -179.3570
139.466340 97.656 -179.5426
140.476971 97.548 -179.7149
141.494925 97.460 -179.8739
142.520256 97.390 179.9800
143.553016 97.337 179.8458
144.593260 97.298 179.7225
145.641043 97.271 179.6087
146.696418 97.251 179.5031
147.759441 97.235 179.4046
148.830166 97.218 179.3123
149.908651 97.197 179.2258
150.994951 97.171 179.1453
152.089123 97.139 179.0715
153.191223 97.098 179.0056
154.301310 97.052 178.9490
155.419441 96.999 178.9036
156.545674 96.942 178.8708
157.680069 96.883 178.8524
158.822683 96.823 178.8495
159.973578 96.764 178.8631
161.132813 96.708 178.8940
162.300447 96.656 178.9426
163.476543 96.609 179.0090
164.661162 96.567 179.0927
165.854364 96.532 179.1928
167.056213 96.504 179.3077
168.266772 96.483 179.4354
169.486102 96.471 179.5731
170.714268 96.467 179.7177
171.951334 96.473 179.8655
173.197364 96.487 -179.9873
174.452424 96.510 -179.8446
175.716578 96.541 -179.7105
176.989893 96.579 -179.5885
178.272434 96.624 -179.4818
179.564270 96.672 -179.3931
180.865467 96.724 -179.3242
182.176092 96.776 -179.2765
183.496216 96.827 -179.2505
184.825905 96.877 -179.2461
186.165229 96.924 -179.2626
187.514259 96.967 -179.2990
188.873065 97.008 -179.3538
190.241717 97.044 -179.4254
191.620287 97.078 -179.5118
193.008847 97.109 -179.6111
194.407468 97.139 -179.7212
195.816225 97.166 -179.8404
197.235190 97.191 -179.9668
198.664438 97.215 179.9011
200.104042 97.236 179.7644
201.554078 97.254 179.6243
203.014622 97.270 179.4817
204.485750 97.281 179.3376
205.967538 97.289 179.1929
207.460064 97.292 179.0485
208.963405 97.290 178.9052
210.477640 97.284 178.7636
212.002848 97.274 178.6245
213.539108 97.261 178.4883
215.086500 97.244 178.3557
216.645105 97.225 178.2268
218.215005 97.203 178.1021
219.796281 97.179 177.9815
221.389015 97.152 177.8651
222.993292 97.123 177.7529
224.609193 97.090 177.6447
226.236804 97.054 177.5403
227.876209 97.012 177.4394
229.527494 96.966 177.3418
231.190745 96.915 177.2473
232.866048 96.858 177.1555
234.553491 96.796 177.0663
236.253163 96.729 176.9794
237.965150 96.659 176.8947
239.689544 96.586 176.8123
241.426433 96.511 176.7321
243.175909 96.434 176.6541
244.938062 96.358 176.5786
246.712984 96.282 176.5054
248.500768 96.208 176.4345
250.301507 96.137 176.3657
252.115295 96.069 176.2990
253.942226 96.006 176.2339
255.782396 95.946 176.1704
257.635901 95.892 176.1084
259.502837 95.844 176.0476
261.383301 95.803 175.9882
263.277392 95.767 175.9303
265.185209 95.739 175.8740
267.106850 95.717 175.8196
269.042417 95.701 175.7674
270.992009 95.692 175.7176
272.955729 95.688 175.6704
274.933678 95.689 175.6259
276.925961 95.694 175.5839
278.932681 95.702 175.5442
280.953942 95.714 175.5065
282.989850 95.727 175.4705
285.040511 95.743 175.4359
287.106032 95.762 175.4024
289.186521 95.785 175.3699
291.282086 95.811 175.3380
293.392836 95.843 175.3068
295.518881 95.880 175.2762
297.660333 95.924 175.2466
299.817302 95.973 175.2179
301.989902 96.027 175.1905
304.178245 96.084 175.1644
306.382446 96.144 175.1400
308.602620 96.204 175.1170
310.838882 96.262 175.0957
313.091348 96.318 175.0760
315.360137 96.369 175.0577
317.645367 96.413 175.0410
319.947156 96.451 175.0254
322.265625 96.480 175.0110
324.600895 96.500 174.9975
326.953086 96.511 174.9849
329.322323 96.512 174.9730
331.708729 96.502 174.9618
334.112427 96.482 174.9511
336.533543 96.451 174.9410
338.972204 96.411 174.9314
341.428536 96.362 174.9225
343.902668 96.304 174.9145
346.394729 96.239 174.9074
348.904848 96.169 174.9017
351.433156 96.095 174.8973
353.979786 96.020 174.8945
356.544869 95.947 174.8933
359.128540 95.877 174.8936
361.730934 95.815 174.8952
364.352185 95.762 174.8979
366.992431 95.722 174.9014
369.651810 95.697 174.9055
372.330459 95.689 174.9097
375.028519 95.699 174.9139
377.746130 95.727 174.9178
380.483434 95.772 174.9213
383.240574 95.833 174.9243
386.017693 95.908 174.9268
388.814937 95.994 174.9287
391.632450 96.088 174.9301
394.470380 96.188 174.9309
397.328875 96.291 174.9311
400.208084 96.394 174.9307
403.108157 96.496 174.9297
406.029245 96.596 174.9283
408.971500 96.693 174.9265
411.935076 96.786 174.9246
414.920127 96.876 174.9232
417.926810 96.964 174.9226
420.955280 97.049 174.9234
424.005695 97.133 174.9260
427.078215 97.217 174.9307
430.173000 97.301 174.9377
433.290211 97.386 174.9471
436.430010 97.471 174.9588
439.592562 97.556 174.9726
442.778031 97.639 174.9883
445.986583 97.720 175.0058
449.218386 97.798 175.0248
452.473607 97.869 175.0450
455.752418 97.933 175.0662
459.054987 97.988 175.0882
462.381489 98.034 175.1109
465.732096 98.070 175.1342
469.106983 98.095 175.1582
472.506325 98.110 175.1829
475.930301 98.115 175.2084
479.379088 98.111 175.2348
482.852867 98.100 175.2624
486.351817 98.082 175.2915
489.876123 98.058 175.3223
493.425968 98.030 175.3553
497.001536 97.998 175.3907
500.603014 97.963 175.4285
504.230589 97.925 175.4687
507.884452 97.884 175.5109
511.564792 97.842 175.5547
515.271802 97.797 175.5995
519.005673 97.751 175.6450
522.766602 97.705 175.6905
526.554785 97.659 175.7356
530.370418 97.615 175.7799
534.213700 97.576 175.8231
538.084833 97.542 175.8648
541.984018 97.516 175.9048
545.911457 97.499 175.9428
549.867357 97.492 175.9789
553.851922 97.495 176.0126
557.865362 97.507 176.0439
561.907884 97.526 176.0723
565.979700 97.552 176.0978
570.081022 97.581 176.1203
574.212064 97.613 176.1400
578.373042 97.643 176.1571
582.564171 97.671 176.1718
586.785671 97.696 176.1842
591.037762 97.715 176.1942
595.320665 97.728 176.2018
599.634604 97.735 176.2070
603.979804 97.735 176.2101
608.356491 97.728 176.2113
612.764893 97.714 176.2112
617.205240 97.696 176.2100
621.677763 97.673 176.2080
626.182696 97.647 176.2050
630.720274 97.621 176.2005
635.290733 97.596 176.1938
639.894312 97.573 176.1844
644.531250 97.555 176.1713
649.201789 97.544 176.1540
653.906173 97.539 176.1322
658.644647 97.542 176.1057
663.417457 97.552 176.0744
668.224854 97.569 176.0384
673.067086 97.592 175.9977
677.944408 97.620 175.9523
682.857073 97.650 175.9020
687.805336 97.681 175.8462
692.789457 97.712 175.7844
697.809695 97.740 175.7161
702.866312 97.766 175.6409
707.959571 97.787 175.5588
713.089738 97.804 175.4703
718.257080 97.816 175.3760
723.461867 97.823 175.2766
728.704370 97.825 175.1728
733.984862 97.823 175.0653
739.303619 97.818 174.9545
744.660918 97.810 174.8407
750.057038 97.800 174.7240
755.492260 97.789 174.6044
760.966869 97.777 174.4820
766.481148 97.764 174.3563
772.035387 97.750 174.2269
777.629873 97.734 174.0934
783.264900 97.715 173.9554
788.940760 97.693 173.8124
794.657750 97.667 173.6644
800.416168 97.636 173.5111
806.216313 97.599 173.3525
812.058489 97.555 173.1881
817.943000 97.505 173.0177
823.870152 97.448 172.8411
829.840255 97.384 172.6583
835.853619 97.315 172.4693
841.910559 97.241 172.2742
848.011390 97.164 172.0732
854.156430 97.083 171.8661
860.346000 97.000 171.6529
866.580422 96.917 171.4334
872.860020 96.835 171.2076
879.185124 96.754 170.9755
885.556062 96.676 170.7372
891.973166 96.601 170.4930
898.436771 96.532 170.2428
904.947215 96.468 169.9869
911.504835 96.411 169.7254
918.109975 96.362 169.4585
924.762978 96.320 169.1867
931.464192 96.287 168.9108
938.213966 96.263 168.6317
945.012651 96.247 168.3501
951.860602 96.239 168.0667
958.758176 96.238 167.7815
965.705733 96.245 167.4948
972.703635 96.257 167.2069
979.752246 96.274 166.9189
986.851935 96.295 166.6322
994.003071 96.319 166.3486
1001.206027 96.348 166.0696
1008.461179 96.380 165.7959
1015.768904 96.416 165.5270
1023.129584 96.457 165.2612
1030.543603 96.504 164.9959
1038.011347 96.557 164.7284
1045.533205 96.617 164.4562
1053.109569 96.683 164.1780
1060.740836 96.756 163.8936
1068.427401 96.834 163.6033
1076.169666 96.917 163.3081
1083.968035 97.004 163.0089
1091.822915 97.094 162.7064
1099.734713 97.184 162.4008
1107.703844 97.273 162.0919
1115.730723 97.358 161.7798
1123.815768 97.439 161.4646
1131.959400 97.512 161.1471
1140.162045 97.578 160.8286
1148.424129 97.635 160.5112
1156.746083 97.683 160.1971
1165.128342 97.723 159.8885
1173.571343 97.756 159.5876
1182.075524 97.783 159.2956
1190.641331 97.804 159.0137
1199.269209 97.823 158.7427
1207.959608 97.839 158.4831
1216.712981 97.854 158.2354
1225.529785 97.868 157.9998
1234.410479 97.882 157.7767
1243.355526 97.894 157.5661
1252.365393 97.906 157.3683
1261.440549 97.916 157.1835
1270.581467 97.924 157.0117
1279.788624 97.930 156.8526
1289.062500 97.933 156.7050
1298.403578 97.932 156.5670
1307.812346 97.929 156.4363
1317.289293 97.923 156.3109
1326.834914 97.914 156.1895
1336.449707 97.901 156.0712
1346.134173 97.886 155.9562
1355.888816 97.867 155.8448
1365.714145 97.845 155.7371
1375.610673 97.820 155.6331
1385.578915 97.792 155.5338
1395.619391 97.760 155.4405
1405.732624 97.725 155.3557
1415.919142 97.685 155.2820
1426.179476 97.643 155.2219
1436.514160 97.599 155.1775
1446.923734 97.553 155.1499
1457.408740 97.506 155.1397
1467.969724 97.461 155.1466
1478.607238 97.417 155.1699
1489.321836 97.377 155.2083
1500.114076 97.340 155.2598
1510.984521 97.307 155.3227
1521.933737 97.278 155.3949
1532.962297 97.253 155.4752
1544.070773 97.231 155.5627
1555.259747 97.213 155.6570
1566.529800 97.196 155.7583
1577.881521 97.181 155.8672
1589.315501 97.166 155.9859
1600.832336 97.151 156.1180
1612.432627 97.135 156.2676
1624.116978 97.119 156.4390
1635.886000 97.102 156.6355
1647.740304 97.085 156.8583
1659.680509 97.070 157.1067
1671.707238 97.057 157.3779
1683.821118 97.046 157.6675
1696.022780 97.040 157.9702
1708.312860 97.036 158.2809
1720.692000 97.036 158.5956
1733.160843 97.040 158.9119
1745.720041 97.045 159.2289
1758.370248 97.053 159.5474
1771.112124 97.061 159.8697
1783.946332 97.070 160.1998
1796.873543 97.079 160.5430
1809.894429 97.088 160.9046
1823.009670 97.097 161.2883
1836.219950 97.107 161.6949
1849.525956 97.118 162.1224
1862.928384 97.132 162.5670
1876.427931 97.150 163.0242
1890.025301 97.170 163.4894
1903.721204 97.195 163.9577
1917.516352 97.223 164.4237
1931.411466 97.255 164.8821
1945.407270 97.290 165.3287
1959.504493 97.328 165.7613
1973.703870 97.366 166.1785
1988.006142 97.404 166.5787
2002.412054 97.442 166.9595
2016.922357 97.477 167.3182
2031.537808 97.509 167.6523
2046.259169 97.536 167.9599
2061.087206 97.559 168.2399
2076.022694 97.575 168.4915
2091.066410 97.586 168.7142
2106.219139 97.590 168.9075
2121.481671 97.590 169.0709
2136.854802 97.585 169.2033
2152.339333 97.577 169.3036
2167.936071 97.566 169.3701
2183.645829 97.554 169.4010
2199.469427 97.540 169.3953
2215.407689 97.526 169.3534
2231.461446 97.512 169.2774
2247.631536 97.497 169.1710
2263.918800 97.482 169.0388
2280.324089 97.466 168.8860
2296.848258 97.450 168.7174
2313.492167 97.434 168.5375
2330.256685 97.417 168.3494
2347.142685 97.400 168.1547
2364.151049 97.383 167.9539
2381.282662 97.366 167.7462
2398.538418 97.348 167.5305
2415.919216 97.331 167.3051
2433.425962 97.313 167.0687
2451.059570 97.295 166.8203
2468.820958 97.277 166.5592
2486.711052 97.257 166.2857
2504.730786 97.238 166.0002
2522.881098 97.218 165.7031
2541.162934 97.198 165.3947
2559.577248 97.179 165.0753
2578.125000 97.160 164.7454
2596.807157 97.141 164.4062
2615.624692 97.124 164.0600
2634.578586 97.108 163.7102
2653.669829 97.093 163.3623
2672.899414 97.080 163.0230
2692.268345 97.068 162.7006
2711.777632 97.058 162.4039
2731.428290 97.049 162.1421
2751.221345 97.043 161.9236
2771.157829 97.039 161.7560
2791.238781 97.036 161.6454
2811.465248 97.035 161.5962
2831.838284 97.036 161.6116
2852.358952 97.036 161.6935
2873.028321 97.036 161.8430
2893.847468 97.035 162.0602
2914.817480 97.032 162.3450
2935.939449 97.026 162.6964
2957.214476 97.017 163.1132
2978.643672 97.005 163.5930
3000.228152 96.990 164.1326
3021.969041 96.974 164.7272
3043.867475 96.957 165.3699
3065.924593 96.941 166.0512
3088.141547 96.926 166.7590
3110.519493 96.915 167.4791
3133.059600 96.908 168.1960
3155.763041 96.905 168.8936
3178.631001 96.907 169.5576
3201.664672 96.912 170.1764
3224.865254 96.920 170.7429
3248.233957 96.930 171.2552
3271.771999 96.939 171.7167
3295.480608 96.946 172.1362
3319.361019 96.951 172.5266
3343.414477 96.953 172.9036
3367.642236 96.953 173.2836
3392.045560 96.952 173.6823
3416.625721 96.953 174.1116
3441.383999 96.959 174.5779
3466.321686 96.973 175.0804
3491.440082 96.999 175.6104
3516.740496 97.040 176.1514
3542.224247 97.099 176.6805
3567.892664 97.176 177.1708
3593.747085 97.272 177.5940
3619.788858 97.385 177.9241
3646.019340 97.511 178.1397
3672.439900 97.648 178.2260
3699.051913 97.790 178.1757
3725.856768 97.934 177.9891
3752.855862 98.074 177.6730
3780.050603 98.208 177.2395
3807.442408 98.332 176.7045
3835.032705 98.444 176.0862
3862.822933 98.542 175.4038
3890.814540 98.624 174.6767
3919.008986 98.691 173.9238
3947.407741 98.741 173.1631
3976.012284 98.776 172.4109
4004.824108 98.795 171.6821
4033.844715 98.799 170.9893
4063.075616 98.790 170.3436
4092.518337 98.767 169.7543
4122.174412 98.732 169.2294
4152.045387 98.687 168.7756
4182.132820 98.631 168.3983
4212.438278 98.567 168.1019
4242.963342 98.496 167.8899
4273.709604 98.418 167.7648
4304.678665 98.335 167.7281
4335.872141 98.247 167.7807
4367.291658 98.157 167.9223
4398.938854 98.064 168.1512
4430.815378 97.970 168.4646
4462.922893 97.876 168.8582
4495.263072 97.780 169.3264
4527.837601 97.685 169.8633
4560.648179 97.589 170.4625
4593.696515 97.493 171.1183
4626.984334 97.397 171.8260
4660.513370 97.299 172.5828
4694.285371 97.201 173.3874
4728.302098 97.103 174.2407
4762.565324 97.005 175.1449
4797.076835 96.908 176.1037
4831.838432 96.814 177.1212
4866.851925 96.726 178.2016
4902.119140 96.644 179.3483
4937.641916 96.571 -179.4364
4973.422105 96.511 -178.1523
5009.461572 96.466 -176.8010
5045.762195 96.439 -175.3866
5082.325868 96.432 -173.9159
5119.154496 96.447 -172.3980
5156.250000 96.488 -170.8452
5193.614313 96.554 -169.2719
5231.249383 96.648 -167.6950
5269.157173 96.769 -166.1335
5307.339658 96.919 -164.6076
5345.798829 97.095 -163.1381
5384.536691 97.298 -161.7460
5423.555263 97.526 -160.4515
5462.856580 97.778 -159.2740
5502.442691 98.051 -158.2313
5542.315659 98.344 -157.3392
5582.477563 98.655 -156.6121
5622.930497 98.981 -156.0616
5663.676569 99.320 -155.6973
5704.717904 99.670 -155.5262
5746.056642 100.027 -155.5532
5787.694937 100.389 -155.7806
5829.634960 100.752 -156.2084
5871.878898 101.113 -156.8344
5914.428953 101.468 -157.6541
5957.287343 101.814 -158.6605
6000.456303 102.146 -159.8441
6043.938083 102.461 -161.1926
6087.734950 102.755 -162.6910
6131.849187 103.025 -164.3214
6176.283094 103.266 -166.0635
6221.038987 103.477 -167.8943
6266.119200 103.656 -169.7889
6311.526083 103.801 -171.7216
6357.262002 103.912 -173.6662
6403.329344 103.990 -175.5974
6449.730508 104.037 -177.4918
6496.467914 104.054 -179.3287
6543.543998 104.046 178.9085
6590.961215 104.016 177.2318
6638.722037 103.970 175.6476
6686.828954 103.912 174.1564
6735.284473 103.849 172.7521
6784.091120 103.786 171.4222
6833.251441 103.729 170.1484
6882.767998 103.682 168.9076
6932.643372 103.649 167.6735
6982.880164 103.632 166.4191
7033.480992 103.632 165.1179
7084.448495 103.649 163.7452
7135.785329 103.683 162.2798
7187.494171 103.730 160.7032
7239.577717 103.789 158.9995
7292.038681 103.856 157.1553
7344.879799 103.928 155.1588
7398.103826 103.999 152.9994
7451.713536 104.067 150.6674
7505.711724 104.126 148.1549
7560.101205 104.169 145.4562
7614.884815 104.192 142.5686
7670.065409 104.188 139.4940
7725.645865 104.150 136.2395
7781.629080 104.073 132.8180
7838.017972 103.950 129.2477
7894.815481 103.779 125.5515
7952.024569 103.554 121.7545
8009.648217 103.274 117.8824
8067.689429 102.939 113.9582
8126.151233 102.549 109.9999
8185.036674 102.106 106.0178
8244.348824 101.612 102.0120
8304.090774 101.073 97.9701
8364.265639 100.491 93.8655
8424.876556 99.874 89.6541
8485.926684 99.227 85.2729
8547.419207 98.557 80.6348
8609.357330 97.872 75.6242
8671.744282 97.182 70.0878
8734.583316 96.498 63.8210
8797.877707 95.832 56.5492
8861.630756 95.200 47.9073
8925.845785 94.621 37.4390
8990.526143 94.114 24.6840
9055.675202 93.702 9.4769
9121.296357 93.403 -7.5392
9187.393031 93.231 -24.7506
9253.968668 93.191 -40.4175
9321.026740 93.277 -53.6824
9388.570742 93.473 -64.6003
9456.604196 93.756 -73.6254
9525.130648 94.102 -81.2500
9594.153671 94.485 -87.8813
9663.676863 94.882 -93.8273
9733.703850 95.273 -99.3135
9804.238280 95.641 -104.5028
9875.283832 95.971 -109.5079
9946.844210 96.249 -114.4008
10018.923143 96.466 -119.2183
10091.524390 96.612 -123.9674
10164.651736 96.682 -128.6301
10238.308993 96.675 -133.1699
10312.500000 96.588 -137.5390
10387.228626 96.427 -141.6847
10462.498767 96.197 -145.5560
10538.314345 95.905 -149.1084
10614.679315 95.561 -152.3074
10691.597657 95.176 -155.1316
10769.073381 94.763 -157.5753
10847.110526 94.335 -159.6508
10925.713161 93.905 -161.3908
11004.885382 93.485 -162.8496
11084.631318 93.087 -164.1014
11164.955126 92.717 -165.2350
11245.860993 92.378 -166.3450
11327.353138 92.069 -167.5197
11409.435808 91.780 -168.8290
11492.113283 91.502 -170.3157
11575.389873 91.218 -171.9911
11659.269920 90.916 -173.8372
11743.757796 90.584 -175.8126
11828.857906 90.213 -177.8620
11914.574686 89.797 -179.9241
12000.912606 89.333 178.0629
12087.876166 88.822 176.1595
12175.469900 88.263 174.4263
12263.698373 87.659 172.9269
12352.566187 87.012 171.7329
12442.077974 86.324 170.9246
12532.238400 85.601 170.5872
12623.052165 84.848 170.7988
12714.524005 84.075 171.6066
12806.658687 83.295 172.9996
12899.461015 82.522 174.8879
12992.935827 81.774 177.1082
13087.087996 81.066 179.4613
13181.922430 80.417 -178.2318
13277.444074 79.842 -176.0800
13373.657907 79.358 -174.0870
13470.568945 78.982 -172.1189
13568.182241 78.729 -169.8440
13666.502883 78.614 -166.5911
13765.535996 78.643 -161.0115
13865.286744 78.818 -150.3841
13965.760328 79.126 -130.5486
14066.961984 79.542 -103.4478
14168.896989 80.035 -82.8469
14271.570658 80.568 -72.8561
14374.988342 81.108 -69.4321
14479.155433 81.625 -69.5608
14584.077362 82.095 -71.7140
14689.759598 82.500 -75.0999
14796.207652 82.827 -79.2675
14903.427072 83.065 -83.9319
15011.423448 83.209 -88.8937
15120.202410 83.254 -93.9998
15229.769630 83.201 -99.1243
15340.130819 83.049 -104.1595
15451.291730 82.802 -109.0138
15563.258160 82.468 -113.6123
15676.035944 82.054 -117.8970
15789.630962 81.568 -121.8253
15904.049137 81.021 -125.3691
16019.296433 80.423 -128.5157
16135.378859 79.785 -131.2684
16252.302465 79.117 -133.6490
16370.073348 78.432 -135.6959
16488.697648 77.740 -137.4594
16608.181548 77.052 -138.9927
16728.531278 76.375 -140.3445
16849.753112 75.720 -141.5547
16971.853368 75.094 -142.6593
17094.838414 74.509 -143.6996
17218.714660 73.977 -144.7336
17343.488565 73.510 -145.8424
17469.166632 73.119 -147.1287
17595.755415 72.808 -148.7047
17723.261512 72.573 -150.6739
17851.691571 72.401 -153.1135
17981.052287 72.276 -156.0629
18111.350404 72.174 -159.5201
18242.592715 72.077 -163.4457
18374.786062 71.965 -167.7675
18507.937336 71.827 -172.3855
18642.053479 71.653 -177.1750
18777.141484 71.441 178.0100
18913.208391 71.192 173.3306
19050.261296 70.915 168.9478
19188.307342 70.621 164.9969
19327.353727 70.327 161.5611
19467.407699 70.051 158.6626
19608.476560 69.810 156.2899
19750.567664 69.617 154.4430
19893.688419 69.484 153.1581
20037.846286 69.415 152.4937
