* Measurement data measured by REW V5.31.3
* Source: EXCL: Headset (USB-C to 3.5mm Headphone Jack Adapter), MICROPHONE (Master Volume), 0, volume: 0.750
* Format: 256k Log Swept Sine, 1 sweep at -12.0 dBFS with no timing reference
* Dated: Apr 7, 2025 4:51:09 PM
* REW Settings:
*  C-weighting compensation: Off
*  Target level: 75.0 dB
* Note: ; 
* Measurement: Satyr 3 (Forward) R10
* Smoothing: 1/6 octave
* Frequency Step: 96 ppo
* Start Frequency: 20.0 Hz
*
* Freq(Hz) SPL(dB) Phase(degrees)
20.187378 79.844 -98.7324
20.333664 79.867 -98.9290
20.481010 79.898 -99.1844
20.629424 79.937 -99.4812
20.778913 79.982 -99.8010
20.929486 80.033 -100.1270
21.081150 80.091 -100.4453
21.233912 80.156 -100.7471
21.387782 80.229 -101.0285
21.542767 80.310 -101.2918
21.698874 80.399 -101.5442
21.856113 80.496 -101.7973
22.014492 80.600 -102.0656
22.174018 80.710 -102.3643
22.334700 80.822 -102.7077
22.496546 80.936 -103.1071
22.659566 81.047 -103.5698
22.823766 81.154 -104.0978
22.989157 81.253 -104.6880
23.155745 81.343 -105.3319
23.323542 81.422 -106.0169
23.492554 81.490 -106.7271
23.662790 81.547 -107.4452
23.834261 81.594 -108.1535
24.006973 81.634 -108.8356
24.180938 81.668 -109.4782
24.356163 81.699 -110.0714
24.532658 81.730 -110.6102
24.710431 81.762 -111.0938
24.889493 81.797 -111.5257
25.069853 81.836 -111.9123
25.251519 81.879 -112.2621
25.434502 81.924 -112.5839
25.618811 81.971 -112.8857
25.804456 82.019 -113.1740
25.991445 82.064 -113.4530
26.179790 82.106 -113.7253
26.369500 82.143 -113.9917
26.560584 82.175 -114.2526
26.753053 82.202 -114.5084
26.946917 82.223 -114.7606
27.142185 82.240 -115.0120
27.338869 82.254 -115.2673
27.536977 82.267 -115.5327
27.736522 82.279 -115.8154
27.937512 82.292 -116.1226
28.139959 82.308 -116.4612
28.343872 82.327 -116.8361
28.549264 82.349 -117.2504
28.756143 82.374 -117.7043
28.964522 82.404 -118.1958
29.174411 82.436 -118.7205
29.385821 82.473 -119.2721
29.598763 82.512 -119.8438
29.813248 82.554 -120.4281
30.029287 82.598 -121.0179
30.246891 82.644 -121.6069
30.466073 82.692 -122.1898
30.686842 82.741 -122.7620
30.909212 82.790 -123.3202
31.133193 82.841 -123.8614
31.358797 82.892 -124.3837
31.586035 82.944 -124.8857
31.814921 82.996 -125.3667
32.045465 83.050 -125.8270
32.277680 83.107 -126.2679
32.511577 83.166 -126.6920
32.747169 83.229 -127.1030
32.984469 83.295 -127.5056
33.223488 83.366 -127.9050
33.464239 83.441 -128.3064
33.706735 83.520 -128.7138
33.950987 83.602 -129.1300
34.197010 83.687 -129.5560
34.444816 83.774 -129.9906
34.694417 83.863 -130.4311
34.945827 83.954 -130.8734
35.199059 84.045 -131.3127
35.454126 84.136 -131.7441
35.711041 84.228 -132.1632
35.969818 84.320 -132.5662
36.230470 84.411 -132.9507
36.493011 84.501 -133.3153
36.757455 84.589 -133.6603
37.023814 84.675 -133.9876
37.292104 84.759 -134.3006
37.562338 84.841 -134.6042
37.834530 84.919 -134.9041
38.108695 84.994 -135.2065
38.384846 85.066 -135.5171
38.662999 85.135 -135.8404
38.943167 85.201 -136.1792
39.225365 85.264 -136.5351
39.509608 85.324 -136.9077
39.795911 85.383 -137.2960
40.084289 85.440 -137.6983
40.374756 85.496 -138.1127
40.667328 85.552 -138.5372
40.962020 85.607 -138.9700
41.258848 85.661 -139.4093
41.557827 85.716 -139.8535
41.858972 85.770 -140.3015
42.162299 85.824 -140.7530
42.467824 85.879 -141.2080
42.775564 85.933 -141.6671
43.085533 85.988 -142.1308
43.397749 86.042 -142.5987
43.712227 86.096 -143.0703
44.028983 86.148 -143.5443
44.348036 86.199 -144.0196
44.669400 86.249 -144.4958
44.993093 86.296 -144.9735
45.319131 86.342 -145.4545
45.647532 86.387 -145.9406
45.978313 86.430 -146.4335
46.311491 86.472 -146.9337
46.647083 86.512 -147.4399
46.985107 86.552 -147.9490
47.325581 86.590 -148.4568
47.668521 86.626 -148.9585
48.013947 86.660 -149.4499
48.361876 86.692 -149.9279
48.712326 86.721 -150.3910
49.065315 86.746 -150.8399
49.420863 86.767 -151.2768
49.778987 86.783 -151.7049
50.139706 86.795 -152.1280
50.503039 86.801 -152.5500
50.869005 86.804 -152.9742
51.237623 86.803 -153.4036
51.608912 86.799 -153.8407
51.982891 86.795 -154.2877
52.359580 86.790 -154.7468
52.739000 86.785 -155.2197
53.121168 86.781 -155.7074
53.506106 86.779 -156.2104
53.893833 86.778 -156.7284
54.284370 86.779 -157.2603
54.677737 86.782 -157.8043
55.073955 86.785 -158.3589
55.473043 86.790 -158.9230
55.875024 86.794 -159.4958
56.279917 86.798 -160.0770
56.687745 86.800 -160.6657
57.098527 86.801 -161.2600
57.512287 86.801 -161.8564
57.929045 86.799 -162.4490
58.348822 86.796 -163.0292
58.771642 86.794 -163.5864
59.197525 86.793 -164.1090
59.626495 86.795 -164.5872
60.058573 86.800 -165.0162
60.493782 86.811 -165.3978
60.932145 86.827 -165.7416
61.373685 86.849 -166.0620
61.818424 86.875 -166.3750
62.266386 86.904 -166.6945
62.717593 86.935 -167.0305
63.172071 86.967 -167.3882
63.629842 86.999 -167.7684
64.090930 87.030 -168.1690
64.555359 87.059 -168.5857
65.023154 87.088 -169.0136
65.494339 87.115 -169.4481
65.968938 87.140 -169.8853
66.446976 87.164 -170.3228
66.928478 87.187 -170.7589
67.413469 87.207 -171.1924
67.901975 87.226 -171.6231
68.394021 87.243 -172.0506
68.889632 87.258 -172.4749
69.388835 87.272 -172.8960
69.891655 87.285 -173.3137
70.398118 87.296 -173.7276
70.908252 87.306 -174.1373
71.422083 87.314 -174.5426
71.939636 87.320 -174.9433
72.460941 87.324 -175.3394
72.986023 87.326 -175.7312
73.514909 87.326 -176.1194
74.047629 87.324 -176.5045
74.584208 87.319 -176.8868
75.124676 87.312 -177.2666
75.669061 87.302 -177.6441
76.217390 87.289 -178.0196
76.769692 87.274 -178.3931
77.325997 87.256 -178.7649
77.886333 87.235 -179.1353
78.450730 87.212 -179.5043
79.019216 87.188 -179.8717
79.591822 87.161 179.7630
80.168577 87.134 179.4005
80.749512 87.106 179.0421
81.334656 87.078 178.6885
81.924040 87.049 178.3403
82.517696 87.020 177.9973
83.115653 86.991 177.6585
83.717943 86.961 177.3228
84.324598 86.932 176.9890
84.935649 86.902 176.6562
85.551128 86.871 176.3241
86.171066 86.841 175.9930
86.795497 86.810 175.6633
87.424453 86.780 175.3360
88.057967 86.749 175.0117
88.696071 86.719 174.6913
89.338800 86.689 174.3751
89.986185 86.659 174.0631
90.638262 86.630 173.7549
91.295065 86.600 173.4499
91.956626 86.570 173.1476
92.622982 86.540 172.8474
93.294166 86.510 172.5485
93.970214 86.479 172.2508
94.651161 86.449 171.9539
95.337042 86.418 171.6579
96.027894 86.387 171.3630
96.723752 86.356 171.0698
97.424652 86.325 170.7786
98.130631 86.294 170.4901
98.841726 86.264 170.2045
99.557974 86.233 169.9221
100.279412 86.202 169.6426
101.006078 86.171 169.3660
101.738010 86.140 169.0918
102.475245 86.109 168.8197
103.217823 86.078 168.5494
103.965782 86.049 168.2812
104.719161 86.020 168.0157
105.477999 85.993 167.7542
106.242336 85.967 167.4978
107.012212 85.943 167.2471
107.787666 85.920 167.0019
108.568740 85.899 166.7614
109.355474 85.880 166.5240
110.147909 85.861 166.2884
110.946086 85.844 166.0532
111.750047 85.827 165.8174
112.559834 85.811 165.5804
113.375489 85.795 165.3421
114.197055 85.779 165.1031
115.024574 85.764 164.8642
115.858089 85.749 164.6266
116.697645 85.733 164.3912
117.543284 85.718 164.1587
118.395051 85.702 163.9296
119.252990 85.685 163.7039
120.117147 85.668 163.4815
120.987565 85.651 163.2621
121.864291 85.632 163.0454
122.747370 85.613 162.8307
123.636848 85.593 162.6175
124.532771 85.572 162.4053
125.435187 85.549 162.1943
126.344142 85.525 161.9849
127.259684 85.500 161.7780
128.181860 85.474 161.5748
129.110718 85.446 161.3760
130.046308 85.417 161.1821
130.988677 85.387 160.9933
131.937875 85.355 160.8093
132.893951 85.322 160.6301
133.856956 85.287 160.4557
134.826938 85.251 160.2864
135.803950 85.213 160.1230
136.788041 85.174 159.9662
137.779264 85.133 159.8168
138.777669 85.090 159.6750
139.783309 85.046 159.5411
140.796237 85.001 159.4149
141.816504 84.955 159.2965
142.844165 84.908 159.1860
143.879273 84.859 159.0838
144.921881 84.809 158.9901
145.972045 84.759 158.9054
147.029819 84.708 158.8304
148.095257 84.656 158.7656
149.168417 84.603 158.7116
150.249353 84.550 158.6690
151.338121 84.497 158.6382
152.434780 84.444 158.6194
153.539385 84.391 158.6133
154.651995 84.338 158.6202
155.772667 84.285 158.6406
156.901460 84.233 158.6747
158.038432 84.182 158.7220
159.183644 84.131 158.7818
160.337154 84.082 158.8530
161.499023 84.034 158.9350
162.669312 83.989 159.0274
163.848081 83.945 159.1301
165.035392 83.904 159.2432
166.231306 83.866 159.3670
167.435887 83.831 159.5013
168.649196 83.799 159.6461
169.871298 83.771 159.8004
171.102255 83.746 159.9634
172.342133 83.724 160.1334
173.590995 83.706 160.3084
174.848907 83.691 160.4860
176.115934 83.680 160.6631
177.392143 83.671 160.8368
178.677599 83.666 161.0036
179.972371 83.663 161.1602
181.276525 83.662 161.3031
182.590129 83.664 161.4294
183.913252 83.667 161.5366
185.245964 83.672 161.6233
186.588332 83.678 161.6887
187.940428 83.685 161.7333
189.302322 83.692 161.7585
190.674085 83.701 161.7663
192.055788 83.710 161.7591
193.447503 83.719 161.7390
194.849303 83.728 161.7077
196.261262 83.736 161.6665
197.683452 83.743 161.6161
199.115948 83.749 161.5574
200.558824 83.754 161.4905
202.012156 83.756 161.4156
203.476019 83.756 161.3327
204.950490 83.754 161.2415
206.435646 83.749 161.1423
207.931564 83.743 161.0353
209.438322 83.736 160.9212
210.955998 83.727 160.8007
212.484672 83.718 160.6747
214.024424 83.708 160.5440
215.575333 83.699 160.4095
217.137481 83.689 160.2718
218.710948 83.681 160.1313
220.295818 83.673 159.9888
221.892172 83.665 159.8449
223.500094 83.659 159.7004
225.119668 83.653 159.5566
226.750978 83.648 159.4152
228.394109 83.643 159.2781
230.049147 83.639 159.1472
231.716178 83.636 159.0237
233.395289 83.634 158.9076
235.086567 83.632 158.7980
236.790102 83.632 158.6936
238.505980 83.633 158.5924
240.234293 83.634 158.4927
241.975130 83.636 158.3928
243.728581 83.637 158.2914
245.494739 83.639 158.1874
247.273695 83.641 158.0803
249.065542 83.641 157.9704
250.870374 83.641 157.8581
252.688284 83.641 157.7443
254.519367 83.640 157.6298
256.363720 83.638 157.5152
258.221437 83.636 157.4010
260.092616 83.635 157.2872
261.977354 83.633 157.1735
263.875750 83.633 157.0594
265.787903 83.632 156.9449
267.713911 83.633 156.8298
269.653877 83.634 156.7150
271.607900 83.636 156.6017
273.576083 83.639 156.4909
275.558528 83.642 156.3837
277.555338 83.646 156.2803
279.566619 83.650 156.1808
281.592474 83.655 156.0854
283.633009 83.660 155.9939
285.688331 83.664 155.9063
287.758546 83.669 155.8227
289.843763 83.673 155.7427
291.944090 83.678 155.6661
294.059638 83.682 155.5918
296.190515 83.687 155.5187
298.336833 83.693 155.4459
300.498705 83.698 155.3724
302.676243 83.704 155.2980
304.869559 83.711 155.2222
307.078770 83.718 155.1452
309.303989 83.725 155.0668
311.545334 83.733 154.9869
313.802919 83.742 154.9053
316.076865 83.750 154.8218
318.367288 83.759 154.7363
320.674309 83.768 154.6493
322.998047 83.776 154.5616
325.338624 83.783 154.4742
327.696162 83.790 154.3883
330.070783 83.796 154.3050
332.462612 83.802 154.2249
334.871773 83.806 154.1483
337.298392 83.810 154.0752
339.742595 83.812 154.0053
342.204510 83.813 153.9384
344.684265 83.812 153.8744
347.181989 83.811 153.8129
349.697813 83.807 153.7538
352.231868 83.802 153.6964
354.784285 83.796 153.6403
357.355198 83.789 153.5847
359.944741 83.781 153.5293
362.553049 83.772 153.4737
365.180258 83.763 153.4174
367.826505 83.753 153.3601
370.491927 83.742 153.3018
373.176665 83.730 153.2424
375.880856 83.719 153.1818
378.604644 83.707 153.1194
381.348169 83.695 153.0545
384.111575 83.683 152.9862
386.895006 83.671 152.9137
389.698607 83.660 152.8366
392.522524 83.649 152.7550
395.366904 83.638 152.6689
398.231895 83.627 152.5791
401.117648 83.615 152.4860
404.024312 83.602 152.3904
406.952038 83.588 152.2934
409.900981 83.573 152.1959
412.871292 83.555 152.0992
415.863128 83.535 152.0047
418.876643 83.511 151.9148
421.911996 83.485 151.8321
424.969344 83.454 151.7597
428.048847 83.420 151.7009
431.150666 83.384 151.6588
434.274961 83.345 151.6353
437.421897 83.305 151.6310
440.591636 83.265 151.6445
443.784345 83.226 151.6726
447.000189 83.189 151.7106
450.239337 83.154 151.7534
453.501956 83.121 151.7962
456.788219 83.090 151.8353
460.098294 83.062 151.8678
463.432356 83.034 151.8920
466.790578 83.008 151.9071
470.173135 82.983 151.9136
473.580203 82.958 151.9128
477.011961 82.934 151.9063
480.468586 82.910 151.8960
483.950259 82.887 151.8835
487.457163 82.864 151.8703
490.989478 82.843 151.8569
494.547390 82.822 151.8435
498.131084 82.802 151.8297
501.740748 82.784 151.8149
505.376568 82.767 151.7984
509.038735 82.752 151.7797
512.727439 82.739 151.7582
516.442874 82.727 151.7340
520.185232 82.718 151.7070
523.954708 82.711 151.6777
527.751500 82.707 151.6471
531.575805 82.705 151.6160
535.427822 82.706 151.5856
539.307753 82.709 151.5564
543.215800 82.715 151.5286
547.152165 82.724 151.5022
551.117055 82.735 151.4767
555.110677 82.748 151.4515
559.133237 82.764 151.4263
563.184947 82.780 151.4008
567.266018 82.799 151.3747
571.376661 82.818 151.3483
575.517092 82.839 151.3218
579.687526 82.860 151.2951
583.888181 82.881 151.2681
588.119275 82.904 151.2401
592.381030 82.925 151.2105
596.673667 82.947 151.1790
600.997410 82.968 151.1450
605.352485 82.989 151.1085
609.739119 83.008 151.0696
614.157540 83.027 151.0283
618.607979 83.045 150.9849
623.090667 83.062 150.9390
627.605839 83.078 150.8905
632.153730 83.093 150.8392
636.734576 83.108 150.7845
641.348617 83.122 150.7260
645.996094 83.134 150.6629
650.677248 83.146 150.5945
655.392323 83.157 150.5201
660.141566 83.166 150.4399
664.925224 83.173 150.3543
669.743546 83.179 150.2645
674.596784 83.182 150.1723
679.485191 83.184 150.0801
684.409020 83.184 149.9906
689.368530 83.182 149.9064
694.363979 83.179 149.8290
699.395626 83.176 149.7585
704.463736 83.172 149.6934
709.568570 83.169 149.6306
714.710396 83.165 149.5668
719.889483 83.162 149.4990
725.106099 83.158 149.4250
730.360516 83.154 149.3439
735.653010 83.150 149.2554
740.983855 83.144 149.1593
746.353329 83.137 149.0560
751.761713 83.128 148.9456
757.209288 83.118 148.8279
762.696339 83.106 148.7032
768.223151 83.092 148.5716
773.790013 83.077 148.4338
779.397214 83.060 148.2906
785.045047 83.041 148.1432
790.733808 83.022 147.9930
796.463791 83.001 147.8410
802.235296 82.980 147.6882
808.048623 82.958 147.5353
813.904077 82.937 147.3822
819.801961 82.916 147.2289
825.742584 82.896 147.0747
831.726255 82.876 146.9186
837.753287 82.858 146.7591
843.823992 82.842 146.5943
849.938689 82.826 146.4227
856.097695 82.812 146.2428
862.301332 82.798 146.0539
868.549922 82.784 145.8558
874.843793 82.770 145.6494
881.183272 82.756 145.4359
887.568689 82.742 145.2177
894.000378 82.727 144.9970
900.478673 82.711 144.7761
907.003913 82.696 144.5566
913.576437 82.680 144.3396
920.196588 82.665 144.1253
926.864712 82.651 143.9136
933.581156 82.637 143.7043
940.346270 82.625 143.4968
947.160407 82.615 143.2910
954.023921 82.606 143.0864
960.937172 82.600 142.8824
967.900519 82.595 142.6782
974.914325 82.593 142.4725
981.978956 82.594 142.2635
989.094780 82.597 142.0496
996.262169 82.602 141.8290
1003.481495 82.610 141.6008
1010.753136 82.619 141.3643
1018.077470 82.629 141.1201
1025.454879 82.640 140.8692
1032.885748 82.651 140.6133
1040.370463 82.663 140.3541
1047.909417 82.675 140.0936
1055.503000 82.686 139.8331
1063.151610 82.697 139.5740
1070.855645 82.707 139.3172
1078.615506 82.716 139.0636
1086.431599 82.724 138.8140
1094.304330 82.731 138.5694
1102.234110 82.737 138.3308
1110.221353 82.741 138.0992
1118.266475 82.745 137.8752
1126.369895 82.747 137.6593
1134.532035 82.749 137.4522
1142.753322 82.749 137.2543
1151.034184 82.749 137.0660
1159.375052 82.747 136.8876
1167.776361 82.745 136.7193
1176.238550 82.742 136.5610
1184.762060 82.739 136.4122
1193.347334 82.736 136.2722
1201.994821 82.733 136.1396
1210.704971 82.729 136.0135
1219.478238 82.726 135.8931
1228.315080 82.722 135.7785
1237.215957 82.717 135.6705
1246.181334 82.712 135.5705
1255.211678 82.707 135.4802
1264.307459 82.701 135.4009
1273.469152 82.695 135.3338
1282.697235 82.689 135.2797
1291.992188 82.684 135.2394
1301.354495 82.679 135.2130
1310.784647 82.675 135.2001
1320.283132 82.671 135.1997
1329.850448 82.669 135.2107
1339.487093 82.668 135.2316
1349.193569 82.669 135.2612
1358.970381 82.671 135.2979
1368.818041 82.675 135.3401
1378.737061 82.681 135.3860
1388.727958 82.688 135.4335
1398.791253 82.698 135.4809
1408.927471 82.709 135.5267
1419.137140 82.721 135.5706
1429.420793 82.734 135.6133
1439.778965 82.749 135.6570
1450.212197 82.764 135.7038
1460.721033 82.781 135.7557
1471.306019 82.799 135.8140
1481.967709 82.818 135.8793
1492.706658 82.838 135.9522
1503.523426 82.859 136.0327
1514.418576 82.880 136.1205
1525.392678 82.902 136.2151
1536.446302 82.924 136.3157
1547.580025 82.945 136.4222
1558.794428 82.964 136.5355
1570.090095 82.980 136.6573
1581.467615 82.994 136.7903
1592.927581 83.005 136.9379
1604.470591 83.012 137.1035
1616.097246 83.016 137.2900
1627.808153 83.018 137.4997
1639.603922 83.017 137.7336
1651.485168 83.015 137.9906
1663.452510 83.013 138.2681
1675.506573 83.011 138.5618
1687.647984 83.009 138.8669
1699.877377 83.008 139.1789
1712.195390 83.008 139.4940
1724.602663 83.009 139.8093
1737.099845 83.010 140.1224
1749.687587 83.012 140.4316
1762.366544 83.015 140.7359
1775.137379 83.018 141.0347
1788.000756 83.021 141.3282
1800.957346 83.024 141.6172
1814.007826 83.028 141.9024
1827.152874 83.031 142.1844
1840.393177 83.034 142.4630
1853.729425 83.038 142.7375
1867.162312 83.041 143.0063
1880.692540 83.044 143.2674
1894.320813 83.047 143.5187
1908.047843 83.048 143.7591
1921.874344 83.048 143.9882
1935.801038 83.047 144.2066
1949.828650 83.043 144.4153
1963.957912 83.037 144.6151
1978.189561 83.030 144.8063
1992.524338 83.020 144.9885
2006.962991 83.009 145.1604
2021.506272 82.997 145.3206
2036.154940 82.983 145.4679
2050.909758 82.967 145.6016
2065.771495 82.950 145.7214
2080.740927 82.932 145.8276
2095.818833 82.912 145.9207
2111.006001 82.891 146.0014
2126.303220 82.869 146.0707
2141.711290 82.846 146.1299
2157.231013 82.822 146.1800
2172.863198 82.798 146.2223
2188.608660 82.773 146.2579
2204.468221 82.748 146.2879
2220.442706 82.724 146.3125
2236.532950 82.700 146.3317
2252.739789 82.677 146.3442
2269.064070 82.655 146.3487
2285.506644 82.635 146.3428
2302.068367 82.616 146.3246
2318.750104 82.598 146.2926
2335.552723 82.581 146.2459
2352.477101 82.565 146.1843
2369.524119 82.550 146.1077
2386.694668 82.537 146.0154
2403.989641 82.524 145.9066
2421.409941 82.512 145.7792
2438.956476 82.502 145.6315
2456.630160 82.491 145.4619
2474.431915 82.480 145.2706
2492.362668 82.468 145.0595
2510.423356 82.454 144.8326
2528.614918 82.437 144.5960
2546.938304 82.416 144.3569
2565.394469 82.393 144.1226
2583.984375 82.366 143.9003
2602.708991 82.337 143.6963
2621.569293 82.306 143.5153
2640.566265 82.273 143.3613
2659.700897 82.239 143.2367
2678.974186 82.205 143.1429
2698.387137 82.172 143.0801
2717.940763 82.139 143.0479
2737.636082 82.107 143.0453
2757.474121 82.077 143.0717
2777.455915 82.047 143.1272
2797.582506 82.018 143.2122
2817.854942 81.990 143.3283
2838.274281 81.962 143.4773
2858.841586 81.935 143.6619
2879.557931 81.908 143.8849
2900.424394 81.881 144.1498
2921.442065 81.854 144.4601
2942.612039 81.828 144.8197
2963.935418 81.802 145.2320
2985.413316 81.778 145.7002
3007.046852 81.756 146.2259
3028.837153 81.736 146.8091
3050.785356 81.720 147.4473
3072.892604 81.708 148.1355
3095.160050 81.701 148.8665
3117.588856 81.699 149.6310
3140.180190 81.703 150.4187
3162.935230 81.712 151.2182
3185.855163 81.726 152.0183
3208.941182 81.745 152.8079
3232.194493 81.767 153.5767
3255.616307 81.791 154.3160
3279.207844 81.818 155.0190
3302.970336 81.844 155.6814
3326.905021 81.870 156.3016
3351.013146 81.895 156.8807
3375.295969 81.917 157.4216
3399.754755 81.937 157.9283
3424.390779 81.956 158.4043
3449.205326 81.974 158.8508
3474.199690 81.992 159.2661
3499.375173 82.011 159.6445
3524.733088 82.033 159.9775
3550.274757 82.057 160.2546
3576.001511 82.083 160.4649
3601.914692 82.111 160.5992
3628.015651 82.138 160.6511
3654.305748 82.164 160.6187
3680.786354 82.185 160.5044
3707.458849 82.200 160.3153
3734.324624 82.208 160.0621
3761.385080 82.207 159.7578
3788.641627 82.196 159.4173
3816.095686 82.175 159.0554
3843.748688 82.144 158.6870
3871.602076 82.103 158.3255
3899.657300 82.054 157.9836
3927.915825 81.996 157.6721
3956.379122 81.931 157.4005
3985.048676 81.860 157.1764
4013.925981 81.784 157.0057
4043.012544 81.703 156.8927
4072.309879 81.619 156.8402
4101.819515 81.532 156.8499
4131.542990 81.443 156.9232
4161.481854 81.350 157.0612
4191.637667 81.255 157.2657
4222.012001 81.157 157.5394
4252.606441 81.057 157.8852
4283.422580 80.953 158.3069
4314.462026 80.845 158.8087
4345.726396 80.736 159.3945
4377.217321 80.623 160.0682
4408.936442 80.509 160.8333
4440.885413 80.393 161.6925
4473.065899 80.277 162.6480
4505.479579 80.161 163.7014
4538.128141 80.047 164.8534
4571.013288 79.935 166.1040
4604.136735 79.828 167.4524
4637.500207 79.727 168.8966
4671.105446 79.633 170.4341
4704.954201 79.549 172.0610
4739.048239 79.476 173.7727
4773.389336 79.416 175.5633
4807.979283 79.372 177.4261
4842.819883 79.346 179.3530
4877.912952 79.339 -178.6655
4913.260320 79.354 -176.6402
4948.863830 79.393 -174.5835
4984.725337 79.457 -172.5092
5020.846712 79.547 -170.4322
5057.229836 79.666 -168.3687
5093.876609 79.813 -166.3350
5130.788938 79.990 -164.3483
5167.968750 80.194 -162.4254
5205.417982 80.428 -160.5833
5243.138586 80.688 -158.8388
5281.132530 80.974 -157.2085
5319.401793 81.284 -155.7087
5357.948371 81.616 -154.3557
5396.774274 81.967 -153.1645
5435.881525 82.334 -152.1490
5475.272163 82.714 -151.3209
5514.948243 83.103 -150.6897
5554.911831 83.497 -150.2623
5595.165012 83.894 -150.0430
5635.709884 84.288 -150.0334
5676.548561 84.677 -150.2326
5717.683172 85.056 -150.6375
5759.115861 85.422 -151.2424
5800.848789 85.772 -152.0389
5842.884130 86.103 -153.0165
5885.224077 86.411 -154.1617
5927.870837 86.693 -155.4586
5970.826633 86.948 -156.8886
6014.093704 87.172 -158.4310
6057.674306 87.364 -160.0627
6101.570711 87.524 -161.7593
6145.785208 87.650 -163.4953
6190.320101 87.743 -165.2449
6235.177712 87.803 -166.9826
6280.360380 87.831 -168.6840
6325.870460 87.829 -170.3259
6371.710325 87.799 -171.8869
6417.882365 87.743 -173.3482
6464.388986 87.666 -174.6931
6511.232613 87.569 -175.9080
6558.415689 87.457 -176.9825
6605.940673 87.335 -177.9108
6653.810042 87.208 -178.6918
6702.026292 87.081 -179.3317
6750.591937 86.960 -179.8444
6799.509509 86.851 179.7465
6848.781558 86.760 179.4079
6898.410653 86.691 179.0975
6948.399380 86.647 178.7660
6998.750346 86.631 178.3611
7049.466176 86.640 177.8308
7100.549514 86.674 177.1273
7152.003023 86.728 176.2096
7203.829385 86.796 175.0447
7256.031302 86.873 173.6077
7308.611496 86.952 171.8815
7361.572708 87.026 169.8557
7414.917698 87.089 167.5259
7468.649249 87.134 164.8932
7522.770160 87.152 161.9637
7577.283253 87.139 158.7490
7632.191371 87.087 155.2655
7687.497376 86.991 151.5347
7743.204151 86.845 147.5814
7799.314600 86.646 143.4325
7855.831649 86.392 139.1142
7912.758244 86.081 134.6490
7970.097352 85.714 130.0521
8027.851962 85.294 125.3286
8086.025087 84.824 120.4703
8144.619758 84.309 115.4530
8203.639030 83.757 110.2342
8263.085980 83.174 104.7518
8322.963708 82.572 98.9240
8383.275334 81.960 92.6510
8444.024002 81.352 85.8224
8505.212881 80.761 78.3305
8566.845160 80.205 70.0955
8628.924051 79.697 61.1005
8691.452792 79.253 51.4329
8754.434642 78.886 41.3079
8817.872884 78.604 31.0499
8881.770826 78.410 21.0229
8946.131799 78.304 11.5395
9010.959157 78.278 2.8000
9076.256282 78.322 -5.1174
9142.026576 78.424 -12.2285
9208.273470 78.572 -18.6038
9275.000415 78.754 -24.3380
9342.210891 78.961 -29.5298
9409.908403 79.183 -34.2725
9478.096478 79.416 -38.6507
9546.778672 79.654 -42.7401
9615.958566 79.892 -46.6085
9685.639765 80.128 -50.3174
9755.825904 80.357 -53.9226
9826.520640 80.574 -57.4738
9897.727659 80.773 -61.0142
9969.450674 80.947 -64.5780
10041.693423 81.087 -68.1873
10114.459673 81.182 -71.8486
10187.753217 81.223 -75.5498
10261.577877 81.201 -79.2575
10335.937500 81.106 -82.9178
10410.835964 80.935 -86.4612
10486.277173 80.687 -89.8121
10562.265060 80.365 -92.8986
10638.803587 79.977 -95.6633
10715.896743 79.533 -98.0692
10793.548548 79.045 -100.1036
10871.763050 78.526 -101.7794
10950.544327 77.990 -103.1340
11029.896485 77.449 -104.2263
11109.823662 76.917 -105.1312
11190.330024 76.404 -105.9332
11271.419768 75.917 -106.7191
11353.097122 75.461 -107.5711
11435.366344 75.038 -108.5625
11518.231722 74.647 -109.7551
11601.697577 74.286 -111.1987
11685.768261 73.949 -112.9324
11770.448155 73.632 -114.9873
11855.741674 73.329 -117.3885
11941.653265 73.033 -120.1578
12028.187408 72.739 -123.3148
12115.348612 72.441 -126.8766
12203.141422 72.132 -130.8562
12291.570415 71.802 -135.2593
12380.640201 71.445 -140.0807
12470.355424 71.050 -145.3010
12560.720760 70.610 -150.8860
12651.740920 70.122 -156.7884
12743.420650 69.585 -162.9508
12835.764729 69.004 -169.3101
12928.777972 68.390 -175.7998
13022.465227 67.760 177.6486
13116.831378 67.139 171.1043
13211.881345 66.553 164.6358
13307.620084 66.029 158.3079
13404.052584 65.590 152.1799
13501.183875 65.246 146.3051
13599.019019 64.994 140.7344
13697.563116 64.821 135.5208
13796.821305 64.706 130.7214
13896.798760 64.633 126.3950
13997.500692 64.591 122.5939
14098.932352 64.579 119.3527
14201.099028 64.604 116.6756
14304.006046 64.678 114.5252
14407.658770 64.814 112.8181
14512.062604 65.019 111.4279
14617.222992 65.293 110.1995
14723.145416 65.628 108.9699
14829.835397 66.007 107.5912
14937.298497 66.410 105.9484
15045.540320 66.816 103.9684
15154.566507 67.209 101.6205
15264.382743 67.574 98.9097
15374.994752 67.902 95.8652
15486.408302 68.188 92.5277
15598.629201 68.430 88.9381
15711.663298 68.629 85.1309
15825.516487 68.784 81.1320
15940.194703 68.898 76.9595
16055.703925 68.969 72.6266
16172.050174 68.998 68.1439
16289.239516 68.982 63.5218
16407.278061 68.921 58.7720
16526.171961 68.811 53.9091
16645.927415 68.651 48.9520
16766.550667 68.438 43.9236
16888.048005 68.171 38.8508
17010.425762 67.850 33.7612
17133.690320 67.476 28.6797
17257.848103 67.055 23.6239
17382.905584 66.593 18.6001
17508.869284 66.099 13.6002
17635.745768 65.583 8.6004
17763.541652 65.059 3.5594
17892.263597 64.540 -1.5819
18021.918315 64.039 -6.9001
18152.512564 63.570 -12.4862
18284.053153 63.140 -18.4409
18416.546939 62.754 -24.8688
18550.000830 62.412 -31.8757
18684.421783 62.112 -39.5637
18819.816805 61.853 -48.0249
18956.192956 61.634 -57.3177
19093.557344 61.454 -67.4061
19231.917131 61.312 -78.0609
19371.279531 61.204 -88.7652
19511.651807 61.124 -98.7291
19653.041280 61.068 -107.0640
19795.455318 61.032 -113.0184
19938.901348 61.014 -116.1064
