* Measurement data measured by REW V5.31.3
* Source: EXCL: Headset (USB-C to 3.5mm Headphone Jack Adapter), MICROPHONE (Master Volume), 0, volume: 0.750
* Format: 256k Log Swept Sine, 1 sweep at -12.0 dBFS with no timing reference
* Dated: Apr 1, 2025 10:32:35 PM
* REW Settings:
*  C-weighting compensation: Off
*  Target level: 75.0 dB
* Note: ; 
* Measurement: Satyr 3 (Massive Mod) R1
* Smoothing: 1/6 octave
* Frequency Step: 96 ppo
* Start Frequency: 20.0 Hz
*
* Freq(Hz) SPL(dB) Phase(degrees)
20.187378 87.921 -113.1141
20.333664 87.952 -113.1950
20.481010 87.993 -113.3066
20.629424 88.045 -113.4496
20.778913 88.104 -113.6252
20.929486 88.170 -113.8342
21.081150 88.241 -114.0776
21.233912 88.316 -114.3551
21.387782 88.394 -114.6659
21.542767 88.474 -115.0078
21.698874 88.555 -115.3774
21.856113 88.637 -115.7703
22.014492 88.720 -116.1816
22.174018 88.802 -116.6056
22.334700 88.886 -117.0372
22.496546 88.969 -117.4717
22.659566 89.053 -117.9054
22.823766 89.137 -118.3361
22.989157 89.221 -118.7627
23.155745 89.305 -119.1852
23.323542 89.386 -119.6048
23.492554 89.464 -120.0230
23.662790 89.539 -120.4415
23.834261 89.607 -120.8616
24.006973 89.669 -121.2840
24.180938 89.723 -121.7086
24.356163 89.768 -122.1347
24.532658 89.805 -122.5607
24.710431 89.832 -122.9847
24.889493 89.850 -123.4049
25.069853 89.860 -123.8194
25.251519 89.863 -124.2269
25.434502 89.861 -124.6267
25.618811 89.854 -125.0189
25.804456 89.845 -125.4042
25.991445 89.835 -125.7842
26.179790 89.826 -126.1608
26.369500 89.819 -126.5360
26.560584 89.814 -126.9121
26.753053 89.812 -127.2911
26.946917 89.815 -127.6746
27.142185 89.821 -128.0639
27.338869 89.832 -128.4597
27.536977 89.846 -128.8624
27.736522 89.862 -129.2717
27.937512 89.882 -129.6871
28.139959 89.903 -130.1078
28.343872 89.927 -130.5327
28.549264 89.951 -130.9609
28.756143 89.976 -131.3912
28.964522 90.002 -131.8227
29.174411 90.028 -132.2544
29.385821 90.054 -132.6857
29.598763 90.081 -133.1163
29.813248 90.108 -133.5460
30.029287 90.135 -133.9747
30.246891 90.163 -134.4026
30.466073 90.191 -134.8300
30.686842 90.220 -135.2571
30.909212 90.249 -135.6837
31.133193 90.280 -136.1096
31.358797 90.311 -136.5339
31.586035 90.344 -136.9555
31.814921 90.379 -137.3726
32.045465 90.415 -137.7834
32.277680 90.455 -138.1862
32.511577 90.498 -138.5794
32.747169 90.545 -138.9623
32.984469 90.597 -139.3352
33.223488 90.653 -139.6994
33.464239 90.714 -140.0571
33.706735 90.780 -140.4110
33.950987 90.851 -140.7643
34.197010 90.925 -141.1194
34.444816 91.002 -141.4780
34.694417 91.082 -141.8409
34.945827 91.162 -142.2074
35.199059 91.244 -142.5761
35.454126 91.326 -142.9450
35.711041 91.408 -143.3121
35.969818 91.489 -143.6756
36.230470 91.571 -144.0344
36.493011 91.651 -144.3878
36.757455 91.730 -144.7357
37.023814 91.807 -145.0780
37.292104 91.882 -145.4147
37.562338 91.953 -145.7455
37.834530 92.022 -146.0699
38.108695 92.087 -146.3873
38.384846 92.149 -146.6973
38.662999 92.209 -147.0004
38.943167 92.265 -147.2975
39.225365 92.320 -147.5905
39.509608 92.373 -147.8816
39.795911 92.424 -148.1732
40.084289 92.474 -148.4671
40.374756 92.521 -148.7642
40.667328 92.567 -149.0643
40.962020 92.610 -149.3666
41.258848 92.651 -149.6701
41.557827 92.690 -149.9740
41.858972 92.727 -150.2787
42.162299 92.764 -150.5858
42.467824 92.801 -150.8975
42.775564 92.837 -151.2167
43.085533 92.875 -151.5454
43.397749 92.913 -151.8848
43.712227 92.951 -152.2349
44.028983 92.990 -152.5944
44.348036 93.028 -152.9617
44.669400 93.065 -153.3351
44.993093 93.101 -153.7134
45.319131 93.134 -154.0960
45.647532 93.165 -154.4828
45.978313 93.194 -154.8739
46.311491 93.219 -155.2692
46.647083 93.242 -155.6686
46.985107 93.263 -156.0717
47.325581 93.282 -156.4779
47.668521 93.299 -156.8866
48.013947 93.315 -157.2969
48.361876 93.330 -157.7084
48.712326 93.345 -158.1207
49.065315 93.358 -158.5336
49.420863 93.369 -158.9473
49.778987 93.379 -159.3622
50.139706 93.387 -159.7791
50.503039 93.393 -160.1991
50.869005 93.396 -160.6228
51.237623 93.398 -161.0504
51.608912 93.398 -161.4814
51.982891 93.396 -161.9145
52.359580 93.393 -162.3478
52.739000 93.388 -162.7796
53.121168 93.383 -163.2084
53.506106 93.376 -163.6330
53.893833 93.369 -164.0532
54.284370 93.362 -164.4687
54.677737 93.354 -164.8800
55.073955 93.346 -165.2875
55.473043 93.337 -165.6918
55.875024 93.328 -166.0939
56.279917 93.319 -166.4946
56.687745 93.311 -166.8951
57.098527 93.302 -167.2964
57.512287 93.293 -167.6992
57.929045 93.285 -168.1038
58.348822 93.278 -168.5097
58.771642 93.273 -168.9160
59.197525 93.270 -169.3212
59.626495 93.270 -169.7241
60.058573 93.273 -170.1238
60.493782 93.281 -170.5200
60.932145 93.292 -170.9124
61.373685 93.306 -171.3008
61.818424 93.323 -171.6851
62.266386 93.342 -172.0651
62.717593 93.362 -172.4412
63.172071 93.384 -172.8141
63.629842 93.406 -173.1845
64.090930 93.429 -173.5531
64.555359 93.451 -173.9201
65.023154 93.474 -174.2854
65.494339 93.496 -174.6485
65.968938 93.519 -175.0090
66.446976 93.540 -175.3664
66.928478 93.561 -175.7206
67.413469 93.581 -176.0715
67.901975 93.601 -176.4198
68.394021 93.619 -176.7659
68.889632 93.637 -177.1109
69.388835 93.653 -177.4553
69.891655 93.667 -177.8000
70.398118 93.679 -178.1451
70.908252 93.689 -178.4910
71.422083 93.697 -178.8376
71.939636 93.703 -179.1845
72.460941 93.705 -179.5314
72.986023 93.705 -179.8776
73.514909 93.702 179.7775
74.047629 93.696 179.4344
74.584208 93.688 179.0938
75.124676 93.676 178.7557
75.669061 93.662 178.4201
76.217390 93.646 178.0870
76.769692 93.627 177.7559
77.325997 93.606 177.4264
77.886333 93.582 177.0983
78.450730 93.557 176.7716
79.019216 93.530 176.4464
79.591822 93.502 176.1229
80.168577 93.472 175.8016
80.749512 93.441 175.4829
81.334656 93.410 175.1671
81.924040 93.378 174.8544
82.517696 93.346 174.5446
83.115653 93.314 174.2377
83.717943 93.281 173.9337
84.324598 93.248 173.6330
84.935649 93.215 173.3358
85.551128 93.181 173.0428
86.171066 93.147 172.7540
86.795497 93.114 172.4698
87.424453 93.079 172.1899
88.057967 93.045 171.9139
88.696071 93.009 171.6416
89.338800 92.974 171.3725
89.986185 92.938 171.1063
90.638262 92.902 170.8425
91.295065 92.865 170.5810
91.956626 92.828 170.3214
92.622982 92.790 170.0640
93.294166 92.753 169.8090
93.970214 92.715 169.5568
94.651161 92.678 169.3080
95.337042 92.640 169.0628
96.027894 92.603 168.8215
96.723752 92.566 168.5842
97.424652 92.530 168.3508
98.130631 92.493 168.1217
98.841726 92.457 167.8969
99.557974 92.422 167.6767
100.279412 92.387 167.4608
101.006078 92.353 167.2488
101.738010 92.318 167.0401
102.475245 92.285 166.8341
103.217823 92.252 166.6303
103.965782 92.220 166.4288
104.719161 92.189 166.2294
105.477999 92.159 166.0322
106.242336 92.130 165.8373
107.012212 92.102 165.6447
107.787666 92.077 165.4542
108.568740 92.052 165.2659
109.355474 92.029 165.0797
110.147909 92.007 164.8951
110.946086 91.986 164.7121
111.750047 91.966 164.5305
112.559834 91.947 164.3503
113.375489 91.929 164.1717
114.197055 91.911 163.9947
115.024574 91.894 163.8195
115.858089 91.877 163.6461
116.697645 91.861 163.4748
117.543284 91.844 163.3055
118.395051 91.827 163.1385
119.252990 91.810 162.9739
120.117147 91.791 162.8120
120.987565 91.772 162.6530
121.864291 91.752 162.4970
122.747370 91.731 162.3439
123.636848 91.709 162.1934
124.532771 91.686 162.0452
125.435187 91.662 161.8990
126.344142 91.636 161.7546
127.259684 91.610 161.6119
128.181860 91.583 161.4708
129.110718 91.554 161.3311
130.046308 91.525 161.1925
130.988677 91.494 161.0549
131.937875 91.463 160.9182
132.893951 91.430 160.7828
133.856956 91.397 160.6491
134.826938 91.363 160.5179
135.803950 91.328 160.3902
136.788041 91.293 160.2667
137.779264 91.257 160.1476
138.777669 91.219 160.0329
139.783309 91.181 159.9221
140.796237 91.141 159.8146
141.816504 91.100 159.7097
142.844165 91.057 159.6070
143.879273 91.013 159.5065
144.921881 90.967 159.4083
145.972045 90.919 159.3130
147.029819 90.871 159.2209
148.095257 90.820 159.1330
149.168417 90.769 159.0498
150.249353 90.716 158.9723
151.338121 90.663 158.9015
152.434780 90.608 158.8382
153.539385 90.553 158.7836
154.651995 90.498 158.7385
155.772667 90.442 158.7040
156.901460 90.387 158.6809
158.038432 90.332 158.6701
159.183644 90.278 158.6720
160.337154 90.224 158.6871
161.499023 90.171 158.7158
162.669312 90.119 158.7581
163.848081 90.068 158.8139
165.035392 90.018 158.8831
166.231306 89.969 158.9653
167.435887 89.920 159.0597
168.649196 89.873 159.1657
169.871298 89.827 159.2825
171.102255 89.783 159.4092
172.342133 89.740 159.5450
173.590995 89.699 159.6892
174.848907 89.660 159.8407
176.115934 89.623 159.9987
177.392143 89.588 160.1622
178.677599 89.555 160.3300
179.972371 89.524 160.5012
181.276525 89.496 160.6746
182.590129 89.470 160.8492
183.913252 89.446 161.0234
185.245964 89.425 161.1956
186.588332 89.406 161.3635
187.940428 89.389 161.5247
189.302322 89.375 161.6771
190.674085 89.362 161.8188
192.055788 89.350 161.9485
193.447503 89.340 162.0655
194.849303 89.332 162.1691
196.261262 89.324 162.2594
197.683452 89.318 162.3360
199.115948 89.312 162.3989
200.558824 89.306 162.4480
202.012156 89.300 162.4836
203.476019 89.294 162.5063
204.950490 89.287 162.5169
206.435646 89.280 162.5167
207.931564 89.273 162.5066
209.438322 89.265 162.4877
210.955998 89.257 162.4607
212.484672 89.249 162.4264
214.024424 89.241 162.3859
215.575333 89.232 162.3403
217.137481 89.222 162.2913
218.710948 89.212 162.2401
220.295818 89.202 162.1879
221.892172 89.191 162.1359
223.500094 89.180 162.0847
225.119668 89.169 162.0347
226.750978 89.159 161.9861
228.394109 89.149 161.9392
230.049147 89.140 161.8940
231.716178 89.131 161.8509
233.395289 89.124 161.8102
235.086567 89.117 161.7722
236.790102 89.111 161.7371
238.505980 89.105 161.7048
240.234293 89.101 161.6749
241.975130 89.096 161.6468
243.728581 89.092 161.6198
245.494739 89.089 161.5934
247.273695 89.085 161.5673
249.065542 89.081 161.5416
250.870374 89.078 161.5163
252.688284 89.074 161.4919
254.519367 89.069 161.4685
256.363720 89.065 161.4464
258.221437 89.061 161.4254
260.092616 89.056 161.4057
261.977354 89.052 161.3877
263.875750 89.047 161.3719
265.787903 89.043 161.3587
267.713911 89.040 161.3486
269.653877 89.036 161.3418
271.607900 89.033 161.3378
273.576083 89.031 161.3360
275.558528 89.029 161.3353
277.555338 89.027 161.3348
279.566619 89.025 161.3338
281.592474 89.023 161.3320
283.633009 89.022 161.3296
285.688331 89.021 161.3273
287.758546 89.020 161.3262
289.843763 89.019 161.3272
291.944090 89.019 161.3314
294.059638 89.019 161.3391
296.190515 89.020 161.3503
298.336833 89.021 161.3642
300.498705 89.022 161.3796
302.676243 89.024 161.3956
304.869559 89.027 161.4111
307.078770 89.030 161.4254
309.303989 89.034 161.4379
311.545334 89.038 161.4478
313.802919 89.043 161.4550
316.076865 89.048 161.4592
318.367288 89.054 161.4606
320.674309 89.060 161.4595
322.998047 89.066 161.4567
325.338624 89.072 161.4527
327.696162 89.078 161.4477
330.070783 89.083 161.4419
332.462612 89.086 161.4351
334.871773 89.088 161.4272
337.298392 89.088 161.4183
339.742595 89.085 161.4089
342.204510 89.081 161.4000
344.684265 89.074 161.3929
347.181989 89.065 161.3896
349.697813 89.054 161.3923
352.231868 89.041 161.4032
354.784285 89.026 161.4244
357.355198 89.011 161.4576
359.944741 88.994 161.5032
362.553049 88.978 161.5604
365.180258 88.963 161.6270
367.826505 88.949 161.6998
370.491927 88.936 161.7752
373.176665 88.925 161.8497
375.880856 88.914 161.9204
378.604644 88.905 161.9855
381.348169 88.897 162.0440
384.111575 88.889 162.0956
386.895006 88.881 162.1404
389.698607 88.874 162.1789
392.522524 88.866 162.2118
395.366904 88.858 162.2397
398.231895 88.849 162.2634
401.117648 88.840 162.2836
404.024312 88.830 162.3008
406.952038 88.819 162.3162
409.900981 88.806 162.3303
412.871292 88.793 162.3440
415.863128 88.778 162.3578
418.876643 88.761 162.3721
421.911996 88.742 162.3868
424.969344 88.723 162.4017
428.048847 88.701 162.4166
431.150666 88.679 162.4310
434.274961 88.655 162.4446
437.421897 88.630 162.4571
440.591636 88.604 162.4685
443.784345 88.577 162.4791
447.000189 88.549 162.4893
450.239337 88.520 162.4991
453.501956 88.490 162.5089
456.788219 88.460 162.5186
460.098294 88.429 162.5277
463.432356 88.398 162.5360
466.790578 88.366 162.5430
470.173135 88.335 162.5483
473.580203 88.304 162.5515
477.011961 88.273 162.5525
480.468586 88.242 162.5511
483.950259 88.212 162.5475
487.457163 88.183 162.5414
490.989478 88.154 162.5331
494.547390 88.127 162.5223
498.131084 88.100 162.5094
501.740748 88.073 162.4945
505.376568 88.048 162.4783
509.038735 88.023 162.4611
512.727439 87.999 162.4437
516.442874 87.976 162.4263
520.185232 87.952 162.4097
523.954708 87.929 162.3952
527.751500 87.906 162.3846
531.575805 87.883 162.3808
535.427822 87.860 162.3876
539.307753 87.838 162.4092
543.215800 87.817 162.4503
547.152165 87.797 162.5142
551.117055 87.780 162.6028
555.110677 87.766 162.7150
559.133237 87.758 162.8469
563.184947 87.754 162.9919
567.266018 87.756 163.1425
571.376661 87.762 163.2917
575.517092 87.772 163.4343
579.687526 87.786 163.5671
583.888181 87.801 163.6890
588.119275 87.818 163.8004
592.381030 87.836 163.9025
596.673667 87.854 163.9970
600.997410 87.871 164.0851
605.352485 87.888 164.1676
609.739119 87.904 164.2452
614.157540 87.919 164.3183
618.607979 87.933 164.3872
623.090667 87.947 164.4524
627.605839 87.958 164.5144
632.153730 87.969 164.5737
636.734576 87.979 164.6306
641.348617 87.988 164.6852
645.996094 87.995 164.7380
650.677248 88.001 164.7890
655.392323 88.007 164.8386
660.141566 88.011 164.8871
664.925224 88.014 164.9345
669.743546 88.017 164.9807
674.596784 88.018 165.0250
679.485191 88.019 165.0670
684.409020 88.019 165.1058
689.368530 88.018 165.1411
694.363979 88.017 165.1722
699.395626 88.014 165.1989
704.463736 88.010 165.2210
709.568570 88.006 165.2385
714.710396 88.000 165.2513
719.889483 87.994 165.2595
725.106099 87.985 165.2632
730.360516 87.976 165.2626
735.653010 87.965 165.2575
740.983855 87.953 165.2481
746.353329 87.939 165.2345
751.761713 87.923 165.2170
757.209288 87.905 165.1960
762.696339 87.886 165.1724
768.223151 87.865 165.1465
773.790013 87.842 165.1192
779.397214 87.818 165.0910
785.045047 87.793 165.0629
790.733808 87.767 165.0354
796.463791 87.741 165.0089
802.235296 87.714 164.9833
808.048623 87.687 164.9577
813.904077 87.662 164.9310
819.801961 87.636 164.9020
825.742584 87.612 164.8694
831.726255 87.588 164.8326
837.753287 87.565 164.7913
843.823992 87.543 164.7451
849.938689 87.521 164.6941
856.097695 87.500 164.6384
862.301332 87.480 164.5781
868.549922 87.460 164.5132
874.843793 87.441 164.4441
881.183272 87.422 164.3708
887.568689 87.403 164.2936
894.000378 87.384 164.2133
900.478673 87.366 164.1304
907.003913 87.348 164.0460
913.576437 87.330 163.9609
920.196588 87.312 163.8756
926.864712 87.295 163.7906
933.581156 87.279 163.7065
940.346270 87.264 163.6239
947.160407 87.250 163.5437
954.023921 87.237 163.4668
960.937172 87.225 163.3942
967.900519 87.216 163.3268
974.914325 87.208 163.2649
981.978956 87.204 163.2084
989.094780 87.202 163.1565
996.262169 87.203 163.1075
1003.481495 87.207 163.0594
1010.753136 87.215 163.0095
1018.077470 87.225 162.9554
1025.454879 87.238 162.8951
1032.885748 87.254 162.8271
1040.370463 87.272 162.7506
1047.909417 87.291 162.6653
1055.503000 87.311 162.5715
1063.151610 87.331 162.4700
1070.855645 87.352 162.3618
1078.615506 87.372 162.2484
1086.431599 87.392 162.1313
1094.304330 87.410 162.0120
1102.234110 87.428 161.8921
1110.221353 87.444 161.7732
1118.266475 87.458 161.6562
1126.369895 87.472 161.5422
1134.532035 87.483 161.4316
1142.753322 87.493 161.3251
1151.034184 87.502 161.2231
1159.375052 87.509 161.1259
1167.776361 87.514 161.0342
1176.238550 87.518 160.9486
1184.762060 87.520 160.8698
1193.347334 87.521 160.7984
1201.994821 87.522 160.7348
1210.704971 87.521 160.6791
1219.478238 87.519 160.6318
1228.315080 87.517 160.5934
1237.215957 87.514 160.5650
1246.181334 87.510 160.5479
1255.211678 87.505 160.5433
1264.307459 87.500 160.5524
1273.469152 87.495 160.5760
1282.697235 87.489 160.6145
1291.992188 87.484 160.6686
1301.354495 87.479 160.7387
1310.784647 87.475 160.8250
1320.283132 87.471 160.9273
1329.850448 87.469 161.0447
1339.487093 87.468 161.1761
1349.193569 87.469 161.3206
1358.970381 87.472 161.4769
1368.818041 87.476 161.6436
1378.737061 87.483 161.8192
1388.727958 87.493 162.0020
1398.791253 87.505 162.1905
1408.927471 87.519 162.3834
1419.137140 87.537 162.5794
1429.420793 87.557 162.7776
1439.778965 87.579 162.9775
1450.212197 87.605 163.1783
1460.721033 87.633 163.3798
1471.306019 87.664 163.5812
1481.967709 87.696 163.7822
1492.706658 87.730 163.9827
1503.523426 87.765 164.1830
1514.418576 87.799 164.3840
1525.392678 87.834 164.5873
1536.446302 87.867 164.7954
1547.580025 87.899 165.0115
1558.794428 87.929 165.2394
1570.090095 87.957 165.4831
1581.467615 87.983 165.7460
1592.927581 88.007 166.0311
1604.470591 88.030 166.3398
1616.097246 88.052 166.6724
1627.808153 88.074 167.0277
1639.603922 88.097 167.4025
1651.485168 88.121 167.7922
1663.452510 88.146 168.1907
1675.506573 88.174 168.5918
1687.647984 88.203 168.9897
1699.877377 88.235 169.3790
1712.195390 88.268 169.7555
1724.602663 88.303 170.1158
1737.099845 88.339 170.4571
1749.687587 88.377 170.7772
1762.366544 88.415 171.0742
1775.137379 88.454 171.3464
1788.000756 88.494 171.5928
1800.957346 88.532 171.8135
1814.007826 88.570 172.0093
1827.152874 88.606 172.1819
1840.393177 88.640 172.3335
1853.729425 88.672 172.4662
1867.162312 88.701 172.5821
1880.692540 88.727 172.6829
1894.320813 88.751 172.7698
1908.047843 88.772 172.8437
1921.874344 88.789 172.9051
1935.801038 88.804 172.9540
1949.828650 88.817 172.9899
1963.957912 88.826 173.0112
1978.189561 88.833 173.0156
1992.524338 88.837 173.0011
2006.962991 88.838 172.9658
2021.506272 88.836 172.9089
2036.154940 88.830 172.8312
2050.909758 88.820 172.7349
2065.771495 88.805 172.6230
2080.740927 88.786 172.4990
2095.818833 88.762 172.3669
2111.006001 88.735 172.2300
2126.303220 88.704 172.0916
2141.711290 88.671 171.9538
2157.231013 88.634 171.8182
2172.863198 88.596 171.6855
2188.608660 88.557 171.5558
2204.468221 88.517 171.4286
2220.442706 88.476 171.3029
2236.532950 88.435 171.1775
2252.739789 88.395 171.0514
2269.064070 88.354 170.9235
2285.506644 88.313 170.7929
2302.068367 88.272 170.6594
2318.750104 88.232 170.5235
2335.552723 88.191 170.3865
2352.477101 88.149 170.2503
2369.524119 88.108 170.1175
2386.694668 88.068 169.9904
2403.989641 88.028 169.8709
2421.409941 87.990 169.7602
2438.956476 87.954 169.6579
2456.630160 87.921 169.5621
2474.431915 87.892 169.4689
2492.362668 87.868 169.3730
2510.423356 87.848 169.2683
2528.614918 87.832 169.1485
2546.938304 87.820 169.0084
2565.394469 87.810 168.8447
2583.984375 87.801 168.6567
2602.708991 87.793 168.4457
2621.569293 87.783 168.2153
2640.566265 87.772 167.9706
2659.700897 87.757 167.7179
2678.974186 87.740 167.4640
2698.387137 87.718 167.2160
2717.940763 87.693 166.9814
2737.636082 87.664 166.7672
2757.474121 87.632 166.5802
2777.455915 87.596 166.4269
2797.582506 87.557 166.3130
2817.854942 87.515 166.2437
2838.274281 87.472 166.2234
2858.841586 87.428 166.2557
2879.557931 87.382 166.3441
2900.424394 87.337 166.4916
2921.442065 87.292 166.7010
2942.612039 87.247 166.9745
2963.935418 87.205 167.3137
2985.413316 87.164 167.7192
3007.046852 87.127 168.1906
3028.837153 87.094 168.7260
3050.785356 87.065 169.3228
3072.892604 87.042 169.9764
3095.160050 87.024 170.6810
3117.588856 87.013 171.4291
3140.180190 87.010 172.2115
3162.935230 87.014 173.0172
3185.855163 87.026 173.8332
3208.941182 87.046 174.6455
3232.194493 87.073 175.4387
3255.616307 87.108 176.1978
3279.207844 87.148 176.9085
3302.970336 87.193 177.5587
3326.905021 87.241 178.1389
3351.013146 87.291 178.6430
3375.295969 87.340 179.0687
3399.754755 87.387 179.4172
3424.390779 87.432 179.6927
3449.205326 87.472 179.9014
3474.199690 87.509 -179.9497
3499.375173 87.543 -179.8545
3524.733088 87.573 -179.8086
3550.274757 87.602 -179.8105
3576.001511 87.629 -179.8613
3601.914692 87.656 -179.9646
3628.015651 87.683 179.8746
3654.305748 87.708 179.6516
3680.786354 87.733 179.3625
3707.458849 87.755 179.0068
3734.324624 87.772 178.5865
3761.385080 87.784 178.1073
3788.641627 87.789 177.5782
3816.095686 87.786 177.0105
3843.748688 87.774 176.4177
3871.602076 87.753 175.8143
3899.657300 87.722 175.2151
3927.915825 87.682 174.6346
3956.379122 87.635 174.0856
3985.048676 87.580 173.5789
4013.925981 87.521 173.1224
4043.012544 87.458 172.7215
4072.309879 87.393 172.3785
4101.819515 87.326 172.0932
4131.542990 87.260 171.8636
4161.481854 87.194 171.6867
4191.637667 87.128 171.5586
4222.012001 87.064 171.4754
4252.606441 87.000 171.4335
4283.422580 86.937 171.4297
4314.462026 86.873 171.4613
4345.726396 86.809 171.5256
4377.217321 86.744 171.6205
4408.936442 86.678 171.7435
4440.885413 86.610 171.8923
4473.065899 86.541 172.0646
4505.479579 86.470 172.2582
4538.128141 86.396 172.4715
4571.013288 86.320 172.7031
4604.136735 86.241 172.9524
4637.500207 86.160 173.2194
4671.105446 86.076 173.5045
4704.954201 85.990 173.8085
4739.048239 85.902 174.1330
4773.389336 85.813 174.4796
4807.979283 85.722 174.8500
4842.819883 85.632 175.2462
4877.912952 85.542 175.6697
4913.260320 85.453 176.1220
4948.863830 85.366 176.6039
4984.725337 85.283 177.1160
5020.846712 85.204 177.6588
5057.229836 85.129 178.2325
5093.876609 85.060 178.8377
5130.788938 84.996 179.4751
5167.968750 84.940 -179.8538
5205.417982 84.891 -179.1472
5243.138586 84.850 -178.4027
5281.132530 84.819 -177.6181
5319.401793 84.797 -176.7911
5357.948371 84.786 -175.9196
5396.774274 84.787 -175.0024
5435.881525 84.802 -174.0394
5475.272163 84.831 -173.0317
5514.948243 84.876 -171.9826
5554.911831 84.938 -170.8975
5595.165012 85.017 -169.7842
5635.709884 85.116 -168.6528
5676.548561 85.234 -167.5157
5717.683172 85.372 -166.3863
5759.115861 85.529 -165.2796
5800.848789 85.704 -164.2109
5842.884130 85.898 -163.1956
5885.224077 86.107 -162.2486
5927.870837 86.331 -161.3839
5970.826633 86.568 -160.6138
6014.093704 86.817 -159.9487
6057.674306 87.074 -159.3964
6101.570711 87.339 -158.9626
6145.785208 87.609 -158.6511
6190.320101 87.884 -158.4637
6235.177712 88.163 -158.4012
6280.360380 88.445 -158.4640
6325.870460 88.730 -158.6527
6371.710325 89.018 -158.9691
6417.882365 89.309 -159.4166
6464.388986 89.604 -160.0015
6511.232613 89.903 -160.7332
6558.415689 90.205 -161.6246
6605.940673 90.512 -162.6916
6653.810042 90.820 -163.9529
6702.026292 91.128 -165.4278
6750.591937 91.432 -167.1351
6799.509509 91.728 -169.0907
6848.781558 92.010 -171.3060
6898.410653 92.274 -173.7863
6948.399380 92.512 -176.5301
6998.750346 92.720 -179.5290
7049.466176 92.892 177.2322
7100.549514 93.024 173.7742
7152.003023 93.110 170.1227
7203.829385 93.147 166.3073
7256.031302 93.133 162.3598
7308.611496 93.067 158.3137
7361.572708 92.947 154.2019
7414.917698 92.775 150.0560
7468.649249 92.550 145.9041
7522.770160 92.275 141.7698
7577.283253 91.954 137.6710
7632.191371 91.589 133.6189
7687.497376 91.183 129.6177
7743.204151 90.741 125.6643
7799.314600 90.267 121.7490
7855.831649 89.762 117.8559
7912.758244 89.232 113.9642
7970.097352 88.676 110.0494
8027.851962 88.097 106.0837
8086.025087 87.496 102.0364
8144.619758 86.874 97.8728
8203.639030 86.229 93.5522
8263.085980 85.564 89.0239
8322.963708 84.878 84.2225
8383.275334 84.176 79.0602
8444.024002 83.458 73.4188
8505.212881 82.732 67.1378
8566.845160 82.005 60.0017
8628.924051 81.287 51.7293
8691.452792 80.595 41.9864
8754.434642 79.950 30.4609
8817.872884 79.379 17.0676
8881.770826 78.911 2.2578
8946.131799 78.575 -12.8722
9010.959157 78.393 -27.0315
9076.256282 78.372 -39.4037
9142.026576 78.502 -49.8394
9208.273470 78.761 -58.5978
9275.000415 79.116 -66.0621
9342.210891 79.535 -72.5897
9409.908403 79.989 -78.4678
9478.096478 80.452 -83.9125
9546.778672 80.907 -89.0798
9615.958566 81.339 -94.0793
9685.639765 81.741 -98.9851
9755.825904 82.106 -103.8463
9826.520640 82.430 -108.6938
9897.727659 82.712 -113.5482
9969.450674 82.952 -118.4232
10041.693423 83.147 -123.3292
10114.459673 83.298 -128.2737
10187.753217 83.402 -133.2611
10261.577877 83.456 -138.2915
10335.937500 83.458 -143.3588
10410.835964 83.404 -148.4497
10486.277173 83.292 -153.5444
10562.265060 83.118 -158.6170
10638.803587 82.882 -163.6390
10715.896743 82.585 -168.5827
10793.548548 82.230 -173.4244
10871.763050 81.818 -178.1474
10950.544327 81.356 177.2571
11029.896485 80.848 172.7891
11109.823662 80.298 168.4420
11190.330024 79.711 164.2026
11271.419768 79.092 160.0545
11353.097122 78.443 155.9792
11435.366344 77.766 151.9586
11518.231722 77.063 147.9764
11601.697577 76.336 144.0186
11685.768261 75.583 140.0753
11770.448155 74.804 136.1406
11855.741674 73.999 132.2131
11941.653265 73.167 128.2961
12028.187408 72.308 124.3974
12115.348612 71.420 120.5278
12203.141422 70.506 116.6984
12291.570415 69.568 112.9155
12380.640201 68.612 109.1735
12470.355424 67.649 105.4463
12560.720760 66.693 101.6852
12651.740920 65.769 97.8241
12743.420650 64.908 93.7980
12835.764729 64.151 89.5666
12928.777972 63.543 85.1329
13022.465227 63.131 80.5461
13116.831378 62.944 75.8872
13211.881345 62.992 71.2431
13307.620084 63.257 66.6834
13404.052584 63.700 62.2446
13501.183875 64.275 57.9273
13599.019019 64.940 53.7018
13697.563116 65.657 49.5189
13796.821305 66.399 45.3214
13896.798760 67.143 41.0536
13997.500692 67.875 36.6683
14098.932352 68.585 32.1304
14201.099028 69.265 27.4190
14304.006046 69.910 22.5267
14407.658770 70.520 17.4562
14512.062604 71.092 12.2148
14617.222992 71.629 6.8088
14723.145416 72.129 1.2372
14829.835397 72.590 -4.5091
14937.298497 73.006 -10.4444
15045.540320 73.370 -16.5811
15154.566507 73.672 -22.9224
15264.382743 73.902 -29.4557
15374.994752 74.052 -36.1499
15486.408302 74.114 -42.9562
15598.629201 74.085 -49.8132
15711.663298 73.964 -56.6534
15825.516487 73.753 -63.4108
15940.194703 73.458 -70.0259
16055.703925 73.085 -76.4507
16172.050174 72.643 -82.6490
16289.239516 72.143 -88.6003
16407.278061 71.597 -94.3010
16526.171961 71.021 -99.7684
16645.927415 70.432 -105.0427
16766.550667 69.849 -110.1887
16888.048005 69.295 -115.2909
17010.425762 68.788 -120.4470
17133.690320 68.345 -125.7574
17257.848103 67.976 -131.3152
17382.905584 67.681 -137.1975
17508.869284 67.456 -143.4631
17635.745768 67.287 -150.1521
17763.541652 67.159 -157.2897
17892.263597 67.055 -164.8920
18021.918315 66.957 -172.9680
18152.512564 66.847 178.4773
18284.053153 66.709 169.4412
18416.546939 66.531 159.9182
18550.000830 66.303 149.8853
18684.421783 66.023 139.2844
18819.816805 65.694 127.9985
18956.192956 65.325 115.8370
19093.557344 64.932 102.5701
19231.917131 64.533 88.0767
19371.279531 64.151 72.6816
19511.651807 63.808 57.5164
19653.041280 63.526 44.3688
19795.455318 63.324 34.8833
19938.901348 63.219 29.9833
