* Measurement data measured by REW V5.31.3
* Source: EXCL: Headset (USB-C to 3.5mm Headphone Jack Adapter), MICROPHONE (Master Volume), 0, volume: 0.260
* Format: 256k Log Swept Sine, 1 sweep at -12.0 dBFS with no timing reference
* Dated: Mar 7, 2025 11:56:05 AM
* REW Settings:
*  C-weighting compensation: Off
*  Target level: 75.0 dB
* Note: ; 
* Measurement: Massive Mod V1 R1
* Smoothing: 1/6 octave
* Frequency Step: 96 ppo
* Start Frequency: 20.0 Hz
*
* Freq(Hz) SPL(dB) Phase(degrees)
20.141602 92.811 -40.9319
20.287556 92.812 -41.1496
20.434568 92.813 -41.4402
20.582645 92.815 -41.7945
20.731796 92.819 -42.2027
20.882027 92.825 -42.6559
21.033346 92.833 -43.1460
21.185763 92.844 -43.6666
21.339284 92.860 -44.2127
21.493917 92.880 -44.7808
21.649671 92.907 -45.3685
21.806553 92.939 -45.9747
21.964572 92.978 -46.5987
22.123737 93.024 -47.2404
22.284054 93.077 -47.8997
22.445534 93.136 -48.5764
22.608183 93.201 -49.2697
22.772012 93.271 -49.9783
22.937027 93.343 -50.6997
23.103238 93.418 -51.4306
23.270654 93.493 -52.1668
23.439282 93.567 -52.9035
23.609133 93.639 -53.6356
23.780215 93.708 -54.3583
23.952536 93.774 -55.0675
24.126106 93.836 -55.7605
24.300934 93.895 -56.4361
24.477028 93.951 -57.0951
24.654399 94.005 -57.7404
24.833055 94.057 -58.3763
25.013005 94.109 -59.0084
25.194260 94.160 -59.6424
25.376828 94.212 -60.2840
25.560719 94.264 -60.9375
25.745942 94.316 -61.6052
25.932508 94.369 -62.2874
26.120426 94.423 -62.9825
26.309705 94.477 -63.6865
26.500356 94.532 -64.3947
26.692388 94.588 -65.1016
26.885812 94.646 -65.8024
27.080638 94.706 -66.4931
27.276876 94.768 -67.1719
27.474535 94.833 -67.8385
27.673627 94.901 -68.4947
27.874161 94.970 -69.1438
28.076149 95.041 -69.7901
28.279600 95.113 -70.4379
28.484526 95.184 -71.0918
28.690937 95.253 -71.7555
28.898843 95.320 -72.4319
29.108256 95.385 -73.1233
29.319186 95.447 -73.8312
29.531645 95.506 -74.5562
29.745644 95.562 -75.2983
29.961193 95.615 -76.0568
30.178304 95.666 -76.8296
30.396989 95.715 -77.6135
30.617258 95.762 -78.4037
30.839123 95.807 -79.1941
31.062596 95.851 -79.9776
31.287688 95.894 -80.7468
31.514412 95.937 -81.4946
31.742778 95.981 -82.2153
31.972800 96.028 -82.9053
32.204488 96.077 -83.5635
32.437855 96.131 -84.1917
32.672913 96.191 -84.7939
32.909674 96.257 -85.3757
33.148151 96.329 -85.9438
33.388356 96.406 -86.5050
33.630302 96.489 -87.0650
33.874001 96.575 -87.6288
34.119466 96.664 -88.1997
34.366710 96.754 -88.7800
34.615745 96.843 -89.3708
34.866585 96.929 -89.9724
35.119243 97.013 -90.5845
35.373731 97.091 -91.2059
35.630064 97.164 -91.8351
35.888254 97.229 -92.4700
36.148315 97.288 -93.1084
36.410261 97.340 -93.7483
36.674104 97.384 -94.3878
36.939860 97.424 -95.0261
37.207542 97.458 -95.6633
37.477163 97.488 -96.3003
37.748738 97.515 -96.9389
38.022281 97.541 -97.5807
38.297806 97.564 -98.2275
38.575327 97.587 -98.8805
38.854860 97.610 -99.5402
39.136419 97.632 -100.2062
39.420017 97.653 -100.8781
39.705671 97.675 -101.5551
39.993395 97.698 -102.2366
40.283203 97.721 -102.9223
40.575112 97.744 -103.6120
40.869136 97.769 -104.3060
41.165290 97.795 -105.0046
41.463591 97.822 -105.7081
41.764053 97.850 -106.4170
42.066693 97.879 -107.1313
42.371525 97.908 -107.8512
42.678567 97.939 -108.5766
42.987834 97.970 -109.3074
43.299341 98.001 -110.0431
43.613106 98.033 -110.7829
43.929145 98.065 -111.5258
44.247473 98.096 -112.2705
44.568109 98.128 -113.0149
44.891068 98.159 -113.7573
45.216367 98.190 -114.4954
45.544023 98.220 -115.2278
45.874054 98.251 -115.9532
46.206476 98.282 -116.6719
46.541307 98.314 -117.3848
46.878565 98.346 -118.0944
47.218266 98.380 -118.8036
47.560429 98.415 -119.5158
47.905072 98.451 -120.2340
48.252212 98.487 -120.9608
48.601867 98.525 -121.6973
48.954056 98.562 -122.4437
49.308798 98.599 -123.1995
49.666109 98.636 -123.9629
50.026010 98.673 -124.7318
50.388520 98.709 -125.5040
50.753656 98.743 -126.2766
51.121437 98.776 -127.0470
51.491884 98.807 -127.8128
51.865016 98.836 -128.5720
52.240851 98.863 -129.3235
52.619410 98.888 -130.0668
53.000712 98.910 -130.8024
53.384777 98.930 -131.5309
53.771625 98.948 -132.2531
54.161276 98.963 -132.9700
54.553751 98.975 -133.6824
54.949070 98.984 -134.3917
55.347254 98.990 -135.0997
55.748323 98.995 -135.8090
56.152298 98.997 -136.5225
56.559201 98.998 -137.2428
56.969052 98.998 -137.9715
57.381873 98.998 -138.7086
57.797686 98.998 -139.4523
58.216512 98.997 -140.1992
58.638373 98.995 -140.9443
59.063291 98.992 -141.6814
59.491288 98.988 -142.4037
59.922386 98.981 -143.1047
60.356608 98.971 -143.7798
60.793977 98.960 -144.4275
61.234515 98.948 -145.0501
61.678246 98.935 -145.6529
62.125192 98.923 -146.2425
62.575377 98.911 -146.8255
63.028824 98.898 -147.4070
63.485557 98.886 -147.9901
63.945599 98.872 -148.5767
64.408975 98.858 -149.1677
64.875709 98.842 -149.7635
65.345825 98.824 -150.3640
65.819348 98.805 -150.9685
66.296302 98.785 -151.5762
66.776713 98.763 -152.1858
67.260604 98.741 -152.7955
67.748002 98.717 -153.4039
68.238932 98.694 -154.0092
68.733420 98.669 -154.6101
69.231490 98.645 -155.2054
69.733170 98.620 -155.7940
70.238485 98.595 -156.3754
70.747463 98.569 -156.9494
71.260128 98.543 -157.5163
71.776508 98.517 -158.0768
72.296630 98.490 -158.6316
72.820521 98.462 -159.1815
73.348209 98.434 -159.7269
73.879720 98.406 -160.2678
74.415083 98.377 -160.8037
74.954326 98.348 -161.3337
75.497475 98.319 -161.8572
76.044561 98.290 -162.3735
76.595612 98.260 -162.8825
77.150655 98.230 -163.3843
77.709720 98.200 -163.8792
78.272837 98.170 -164.3674
78.840034 98.139 -164.8492
79.411342 98.109 -165.3248
79.986789 98.079 -165.7945
80.566406 98.048 -166.2582
81.150224 98.018 -166.7159
81.738272 97.987 -167.1673
82.330581 97.955 -167.6118
82.927182 97.923 -168.0489
83.528107 97.890 -168.4782
84.133386 97.857 -168.8996
84.743051 97.823 -169.3130
85.357134 97.788 -169.7187
85.975667 97.753 -170.1170
86.598682 97.718 -170.5083
87.226212 97.682 -170.8929
87.858289 97.648 -171.2715
88.494946 97.613 -171.6449
89.136217 97.580 -172.0136
89.782135 97.548 -172.3785
90.432733 97.517 -172.7400
91.088046 97.488 -173.0982
91.748108 97.459 -173.4530
92.412952 97.432 -173.8039
93.082615 97.405 -174.1506
93.757130 97.378 -174.4925
94.436533 97.352 -174.8298
95.120859 97.325 -175.1626
95.810144 97.297 -175.4917
96.504423 97.268 -175.8178
97.203734 97.238 -176.1417
97.908112 97.205 -176.4641
98.617595 97.171 -176.7855
99.332219 97.135 -177.1060
100.052021 97.097 -177.4253
100.777039 97.058 -177.7429
101.507311 97.018 -178.0575
102.242875 96.978 -178.3682
102.983769 96.937 -178.6740
103.730032 96.896 -178.9744
104.481702 96.855 -179.2696
105.238820 96.815 -179.5602
106.001424 96.775 -179.8472
106.769554 96.736 179.8686
107.543250 96.699 179.5869
108.322553 96.663 179.3079
109.107503 96.628 179.0321
109.898141 96.595 178.7603
110.694508 96.563 178.4930
111.496646 96.532 178.2311
112.304596 96.502 177.9751
113.118402 96.472 177.7259
113.938104 96.441 177.4839
114.763747 96.410 177.2490
115.595372 96.378 177.0201
116.433024 96.345 176.7956
117.276746 96.310 176.5731
118.126581 96.274 176.3499
118.982575 96.236 176.1237
119.844772 96.197 175.8926
120.713217 96.157 175.6563
121.587954 96.117 175.4158
122.469031 96.076 175.1735
123.356492 96.034 174.9328
124.250384 95.993 174.6968
125.150753 95.953 174.4681
126.057647 95.913 174.2481
126.971113 95.875 174.0367
127.891198 95.838 173.8330
128.817950 95.802 173.6350
129.751418 95.769 173.4405
130.691651 95.736 173.2476
131.638696 95.706 173.0549
132.592604 95.676 172.8615
133.553425 95.647 172.6667
134.521208 95.618 172.4705
135.496004 95.589 172.2728
136.477864 95.559 172.0741
137.466839 95.529 171.8746
138.462981 95.496 171.6750
139.466340 95.462 171.4763
140.476971 95.425 171.2795
141.494925 95.385 171.0862
142.520256 95.343 170.8976
143.553016 95.297 170.7148
144.593260 95.249 170.5388
145.641043 95.198 170.3704
146.696418 95.145 170.2107
147.759441 95.090 170.0605
148.830166 95.034 169.9210
149.908651 94.977 169.7928
150.994951 94.919 169.6764
152.089123 94.861 169.5720
153.191223 94.803 169.4794
154.301310 94.745 169.3985
155.419441 94.688 169.3291
156.545674 94.632 169.2713
157.680069 94.578 169.2258
158.822683 94.524 169.1937
159.973578 94.473 169.1763
161.132813 94.423 169.1745
162.300447 94.375 169.1885
163.476543 94.328 169.2178
164.661162 94.283 169.2614
165.854364 94.238 169.3185
167.056213 94.195 169.3886
168.266772 94.154 169.4714
169.486102 94.113 169.5667
170.714268 94.074 169.6737
171.951334 94.036 169.7919
173.197364 93.999 169.9199
174.452424 93.964 170.0565
175.716578 93.931 170.2000
176.989893 93.900 170.3488
178.272434 93.871 170.5016
179.564270 93.844 170.6573
180.865467 93.818 170.8149
182.176092 93.794 170.9729
183.496216 93.772 171.1297
184.825905 93.750 171.2832
186.165229 93.729 171.4312
187.514259 93.708 171.5716
188.873065 93.688 171.7029
190.241717 93.667 171.8242
191.620287 93.646 171.9346
193.008847 93.624 172.0339
194.407468 93.602 172.1218
195.816225 93.579 172.1982
197.235190 93.554 172.2629
198.664438 93.528 172.3157
200.104042 93.501 172.3565
201.554078 93.473 172.3849
203.014622 93.445 172.4004
204.485750 93.415 172.4028
205.967538 93.386 172.3923
207.460064 93.358 172.3695
208.963405 93.331 172.3357
210.477640 93.306 172.2925
212.002848 93.285 172.2416
213.539108 93.267 172.1847
215.086500 93.253 172.1233
216.645105 93.243 172.0586
218.215005 93.239 171.9918
219.796281 93.238 171.9238
221.389015 93.242 171.8554
222.993292 93.250 171.7874
224.609193 93.261 171.7207
226.236804 93.275 171.6559
227.876209 93.291 171.5935
229.527494 93.308 171.5336
231.190745 93.327 171.4761
232.866048 93.346 171.4207
234.553491 93.367 171.3666
236.253163 93.388 171.3134
237.965150 93.409 171.2610
239.689544 93.431 171.2091
241.426433 93.452 171.1581
243.175909 93.473 171.1082
244.938062 93.493 171.0596
246.712984 93.512 171.0127
248.500768 93.530 170.9677
250.301507 93.546 170.9246
252.115295 93.560 170.8834
253.942226 93.572 170.8435
255.782396 93.583 170.8041
257.635901 93.593 170.7648
259.502837 93.602 170.7251
261.383301 93.610 170.6849
263.277392 93.618 170.6443
265.185209 93.624 170.6038
267.106850 93.629 170.5641
269.042417 93.633 170.5266
270.992009 93.635 170.4923
272.955729 93.634 170.4625
274.933678 93.630 170.4377
276.925961 93.622 170.4182
278.932681 93.610 170.4035
280.953942 93.594 170.3923
282.989850 93.572 170.3832
285.040511 93.545 170.3740
287.106032 93.514 170.3625
289.186521 93.479 170.3472
291.282086 93.440 170.3271
293.392836 93.398 170.3029
295.518881 93.353 170.2758
297.660333 93.306 170.2478
299.817302 93.256 170.2207
301.989902 93.206 170.1956
304.178245 93.155 170.1730
306.382446 93.103 170.1534
308.602620 93.051 170.1368
310.838882 93.001 170.1228
313.091348 92.951 170.1109
315.360137 92.904 170.1003
317.645367 92.859 170.0905
319.947156 92.817 170.0807
322.265625 92.779 170.0707
324.600895 92.745 170.0599
326.953086 92.716 170.0486
329.322323 92.692 170.0371
331.708729 92.673 170.0258
334.112427 92.659 170.0157
336.533543 92.650 170.0071
338.972204 92.646 170.0008
341.428536 92.648 169.9966
343.902668 92.654 169.9944
346.394729 92.664 169.9938
348.904848 92.678 169.9940
351.433156 92.695 169.9943
353.979786 92.714 169.9937
356.544869 92.734 169.9915
359.128540 92.754 169.9870
361.730934 92.773 169.9796
364.352185 92.790 169.9695
366.992431 92.805 169.9573
369.651810 92.817 169.9443
372.330459 92.824 169.9322
375.028519 92.828 169.9224
377.746130 92.826 169.9161
380.483434 92.819 169.9139
383.240574 92.808 169.9162
386.017693 92.792 169.9227
388.814937 92.771 169.9333
391.632450 92.747 169.9479
394.470380 92.720 169.9663
397.328875 92.691 169.9886
400.208084 92.660 170.0149
403.108157 92.630 170.0452
406.029245 92.601 170.0794
408.971500 92.575 170.1172
411.935076 92.552 170.1584
414.920127 92.532 170.2023
417.926810 92.517 170.2481
420.955280 92.507 170.2952
424.005695 92.501 170.3428
427.078215 92.500 170.3907
430.173000 92.502 170.4390
433.290211 92.507 170.4880
436.430010 92.515 170.5382
439.592562 92.524 170.5903
442.778031 92.532 170.6447
445.986583 92.540 170.7013
449.218386 92.547 170.7603
452.473607 92.550 170.8217
455.752418 92.551 170.8855
459.054987 92.549 170.9516
462.381489 92.545 171.0199
465.732096 92.538 171.0901
469.106983 92.530 171.1620
472.506325 92.520 171.2350
475.930301 92.509 171.3088
479.379088 92.497 171.3829
482.852867 92.485 171.4569
486.351817 92.474 171.5307
489.876123 92.463 171.6041
493.425968 92.454 171.6771
497.001536 92.446 171.7495
500.603014 92.441 171.8214
504.230589 92.439 171.8929
507.884452 92.440 171.9641
511.564792 92.447 172.0349
515.271802 92.459 172.1053
519.005673 92.477 172.1753
522.766602 92.501 172.2449
526.554785 92.531 172.3143
530.370418 92.568 172.3835
534.213700 92.611 172.4529
538.084833 92.658 172.5223
541.984018 92.709 172.5921
545.911457 92.763 172.6620
549.867357 92.819 172.7320
553.851922 92.874 172.8015
557.865362 92.927 172.8701
561.907884 92.978 172.9373
565.979700 93.024 173.0027
570.081022 93.064 173.0659
574.212064 93.098 173.1268
578.373042 93.125 173.1853
582.564171 93.144 173.2410
586.785671 93.154 173.2937
591.037762 93.155 173.3431
595.320665 93.146 173.3889
599.634604 93.128 173.4312
603.979804 93.100 173.4700
608.356491 93.064 173.5055
612.764893 93.020 173.5376
617.205240 92.969 173.5663
621.677763 92.914 173.5916
626.182696 92.855 173.6129
630.720274 92.795 173.6301
635.290733 92.735 173.6430
639.894312 92.678 173.6514
644.531250 92.625 173.6552
649.201789 92.577 173.6545
653.906173 92.536 173.6491
658.644647 92.502 173.6389
663.417457 92.477 173.6234
668.224854 92.461 173.6021
673.067086 92.454 173.5746
677.944408 92.456 173.5402
682.857073 92.467 173.4983
687.805336 92.487 173.4484
692.789457 92.515 173.3903
697.809695 92.550 173.3239
702.866312 92.592 173.2498
707.959571 92.638 173.1689
713.089738 92.688 173.0824
718.257080 92.740 172.9918
723.461867 92.793 172.8987
728.704370 92.844 172.8043
733.984862 92.894 172.7094
739.303619 92.940 172.6141
744.660918 92.982 172.5178
750.057038 93.020 172.4191
755.492260 93.054 172.3165
760.966869 93.084 172.2084
766.481148 93.109 172.0938
772.035387 93.131 171.9720
777.629873 93.149 171.8433
783.264900 93.163 171.7084
788.940760 93.173 171.5681
794.657750 93.178 171.4235
800.416168 93.178 171.2753
806.216313 93.172 171.1242
812.058489 93.158 170.9706
817.943000 93.137 170.8150
823.870152 93.108 170.6579
829.840255 93.071 170.5002
835.853619 93.025 170.3426
841.910559 92.972 170.1860
848.011390 92.914 170.0310
854.156430 92.852 169.8779
860.346000 92.788 169.7268
866.580422 92.725 169.5778
872.860020 92.666 169.4307
879.185124 92.612 169.2858
885.556062 92.567 169.1430
891.973166 92.530 169.0022
898.436771 92.504 168.8631
904.947215 92.488 168.7254
911.504835 92.483 168.5883
918.109975 92.488 168.4511
924.762978 92.502 168.3128
931.464192 92.523 168.1726
938.213966 92.549 168.0296
945.012651 92.579 167.8832
951.860602 92.610 167.7332
958.758176 92.642 167.5798
965.705733 92.672 167.4237
972.703635 92.700 167.2661
979.752246 92.724 167.1083
986.851935 92.745 166.9517
994.003071 92.762 166.7970
1001.206027 92.777 166.6443
1008.461179 92.790 166.4930
1015.768904 92.802 166.3418
1023.129584 92.814 166.1892
1030.543603 92.827 166.0338
1038.011347 92.842 165.8746
1045.533205 92.860 165.7115
1053.109569 92.880 165.5450
1060.740836 92.904 165.3759
1068.427401 92.931 165.2055
1076.169666 92.961 165.0354
1083.968035 92.993 164.8667
1091.822915 93.026 164.7002
1099.734713 93.059 164.5365
1107.703844 93.090 164.3764
1115.730723 93.118 164.2212
1123.815768 93.142 164.0725
1131.959400 93.160 163.9325
1140.162045 93.171 163.8031
1148.424129 93.177 163.6860
1156.746083 93.176 163.5819
1165.128342 93.170 163.4906
1173.571343 93.160 163.4112
1182.075524 93.147 163.3421
1190.641331 93.133 163.2813
1199.269209 93.120 163.2267
1207.959608 93.109 163.1763
1216.712981 93.100 163.1282
1225.529785 93.096 163.0814
1234.410479 93.095 163.0352
1243.355526 93.099 162.9901
1252.365393 93.107 162.9471
1261.440549 93.119 162.9081
1270.581467 93.135 162.8758
1279.788624 93.153 162.8529
1289.062500 93.174 162.8424
1298.403578 93.195 162.8472
1307.812346 93.218 162.8694
1317.289293 93.241 162.9111
1326.834914 93.264 162.9742
1336.449707 93.286 163.0601
1346.134173 93.307 163.1691
1355.888816 93.327 163.3004
1365.714145 93.346 163.4520
1375.610673 93.364 163.6210
1385.578915 93.381 163.8046
1395.619391 93.396 163.9997
1405.732624 93.410 164.2032
1415.919142 93.422 164.4120
1426.179476 93.433 164.6234
1436.514160 93.443 164.8351
1446.923734 93.451 165.0464
1457.408740 93.457 165.2574
1467.969724 93.461 165.4694
1478.607238 93.463 165.6845
1489.321836 93.463 165.9048
1500.114076 93.462 166.1324
1510.984521 93.459 166.3695
1521.933737 93.454 166.6171
1532.962297 93.449 166.8749
1544.070773 93.443 167.1407
1555.259747 93.436 167.4108
1566.529800 93.429 167.6812
1577.881521 93.423 167.9482
1589.315501 93.416 168.2096
1600.832336 93.410 168.4641
1612.432627 93.406 168.7107
1624.116978 93.402 168.9480
1635.886000 93.400 169.1743
1647.740304 93.401 169.3876
1659.680509 93.403 169.5859
1671.707238 93.407 169.7682
1683.821118 93.412 169.9343
1696.022780 93.417 170.0848
1708.312860 93.422 170.2213
1720.692000 93.428 170.3449
1733.160843 93.433 170.4573
1745.720041 93.439 170.5605
1758.370248 93.445 170.6571
1771.112124 93.452 170.7498
1783.946332 93.461 170.8406
1796.873543 93.471 170.9301
1809.894429 93.485 171.0179
1823.009670 93.500 171.1034
1836.219950 93.518 171.1856
1849.525956 93.537 171.2639
1862.928384 93.558 171.3367
1876.427931 93.580 171.4019
1890.025301 93.601 171.4570
1903.721204 93.620 171.4995
1917.516352 93.638 171.5281
1931.411466 93.652 171.5432
1945.407270 93.662 171.5459
1959.504493 93.669 171.5378
1973.703870 93.671 171.5204
1988.006142 93.670 171.4949
2002.412054 93.666 171.4632
2016.922357 93.659 171.4273
2031.537808 93.651 171.3895
2046.259169 93.641 171.3508
2061.087206 93.633 171.3109
2076.022694 93.625 171.2687
2091.066410 93.620 171.2237
2106.219139 93.617 171.1761
2121.481671 93.617 171.1265
2136.854802 93.620 171.0757
2152.339333 93.627 171.0253
2167.936071 93.638 170.9771
2183.645829 93.654 170.9328
2199.469427 93.675 170.8940
2215.407689 93.702 170.8609
2231.461446 93.735 170.8330
2247.631536 93.775 170.8095
2263.918800 93.823 170.7891
2280.324089 93.877 170.7702
2296.848258 93.939 170.7509
2313.492167 94.007 170.7295
2330.256685 94.080 170.7055
2347.142685 94.159 170.6800
2364.151049 94.242 170.6552
2381.282662 94.328 170.6338
2398.538418 94.417 170.6187
2415.919216 94.508 170.6113
2433.425962 94.601 170.6119
2451.059570 94.696 170.6189
2468.820958 94.792 170.6292
2486.711052 94.889 170.6380
2504.730786 94.985 170.6399
2522.881098 95.080 170.6288
2541.162934 95.173 170.5983
2559.577248 95.262 170.5428
2578.125000 95.346 170.4574
2596.807157 95.423 170.3385
2615.624692 95.492 170.1843
2634.578586 95.550 169.9951
2653.669829 95.598 169.7732
2672.899414 95.633 169.5235
2692.268345 95.655 169.2526
2711.777632 95.662 168.9690
2731.428290 95.655 168.6820
2751.221345 95.634 168.4016
2771.157829 95.598 168.1376
2791.238781 95.548 167.9002
2811.465248 95.484 167.6987
2831.838284 95.409 167.5420
2852.358952 95.322 167.4384
2873.028321 95.226 167.3953
2893.847468 95.121 167.4192
2914.817480 95.010 167.5149
2935.939449 94.894 167.6857
2957.214476 94.775 167.9328
2978.643672 94.655 168.2551
3000.228152 94.536 168.6492
3021.969041 94.420 169.1104
3043.867475 94.308 169.6328
3065.924593 94.203 170.2103
3088.141547 94.105 170.8369
3110.519493 94.016 171.5068
3133.059600 93.937 172.2137
3155.763041 93.869 172.9503
3178.631001 93.815 173.7068
3201.664672 93.774 174.4713
3224.865254 93.749 175.2291
3248.233957 93.739 175.9646
3271.771999 93.744 176.6620
3295.480608 93.765 177.3073
3319.361019 93.799 177.8896
3343.414477 93.846 178.4019
3367.642236 93.903 178.8415
3392.045560 93.970 179.2094
3416.625721 94.045 179.5092
3441.383999 94.128 179.7452
3466.321686 94.219 179.9216
3491.440082 94.317 -179.9592
3516.740496 94.422 -179.8976
3542.224247 94.535 -179.8964
3567.892664 94.654 -179.9612
3593.747085 94.779 179.9010
3619.788858 94.908 179.6828
3646.019340 95.039 179.3777
3672.439900 95.170 178.9812
3699.051913 95.297 178.4919
3725.856768 95.419 177.9117
3752.855862 95.533 177.2465
3780.050603 95.636 176.5059
3807.442408 95.726 175.7022
3835.032705 95.801 174.8503
3862.822933 95.861 173.9664
3890.814540 95.905 173.0677
3919.008986 95.932 172.1713
3947.407741 95.944 171.2936
3976.012284 95.941 170.4499
4004.824108 95.924 169.6530
4033.844715 95.895 168.9139
4063.075616 95.854 168.2412
4092.518337 95.802 167.6414
4122.174412 95.743 167.1189
4152.045387 95.675 166.6769
4182.132820 95.602 166.3173
4212.438278 95.524 166.0405
4242.963342 95.443 165.8468
4273.709604 95.360 165.7351
4304.678665 95.275 165.7038
4335.872141 95.192 165.7502
4367.291658 95.110 165.8708
4398.938854 95.031 166.0609
4430.815378 94.956 166.3154
4462.922893 94.886 166.6289
4495.263072 94.822 166.9966
4527.837601 94.764 167.4144
4560.648179 94.711 167.8791
4593.696515 94.665 168.3890
4626.984334 94.625 168.9437
4660.513370 94.591 169.5439
4694.285371 94.564 170.1913
4728.302098 94.543 170.8882
4762.565324 94.530 171.6367
4797.076835 94.524 172.4385
4831.838432 94.527 173.2935
4866.851925 94.540 174.1998
4902.119140 94.564 175.1528
4937.641916 94.600 176.1457
4973.422105 94.649 177.1695
5009.461572 94.712 178.2133
5045.762195 94.788 179.2652
5082.325868 94.879 -179.6875
5119.154496 94.983 -178.6582
5156.250000 95.100 -177.6602
5193.614313 95.229 -176.7075
5231.249383 95.369 -175.8136
5269.157173 95.518 -174.9919
5307.339658 95.675 -174.2549
5345.798829 95.837 -173.6142
5384.536691 96.003 -173.0793
5423.555263 96.169 -172.6582
5462.856580 96.335 -172.3561
5502.442691 96.498 -172.1758
5542.315659 96.657 -172.1168
5582.477563 96.808 -172.1762
5622.930497 96.952 -172.3487
5663.676569 97.088 -172.6267
5704.717904 97.213 -173.0005
5746.056642 97.329 -173.4586
5787.694937 97.434 -173.9880
5829.634960 97.528 -174.5742
5871.878898 97.613 -175.2025
5914.428953 97.689 -175.8584
5957.287343 97.758 -176.5286
6000.456303 97.819 -177.2014
6043.938083 97.876 -177.8674
6087.734950 97.930 -178.5198
6131.849187 97.982 -179.1548
6176.283094 98.035 -179.7719
6221.038987 98.091 179.6260
6266.119200 98.151 179.0325
6311.526083 98.218 178.4381
6357.262002 98.295 177.8300
6403.329344 98.383 177.1921
6449.730508 98.484 176.5055
6496.467914 98.600 175.7484
6543.543998 98.732 174.8962
6590.961215 98.881 173.9232
6638.722037 99.047 172.8023
6686.828954 99.227 171.5075
6735.284473 99.419 170.0152
6784.091120 99.619 168.3056
6833.251441 99.822 166.3648
6882.767998 100.021 164.1854
6932.643372 100.210 161.7672
6982.880164 100.383 159.1174
7033.480992 100.532 156.2504
7084.448495 100.653 153.1870
7135.785329 100.739 149.9541
7187.494171 100.787 146.5825
7239.577717 100.793 143.1066
7292.038681 100.754 139.5619
7344.879799 100.671 135.9832
7398.103826 100.544 132.4031
7451.713536 100.374 128.8499
7505.711724 100.164 125.3458
7560.101205 99.918 121.9063
7614.884815 99.641 118.5386
7670.065409 99.338 115.2415
7725.645865 99.016 112.0047
7781.629080 98.680 108.8093
7838.017972 98.338 105.6280
7894.815481 97.996 102.4266
7952.024569 97.661 99.1649
8009.648217 97.339 95.7982
8067.689429 97.035 92.2791
8126.151233 96.753 88.5585
8185.036674 96.493 84.5885
8244.348824 96.255 80.3237
8304.090774 96.036 75.7249
8364.265639 95.827 70.7620
8424.876556 95.620 65.4171
8485.926684 95.406 59.6870
8547.419207 95.174 53.5853
8609.357330 94.915 47.1416
8671.744282 94.624 40.4008
8734.583316 94.299 33.4196
8797.877707 93.941 26.2634
8861.630756 93.559 19.0031
8925.845785 93.164 11.7114
8990.526143 92.772 4.4606
9055.675202 92.403 -2.6825
9121.296357 92.078 -9.6616
9187.393031 91.817 -16.4358
9253.968668 91.636 -22.9833
9321.026740 91.546 -29.3030
9388.570742 91.544 -35.4113
9456.604196 91.620 -41.3372
9525.130648 91.758 -47.1152
9594.153671 91.935 -52.7783
9663.676863 92.128 -58.3527
9733.703850 92.315 -63.8520
9804.238280 92.480 -69.2766
9875.283832 92.606 -74.6115
9946.844210 92.684 -79.8284
10018.923143 92.706 -84.8879
10091.524390 92.669 -89.7435
10164.651736 92.576 -94.3467
10238.308993 92.431 -98.6525
10312.500000 92.244 -102.6252
10387.228626 92.027 -106.2439
10462.498767 91.794 -109.5079
10538.314345 91.564 -112.4406
10614.679315 91.354 -115.0921
10691.597657 91.179 -117.5383
10769.073381 91.048 -119.8749
10847.110526 90.967 -122.2072
10925.713161 90.928 -124.6364
11004.885382 90.919 -127.2449
11084.631318 90.921 -130.0856
11164.955126 90.913 -133.1742
11245.860993 90.872 -136.4875
11327.353138 90.779 -139.9669
11409.435808 90.621 -143.5231
11492.113283 90.386 -147.0458
11575.389873 90.070 -150.4117
11659.269920 89.675 -153.4949
11743.757796 89.204 -156.1747
11828.857906 88.666 -158.3460
11914.574686 88.076 -159.9317
12000.912606 87.452 -160.8997
12087.876166 86.815 -161.2831
12175.469900 86.192 -161.1977
12263.698373 85.610 -160.8425
12352.566187 85.096 -160.4742
12442.077974 84.669 -160.3584
12532.238400 84.337 -160.7169
12623.052165 84.098 -161.6956
12714.524005 83.936 -163.3613
12806.658687 83.832 -165.7206
12899.461015 83.767 -168.7453
12992.935827 83.724 -172.3953
13087.087996 83.692 -176.6354
13181.922430 83.665 178.5550
13277.444074 83.640 173.1758
13373.657907 83.619 167.2016
13470.568945 83.604 160.5771
13568.182241 83.600 153.2125
13666.502883 83.608 144.9744
13765.535996 83.627 135.6743
13865.286744 83.656 125.0527
13965.760328 83.686 112.7646
14066.961984 83.709 98.3909
14168.896989 83.714 81.5383
14271.570658 83.689 62.1368
14374.988342 83.623 40.8947
14479.155433 83.511 19.3853
14584.077362 83.349 -0.7429
14689.759598 83.140 -18.6462
14796.207652 82.891 -34.3106
14903.427072 82.613 -48.1087
15011.423448 82.319 -60.4762
15120.202410 82.022 -71.7912
15229.769630 81.732 -82.3541
15340.130819 81.452 -92.3936
15451.291730 81.178 -102.0751
15563.258160 80.899 -111.5053
15676.035944 80.599 -120.7351
15789.630962 80.259 -129.7625
15904.049137 79.863 -138.5386
16019.296433 79.398 -146.9771
16135.378859 78.855 -154.9609
16252.302465 78.231 -162.3490
16370.073348 77.525 -168.9763
16488.697648 76.739 -174.6462
16608.181548 75.878 -179.1100
16728.531278 74.948 177.9829
16849.753112 73.955 177.1940
16971.853368 72.908 179.5095
17094.838414 71.815 -173.3530
17218.714660 70.690 -159.2466
17343.488565 69.547 -139.1389
17469.166632 68.409 -120.6161
17595.755415 67.310 -109.0365
17723.261512 66.292 -103.4577
17851.691571 65.409 -101.7488
17981.052287 64.717 -102.5405
18111.350404 64.252 -105.1063
18242.592715 64.017 -109.0735
18374.786062 63.977 -114.2490
18507.937336 64.069 -120.5229
18642.053479 64.228 -127.8154
18777.141484 64.394 -136.0439
18913.208391 64.528 -145.0984
19050.261296 64.604 -154.8171
19188.307342 64.613 -164.9572
19327.353727 64.558 -175.1644
19467.407699 64.451 175.0403
19608.476560 64.316 166.2323
19750.567664 64.177 159.0071
19893.688419 64.065 153.8831
20037.846286 64.001 151.2283
