* Measurement data measured by REW V5.31.3
* Source: EXCL: Headset (USB-C to 3.5mm Headphone Jack Adapter), MICROPHONE (Master Volume), 0, volume: 0.260
* Format: 256k Log Swept Sine, 1 sweep at -12.0 dBFS with no timing reference
* Dated: Feb 14, 2025 1:46:41 PM
* REW Settings:
*  C-weighting compensation: Off
*  Target level: 75.0 dB
* Note: ; 
* Measurement: Satyr 3 L7
* Smoothing: 1/6 octave
* Frequency Step: 96 ppo
* Start Frequency: 20.0 Hz
*
* Freq(Hz) SPL(dB) Phase(degrees)
20.141602 92.746 -25.0273
20.287556 92.768 -25.2572
20.434568 92.796 -25.5659
20.582645 92.827 -25.9458
20.731796 92.857 -26.3885
20.882027 92.882 -26.8850
21.033346 92.901 -27.4265
21.185763 92.912 -28.0041
21.339284 92.913 -28.6096
21.493917 92.906 -29.2353
21.649671 92.890 -29.8744
21.806553 92.868 -30.5210
21.964572 92.840 -31.1702
22.123737 92.810 -31.8183
22.284054 92.779 -32.4630
22.445534 92.749 -33.1027
22.608183 92.723 -33.7369
22.772012 92.702 -34.3662
22.937027 92.689 -34.9910
23.103238 92.683 -35.6126
23.270654 92.687 -36.2317
23.439282 92.701 -36.8493
23.609133 92.725 -37.4657
23.780215 92.761 -38.0811
23.952536 92.807 -38.6951
24.126106 92.865 -39.3076
24.300934 92.934 -39.9179
24.477028 93.013 -40.5259
24.654399 93.102 -41.1316
24.833055 93.199 -41.7352
25.013005 93.304 -42.3377
25.194260 93.414 -42.9402
25.376828 93.527 -43.5440
25.560719 93.643 -44.1509
25.745942 93.758 -44.7623
25.932508 93.872 -45.3793
26.120426 93.983 -46.0028
26.309705 94.089 -46.6331
26.500356 94.189 -47.2699
26.692388 94.284 -47.9126
26.885812 94.372 -48.5601
27.080638 94.454 -49.2110
27.276876 94.531 -49.8641
27.474535 94.603 -50.5183
27.673627 94.673 -51.1729
27.874161 94.743 -51.8276
28.076149 94.814 -52.4826
28.279600 94.890 -53.1388
28.484526 94.975 -53.7970
28.690937 95.070 -54.4584
28.898843 95.177 -55.1239
29.108256 95.300 -55.7941
29.319186 95.438 -56.4691
29.531645 95.591 -57.1484
29.745644 95.758 -57.8311
29.961193 95.937 -58.5158
30.178304 96.124 -59.2012
30.396989 96.315 -59.8862
30.617258 96.506 -60.5700
30.839123 96.692 -61.2526
31.062596 96.868 -61.9346
31.287688 97.030 -62.6171
31.514412 97.174 -63.3019
31.742778 97.297 -63.9903
31.972800 97.394 -64.6839
32.204488 97.465 -65.3835
32.437855 97.507 -66.0891
32.672913 97.521 -66.8003
32.909674 97.508 -67.5158
33.148151 97.468 -68.2339
33.388356 97.404 -68.9527
33.630302 97.319 -69.6703
33.874001 97.217 -70.3854
34.119466 97.101 -71.0965
34.366710 96.976 -71.8030
34.615745 96.846 -72.5045
34.866585 96.716 -73.2010
35.119243 96.590 -73.8928
35.373731 96.470 -74.5802
35.630064 96.362 -75.2640
35.888254 96.268 -75.9447
36.148315 96.190 -76.6229
36.410261 96.131 -77.2992
36.674104 96.092 -77.9741
36.939860 96.074 -78.6479
37.207542 96.078 -79.3211
37.477163 96.104 -79.9939
37.748738 96.153 -80.6667
38.022281 96.224 -81.3400
38.297806 96.315 -82.0139
38.575327 96.427 -82.6890
38.854860 96.558 -83.3654
39.136419 96.708 -84.0434
39.420017 96.875 -84.7228
39.705671 97.057 -85.4033
39.993395 97.255 -86.0842
40.283203 97.466 -86.7647
40.575112 97.690 -87.4437
40.869136 97.924 -88.1204
41.165290 98.169 -88.7935
41.463591 98.422 -89.4625
41.764053 98.682 -90.1267
42.066693 98.946 -90.7860
42.371525 99.212 -91.4407
42.678567 99.479 -92.0912
42.987834 99.743 -92.7383
43.299341 100.003 -93.3832
43.613106 100.256 -94.0268
43.929145 100.500 -94.6702
44.247473 100.734 -95.3141
44.568109 100.954 -95.9592
44.891068 101.160 -96.6057
45.216367 101.350 -97.2535
45.544023 101.524 -97.9026
45.874054 101.680 -98.5525
46.206476 101.819 -99.2032
46.541307 101.941 -99.8546
46.878565 102.046 -100.5070
47.218266 102.134 -101.1609
47.560429 102.206 -101.8169
47.905072 102.263 -102.4758
48.252212 102.306 -103.1382
48.601867 102.336 -103.8047
48.954056 102.355 -104.4755
49.308798 102.364 -105.1510
49.666109 102.365 -105.8312
50.026010 102.360 -106.5161
50.388520 102.350 -107.2058
50.753656 102.338 -107.8998
51.121437 102.325 -108.5976
51.491884 102.312 -109.2987
51.865016 102.301 -110.0021
52.240851 102.292 -110.7071
52.619410 102.287 -111.4130
53.000712 102.284 -112.1191
53.384777 102.285 -112.8251
53.771625 102.288 -113.5306
54.161276 102.294 -114.2357
54.553751 102.300 -114.9403
54.949070 102.306 -115.6444
55.347254 102.312 -116.3482
55.748323 102.316 -117.0513
56.152298 102.317 -117.7537
56.559201 102.315 -118.4549
56.969052 102.311 -119.1547
57.381873 102.302 -119.8530
57.797686 102.291 -120.5502
58.216512 102.275 -121.2469
58.638373 102.257 -121.9444
59.063291 102.235 -122.6441
59.491288 102.210 -123.3474
59.922386 102.183 -124.0553
60.356608 102.153 -124.7681
60.793977 102.120 -125.4854
61.234515 102.086 -126.2060
61.678246 102.050 -126.9288
62.125192 102.014 -127.6525
62.575377 101.977 -128.3762
63.028824 101.941 -129.0992
63.485557 101.906 -129.8211
63.945599 101.871 -130.5414
64.408975 101.839 -131.2597
64.875709 101.808 -131.9757
65.345825 101.779 -132.6889
65.819348 101.752 -133.3986
66.296302 101.728 -134.1043
66.776713 101.706 -134.8052
67.260604 101.686 -135.5005
67.748002 101.668 -136.1897
68.238932 101.651 -136.8723
68.733420 101.637 -137.5481
69.231490 101.623 -138.2171
69.733170 101.610 -138.8795
70.238485 101.599 -139.5357
70.747463 101.588 -140.1862
71.260128 101.577 -140.8314
71.776508 101.568 -141.4718
72.296630 101.559 -142.1077
72.820521 101.551 -142.7393
73.348209 101.544 -143.3669
73.879720 101.537 -143.9907
74.415083 101.531 -144.6107
74.954326 101.525 -145.2270
75.497475 101.519 -145.8395
76.044561 101.513 -146.4481
76.595612 101.505 -147.0525
77.150655 101.497 -147.6525
77.709720 101.485 -148.2481
78.272837 101.472 -148.8390
78.840034 101.455 -149.4254
79.411342 101.434 -150.0071
79.986789 101.409 -150.5841
80.566406 101.379 -151.1563
81.150224 101.346 -151.7237
81.738272 101.308 -152.2859
82.330581 101.267 -152.8428
82.927182 101.224 -153.3943
83.528107 101.179 -153.9399
84.133386 101.135 -154.4798
84.743051 101.094 -155.0140
85.357134 101.058 -155.5425
85.975667 101.031 -156.0656
86.598682 101.016 -156.5834
87.226212 101.017 -157.0959
87.858289 101.036 -157.6032
88.494946 101.078 -158.1053
89.136217 101.142 -158.6023
89.782135 101.231 -159.0943
90.432733 101.344 -159.5817
91.088046 101.477 -160.0645
91.748108 101.629 -160.5429
92.412952 101.795 -161.0168
93.082615 101.969 -161.4861
93.757130 102.145 -161.9506
94.436533 102.319 -162.4100
95.120859 102.486 -162.8639
95.810144 102.641 -163.3120
96.504423 102.782 -163.7542
97.203734 102.906 -164.1900
97.908112 103.012 -164.6195
98.617595 103.101 -165.0424
99.332219 103.174 -165.4587
100.052021 103.232 -165.8680
100.777039 103.277 -166.2704
101.507311 103.311 -166.6655
102.242875 103.336 -167.0534
102.983769 103.354 -167.4342
103.730032 103.367 -167.8079
104.481702 103.375 -168.1749
105.238820 103.377 -168.5357
106.001424 103.375 -168.8908
106.769554 103.365 -169.2409
107.543250 103.348 -169.5865
108.322553 103.321 -169.9281
109.107503 103.282 -170.2663
109.898141 103.232 -170.6014
110.694508 103.168 -170.9338
111.496646 103.090 -171.2638
112.304596 103.000 -171.5917
113.118402 102.898 -171.9176
113.938104 102.785 -172.2414
114.763747 102.664 -172.5629
115.595372 102.537 -172.8819
116.433024 102.406 -173.1982
117.276746 102.273 -173.5116
118.126581 102.140 -173.8223
118.982575 102.008 -174.1303
119.844772 101.879 -174.4361
120.713217 101.753 -174.7399
121.587954 101.629 -175.0423
122.469031 101.507 -175.3436
123.356492 101.386 -175.6440
124.250384 101.264 -175.9439
125.150753 101.141 -176.2435
126.057647 101.015 -176.5431
126.971113 100.885 -176.8431
127.891198 100.748 -177.1437
128.817950 100.605 -177.4453
129.751418 100.455 -177.7478
130.691651 100.299 -178.0515
131.638696 100.136 -178.3558
132.592604 99.968 -178.6604
133.553425 99.796 -178.9643
134.521208 99.624 -179.2662
135.496004 99.453 -179.5645
136.477864 99.287 -179.8571
137.466839 99.129 179.8589
138.462981 98.982 179.5865
139.466340 98.848 179.3295
140.476971 98.730 179.0913
141.494925 98.628 178.8754
142.520256 98.543 178.6844
143.553016 98.473 178.5201
144.593260 98.417 178.3832
145.641043 98.372 178.2736
146.696418 98.335 178.1897
147.759441 98.303 178.1295
148.830166 98.271 178.0904
149.908651 98.238 178.0696
150.994951 98.201 178.0649
152.089123 98.159 178.0743
153.191223 98.112 178.0966
154.301310 98.061 178.1315
155.419441 98.005 178.1790
156.545674 97.947 178.2394
157.680069 97.889 178.3134
158.822683 97.832 178.4012
159.973578 97.778 178.5028
161.132813 97.729 178.6178
162.300447 97.685 178.7451
163.476543 97.648 178.8831
164.661162 97.619 179.0295
165.854364 97.597 179.1815
167.056213 97.583 179.3361
168.266772 97.577 179.4897
169.486102 97.580 179.6386
170.714268 97.591 179.7793
171.951334 97.610 179.9081
173.197364 97.638 -179.9782
174.452424 97.673 -179.8822
175.716578 97.715 -179.8063
176.989893 97.762 -179.7516
178.272434 97.813 -179.7190
179.564270 97.866 -179.7083
180.865467 97.921 -179.7190
182.176092 97.974 -179.7500
183.496216 98.025 -179.7999
184.825905 98.073 -179.8670
186.165229 98.117 -179.9495
187.514259 98.156 179.9545
188.873065 98.191 179.8467
190.241717 98.222 179.7290
191.620287 98.250 179.6030
193.008847 98.275 179.4701
194.407468 98.298 179.3315
195.816225 98.320 179.1885
197.235190 98.339 179.0420
198.664438 98.357 178.8929
200.104042 98.373 178.7421
201.554078 98.386 178.5905
203.014622 98.396 178.4392
204.485750 98.403 178.2890
205.967538 98.406 178.1408
207.460064 98.405 177.9954
208.963405 98.400 177.8533
210.477640 98.391 177.7150
212.002848 98.378 177.5807
213.539108 98.361 177.4506
215.086500 98.342 177.3248
216.645105 98.321 177.2031
218.215005 98.297 177.0856
219.796281 98.271 176.9720
221.389015 98.243 176.8622
222.993292 98.212 176.7560
224.609193 98.178 176.6533
226.236804 98.140 176.5536
227.876209 98.097 176.4571
229.527494 98.050 176.3632
231.190745 97.997 176.2718
232.866048 97.939 176.1825
234.553491 97.876 176.0951
236.253163 97.809 176.0092
237.965150 97.737 175.9246
239.689544 97.663 175.8409
241.426433 97.587 175.7578
243.175909 97.511 175.6753
244.938062 97.434 175.5933
246.712984 97.359 175.5123
248.500768 97.285 175.4327
250.301507 97.215 175.3553
252.115295 97.148 175.2807
253.942226 97.085 175.2094
255.782396 97.027 175.1417
257.635901 96.974 175.0777
259.502837 96.927 175.0168
261.383301 96.886 174.9587
263.277392 96.851 174.9029
265.185209 96.823 174.8490
267.106850 96.801 174.7970
269.042417 96.786 174.7468
270.992009 96.776 174.6984
272.955729 96.772 174.6513
274.933678 96.772 174.6053
276.925961 96.776 174.5601
278.932681 96.784 174.5155
280.953942 96.794 174.4717
282.989850 96.807 174.4288
285.040511 96.822 174.3869
287.106032 96.840 174.3461
289.186521 96.862 174.3062
291.282086 96.887 174.2672
293.392836 96.918 174.2289
295.518881 96.954 174.1912
297.660333 96.996 174.1543
299.817302 97.043 174.1181
301.989902 97.096 174.0826
304.178245 97.153 174.0480
306.382446 97.211 174.0143
308.602620 97.271 173.9818
310.838882 97.329 173.9504
313.091348 97.383 173.9204
315.360137 97.433 173.8918
317.645367 97.477 173.8646
319.947156 97.513 173.8388
322.265625 97.541 173.8143
324.600895 97.560 173.7911
326.953086 97.570 173.7691
329.322323 97.570 173.7481
331.708729 97.559 173.7282
334.112427 97.538 173.7092
336.533543 97.507 173.6910
338.972204 97.467 173.6736
341.428536 97.417 173.6568
343.902668 97.359 173.6407
346.394729 97.294 173.6251
348.904848 97.223 173.6103
351.433156 97.149 173.5961
353.979786 97.073 173.5824
356.544869 96.999 173.5688
359.128540 96.928 173.5552
361.730934 96.864 173.5413
364.352185 96.809 173.5269
366.992431 96.767 173.5122
369.651810 96.740 173.4976
372.330459 96.729 173.4833
375.028519 96.736 173.4697
377.746130 96.761 173.4569
380.483434 96.804 173.4452
383.240574 96.862 173.4346
386.017693 96.934 173.4251
388.814937 97.017 173.4167
391.632450 97.108 173.4095
394.470380 97.205 173.4036
397.328875 97.305 173.3988
400.208084 97.406 173.3951
403.108157 97.506 173.3922
406.029245 97.604 173.3899
408.971500 97.698 173.3877
411.935076 97.790 173.3854
414.920127 97.879 173.3829
417.926810 97.965 173.3800
420.955280 98.050 173.3769
424.005695 98.133 173.3737
427.078215 98.216 173.3707
430.173000 98.299 173.3683
433.290211 98.383 173.3667
436.430010 98.466 173.3663
439.592562 98.549 173.3673
442.778031 98.631 173.3696
445.986583 98.710 173.3731
449.218386 98.785 173.3775
452.473607 98.854 173.3825
455.752418 98.915 173.3880
459.054987 98.969 173.3937
462.381489 99.012 173.4000
465.732096 99.045 173.4068
469.106983 99.068 173.4146
472.506325 99.081 173.4236
475.930301 99.084 173.4340
479.379088 99.078 173.4458
482.852867 99.064 173.4590
486.351817 99.043 173.4737
489.876123 99.017 173.4898
493.425968 98.986 173.5075
497.001536 98.951 173.5269
500.603014 98.913 173.5480
504.230589 98.872 173.5710
507.884452 98.828 173.5957
511.564792 98.782 173.6221
515.271802 98.733 173.6500
519.005673 98.683 173.6791
522.766602 98.631 173.7093
526.554785 98.580 173.7402
530.370418 98.531 173.7719
534.213700 98.486 173.8042
538.084833 98.446 173.8370
541.984018 98.414 173.8701
545.911457 98.391 173.9035
549.867357 98.378 173.9371
553.851922 98.374 173.9706
557.865362 98.380 174.0039
561.907884 98.393 174.0367
565.979700 98.413 174.0688
570.081022 98.437 174.0997
574.212064 98.463 174.1292
578.373042 98.489 174.1571
582.564171 98.513 174.1834
586.785671 98.533 174.2079
591.037762 98.549 174.2304
595.320665 98.558 174.2505
599.634604 98.562 174.2677
603.979804 98.558 174.2818
608.356491 98.549 174.2924
612.764893 98.533 174.2994
617.205240 98.512 174.3029
621.677763 98.486 174.3028
626.182696 98.458 174.2991
630.720274 98.429 174.2918
635.290733 98.400 174.2807
639.894312 98.374 174.2655
644.531250 98.353 174.2462
649.201789 98.337 174.2225
653.906173 98.328 174.1946
658.644647 98.327 174.1623
663.417457 98.333 174.1256
668.224854 98.345 174.0844
673.067086 98.363 174.0386
677.944408 98.386 173.9883
682.857073 98.411 173.9339
687.805336 98.436 173.8757
692.789457 98.461 173.8142
697.809695 98.484 173.7493
702.866312 98.504 173.6811
707.959571 98.520 173.6090
713.089738 98.531 173.5324
718.257080 98.539 173.4508
723.461867 98.541 173.3637
728.704370 98.540 173.2708
733.984862 98.534 173.1721
739.303619 98.526 173.0676
744.660918 98.515 172.9572
750.057038 98.502 172.8412
755.492260 98.487 172.7196
760.966869 98.471 172.5930
766.481148 98.453 172.4618
772.035387 98.434 172.3267
777.629873 98.412 172.1885
783.264900 98.387 172.0478
788.940760 98.359 171.9051
794.657750 98.326 171.7603
800.416168 98.287 171.6133
806.216313 98.243 171.4637
812.058489 98.192 171.3106
817.943000 98.135 171.1533
823.870152 98.072 170.9907
829.840255 98.002 170.8220
835.853619 97.927 170.6465
841.910559 97.847 170.4639
848.011390 97.763 170.2744
854.156430 97.675 170.0786
860.346000 97.586 169.8776
866.580422 97.495 169.6722
872.860020 97.405 169.4638
879.185124 97.316 169.2529
885.556062 97.229 169.0401
891.973166 97.147 168.8253
898.436771 97.069 168.6083
904.947215 96.998 168.3887
911.504835 96.934 168.1658
918.109975 96.877 167.9391
924.762978 96.830 167.7082
931.464192 96.791 167.4727
938.213966 96.760 167.2327
945.012651 96.739 166.9886
951.860602 96.726 166.7415
958.758176 96.720 166.4926
965.705733 96.721 166.2433
972.703635 96.728 165.9948
979.752246 96.741 165.7474
986.851935 96.758 165.5010
994.003071 96.779 165.2552
1001.206027 96.805 165.0096
1008.461179 96.834 164.7638
1015.768904 96.867 164.5175
1023.129584 96.904 164.2705
1030.543603 96.946 164.0227
1038.011347 96.993 163.7737
1045.533205 97.045 163.5232
1053.109569 97.104 163.2709
1060.740836 97.169 163.0167
1068.427401 97.239 162.7607
1076.169666 97.315 162.5034
1083.968035 97.394 162.2458
1091.822915 97.475 161.9889
1099.734713 97.557 161.7338
1107.703844 97.638 161.4813
1115.730723 97.717 161.2317
1123.815768 97.791 160.9848
1131.959400 97.859 160.7402
1140.162045 97.920 160.4977
1148.424129 97.974 160.2572
1156.746083 98.020 160.0193
1165.128342 98.059 159.7850
1173.571343 98.090 159.5551
1182.075524 98.117 159.3307
1190.641331 98.138 159.1127
1199.269209 98.157 158.9019
1207.959608 98.173 158.6985
1216.712981 98.189 158.5028
1225.529785 98.203 158.3153
1234.410479 98.216 158.1368
1243.355526 98.228 157.9683
1252.365393 98.238 157.8113
1261.440549 98.246 157.6670
1270.581467 98.251 157.5364
1279.788624 98.253 157.4202
1289.062500 98.252 157.3184
1298.403578 98.247 157.2307
1307.812346 98.238 157.1569
1317.289293 98.226 157.0967
1326.834914 98.211 157.0497
1336.449707 98.192 157.0156
1346.134173 98.172 156.9937
1355.888816 98.149 156.9832
1365.714145 98.125 156.9833
1375.610673 98.098 156.9932
1385.578915 98.070 157.0121
1395.619391 98.040 157.0393
1405.732624 98.007 157.0745
1415.919142 97.974 157.1177
1426.179476 97.938 157.1697
1436.514160 97.901 157.2318
1446.923734 97.864 157.3052
1457.408740 97.826 157.3909
1467.969724 97.791 157.4893
1478.607238 97.757 157.6000
1489.321836 97.727 157.7219
1500.114076 97.701 157.8538
1510.984521 97.679 157.9949
1521.933737 97.661 158.1452
1532.962297 97.647 158.3049
1544.070773 97.638 158.4741
1555.259747 97.633 158.6527
1566.529800 97.631 158.8397
1577.881521 97.633 159.0336
1589.315501 97.637 159.2328
1600.832336 97.644 159.4357
1612.432627 97.652 159.6413
1624.116978 97.661 159.8487
1635.886000 97.671 160.0567
1647.740304 97.681 160.2640
1659.680509 97.693 160.4689
1671.707238 97.704 160.6701
1683.821118 97.717 160.8671
1696.022780 97.729 161.0609
1708.312860 97.741 161.2531
1720.692000 97.754 161.4462
1733.160843 97.767 161.6430
1745.720041 97.780 161.8461
1758.370248 97.793 162.0577
1771.112124 97.806 162.2804
1783.946332 97.819 162.5166
1796.873543 97.832 162.7687
1809.894429 97.845 163.0379
1823.009670 97.858 163.3241
1836.219950 97.871 163.6251
1849.525956 97.885 163.9382
1862.928384 97.899 164.2609
1876.427931 97.914 164.5916
1890.025301 97.931 164.9290
1903.721204 97.948 165.2716
1917.516352 97.967 165.6170
1931.411466 97.987 165.9627
1945.407270 98.009 166.3070
1959.504493 98.031 166.6493
1973.703870 98.052 166.9896
1988.006142 98.072 167.3278
2002.412054 98.090 167.6631
2016.922357 98.106 167.9940
2031.537808 98.117 168.3189
2046.259169 98.125 168.6359
2061.087206 98.127 168.9428
2076.022694 98.125 169.2371
2091.066410 98.118 169.5159
2106.219139 98.106 169.7759
2121.481671 98.090 170.0138
2136.854802 98.071 170.2271
2152.339333 98.049 170.4141
2167.936071 98.025 170.5748
2183.645829 98.000 170.7096
2199.469427 97.975 170.8195
2215.407689 97.951 170.9056
2231.461446 97.929 170.9689
2247.631536 97.909 171.0103
2263.918800 97.891 171.0308
2280.324089 97.877 171.0306
2296.848258 97.865 171.0101
2313.492167 97.857 170.9684
2330.256685 97.851 170.9047
2347.142685 97.847 170.8178
2364.151049 97.844 170.7070
2381.282662 97.842 170.5716
2398.538418 97.841 170.4116
2415.919216 97.839 170.2274
2433.425962 97.836 170.0195
2451.059570 97.833 169.7888
2468.820958 97.828 169.5362
2486.711052 97.823 169.2623
2504.730786 97.816 168.9680
2522.881098 97.807 168.6544
2541.162934 97.798 168.3237
2559.577248 97.786 167.9786
2578.125000 97.774 167.6231
2596.807157 97.761 167.2624
2615.624692 97.748 166.9028
2634.578586 97.734 166.5512
2653.669829 97.722 166.2148
2672.899414 97.713 165.9000
2692.268345 97.707 165.6127
2711.777632 97.704 165.3578
2731.428290 97.707 165.1395
2751.221345 97.713 164.9613
2771.157829 97.725 164.8256
2791.238781 97.740 164.7345
2811.465248 97.759 164.6895
2831.838284 97.779 164.6920
2852.358952 97.800 164.7431
2873.028321 97.820 164.8441
2893.847468 97.838 164.9960
2914.817480 97.853 165.1998
2935.939449 97.865 165.4556
2957.214476 97.873 165.7627
2978.643672 97.876 166.1189
3000.228152 97.877 166.5202
3021.969041 97.874 166.9609
3043.867475 97.870 167.4334
3065.924593 97.864 167.9287
3088.141547 97.858 168.4361
3110.519493 97.853 168.9440
3133.059600 97.849 169.4400
3155.763041 97.846 169.9123
3178.631001 97.845 170.3499
3201.664672 97.845 170.7442
3224.865254 97.844 171.0905
3248.233957 97.842 171.3886
3271.771999 97.837 171.6431
3295.480608 97.828 171.8639
3319.361019 97.814 172.0649
3343.414477 97.795 172.2632
3367.642236 97.771 172.4766
3392.045560 97.744 172.7217
3416.625721 97.717 173.0117
3441.383999 97.693 173.3538
3466.321686 97.676 173.7476
3491.440082 97.671 174.1848
3516.740496 97.679 174.6493
3542.224247 97.705 175.1181
3567.892664 97.750 175.5640
3593.747085 97.815 175.9576
3619.788858 97.898 176.2708
3646.019340 97.997 176.4789
3672.439900 98.108 176.5632
3699.051913 98.226 176.5117
3725.856768 98.348 176.3200
3752.855862 98.469 175.9913
3780.050603 98.583 175.5352
3807.442408 98.687 174.9662
3835.032705 98.777 174.3032
3862.822933 98.852 173.5672
3890.814540 98.909 172.7808
3919.008986 98.946 171.9671
3947.407741 98.964 171.1489
3976.012284 98.962 170.3482
4004.824108 98.940 169.5860
4033.844715 98.900 168.8814
4063.075616 98.843 168.2515
4092.518337 98.770 167.7115
4122.174412 98.683 167.2739
4152.045387 98.584 166.9490
4182.132820 98.475 166.7450
4212.438278 98.359 166.6682
4242.963342 98.236 166.7229
4273.709604 98.111 166.9120
4304.678665 97.984 167.2368
4335.872141 97.858 167.6968
4367.291658 97.734 168.2892
4398.938854 97.616 169.0094
4430.815378 97.503 169.8501
4462.922893 97.399 170.8016
4495.263072 97.303 171.8521
4527.837601 97.217 172.9879
4560.648179 97.142 174.1941
4593.696515 97.078 175.4547
4626.984334 97.025 176.7537
4660.513370 96.984 178.0752
4694.285371 96.955 179.4042
4728.302098 96.938 -179.2738
4762.565324 96.935 -177.9721
4797.076835 96.944 -176.7030
4831.838432 96.967 -175.4780
4866.851925 97.003 -174.3072
4902.119140 97.054 -173.1999
4937.641916 97.118 -172.1639
4973.422105 97.195 -171.2059
5009.461572 97.285 -170.3311
5045.762195 97.386 -169.5436
5082.325868 97.499 -168.8461
5119.154496 97.620 -168.2406
5156.250000 97.750 -167.7278
5193.614313 97.887 -167.3077
5231.249383 98.028 -166.9799
5269.157173 98.173 -166.7434
5307.339658 98.319 -166.5968
5345.798829 98.466 -166.5385
5384.536691 98.611 -166.5665
5423.555263 98.754 -166.6781
5462.856580 98.893 -166.8706
5502.442691 99.027 -167.1401
5542.315659 99.155 -167.4823
5582.477563 99.276 -167.8917
5622.930497 99.390 -168.3622
5663.676569 99.496 -168.8861
5704.717904 99.594 -169.4551
5746.056642 99.685 -170.0597
5787.694937 99.768 -170.6891
5829.634960 99.845 -171.3321
5871.878898 99.915 -171.9763
5914.428953 99.980 -172.6093
5957.287343 100.040 -173.2190
6000.456303 100.097 -173.7939
6043.938083 100.151 -174.3240
6087.734950 100.203 -174.8014
6131.849187 100.254 -175.2204
6176.283094 100.306 -175.5784
6221.038987 100.358 -175.8760
6266.119200 100.412 -176.1172
6311.526083 100.467 -176.3098
6357.262002 100.526 -176.4646
6403.329344 100.588 -176.5954
6449.730508 100.653 -176.7183
6496.467914 100.722 -176.8509
6543.543998 100.795 -177.0111
6590.961215 100.872 -177.2171
6638.722037 100.954 -177.4857
6686.828954 101.040 -177.8326
6735.284473 101.130 -178.2710
6784.091120 101.224 -178.8113
6833.251441 101.321 -179.4607
6882.767998 101.420 179.7776
6932.643372 101.522 178.9041
6982.880164 101.626 177.9218
7033.480992 101.732 176.8355
7084.448495 101.841 175.6497
7135.785329 101.953 174.3669
7187.494171 102.069 172.9860
7239.577717 102.190 171.5023
7292.038681 102.316 169.9072
7344.879799 102.445 168.1890
7398.103826 102.575 166.3341
7451.713536 102.705 164.3286
7505.711724 102.830 162.1591
7560.101205 102.947 159.8138
7614.884815 103.050 157.2831
7670.065409 103.136 154.5602
7725.645865 103.199 151.6409
7781.629080 103.234 148.5250
7838.017972 103.237 145.2151
7894.815481 103.203 141.7183
7952.024569 103.128 138.0453
8009.648217 103.008 134.2108
8067.689429 102.839 130.2326
8126.151233 102.620 126.1304
8185.036674 102.350 121.9240
8244.348824 102.027 117.6309
8304.090774 101.654 113.2642
8364.265639 101.233 108.8298
8424.876556 100.766 104.3248
8485.926684 100.257 99.7361
8547.419207 99.710 95.0396
8609.357330 99.129 90.1997
8671.744282 98.519 85.1694
8734.583316 97.884 79.8883
8797.877707 97.227 74.2809
8861.630756 96.555 68.2528
8925.845785 95.873 61.6848
8990.526143 95.189 54.4285
9055.675202 94.515 46.3056
9121.296357 93.863 37.1207
9187.393031 93.249 26.7031
9253.968668 92.694 14.9960
9321.026740 92.215 2.1804
9388.570742 91.828 -11.2466
9456.604196 91.542 -24.5659
9525.130648 91.358 -37.1017
9594.153671 91.265 -48.4501
9663.676863 91.244 -58.5125
9733.703850 91.272 -67.3871
9804.238280 91.323 -75.2484
9875.283832 91.373 -82.2675
9946.844210 91.402 -88.5765
10018.923143 91.393 -94.2563
10091.524390 91.335 -99.3362
10164.651736 91.221 -103.7972
10238.308993 91.053 -107.5809
10312.500000 90.836 -110.5999
10387.228626 90.587 -112.7577
10462.498767 90.329 -113.9801
10538.314345 90.090 -114.2599
10614.679315 89.904 -113.7076
10691.597657 89.800 -112.5790
10769.073381 89.795 -111.2471
10847.110526 89.888 -110.1118
10925.713161 90.063 -109.4929
11004.885382 90.292 -109.5708
11084.631318 90.545 -110.3894
11164.955126 90.793 -111.8988
11245.860993 91.015 -114.0009
11327.353138 91.193 -116.5830
11409.435808 91.318 -119.5367
11492.113283 91.384 -122.7657
11575.389873 91.389 -126.1877
11659.269920 91.332 -129.7344
11743.757796 91.216 -133.3500
11828.857906 91.044 -136.9903
11914.574686 90.821 -140.6226
12000.912606 90.552 -144.2244
12087.876166 90.241 -147.7821
12175.469900 89.894 -151.2888
12263.698373 89.515 -154.7417
12352.566187 89.105 -158.1384
12442.077974 88.666 -161.4750
12532.238400 88.200 -164.7450
12623.052165 87.708 -167.9404
12714.524005 87.194 -171.0562
12806.658687 86.662 -174.0969
12899.461015 86.123 -177.0853
12992.935827 85.589 179.9298
13087.087996 85.079 176.8675
13181.922430 84.613 173.6140
13277.444074 84.212 170.0275
13373.657907 83.896 165.9476
13470.568945 83.678 161.2043
13568.182241 83.565 155.6239
13666.502883 83.554 149.0298
13765.535996 83.635 141.2425
13865.286744 83.794 132.0850
13965.760328 84.011 121.4055
14066.961984 84.269 109.1281
14168.896989 84.551 95.3335
14271.570658 84.841 80.3390
14374.988342 85.129 64.6956
14479.155433 85.405 49.0510
14584.077362 85.662 33.9445
14689.759598 85.895 19.6797
14796.207652 86.099 6.3338
14903.427072 86.270 -6.1596
15011.423448 86.402 -17.9276
15120.202410 86.489 -29.1041
15229.769630 86.524 -39.8031
15340.130819 86.498 -50.1074
15451.291730 86.404 -60.0651
15563.258160 86.235 -69.6910
15676.035944 85.985 -78.9695
15789.630962 85.649 -87.8571
15904.049137 85.225 -96.2860
16019.296433 84.711 -104.1685
16135.378859 84.107 -111.4045
16252.302465 83.417 -117.8940
16370.073348 82.644 -123.5514
16488.697648 81.794 -128.3186
16608.181548 80.872 -132.1744
16728.531278 79.887 -135.1320
16849.753112 78.844 -137.2271
16971.853368 77.750 -138.5049
17094.838414 76.611 -139.0143
17218.714660 75.435 -138.8185
17343.488565 74.230 -138.0125
17469.166632 73.007 -136.7382
17595.755415 71.780 -135.1843
17723.261512 70.570 -133.5679
17851.691571 69.406 -132.1002
17981.052287 68.328 -130.9462
18111.350404 67.387 -130.1802
18242.592715 66.636 -129.7415
18374.786062 66.118 -129.3755
18507.937336 65.847 -128.5332
18642.053479 65.806 -126.1636
18777.141484 65.950 -120.3360
18913.208391 66.221 -108.0969
19050.261296 66.566 -88.5724
19188.307342 66.941 -69.3860
19327.353727 67.311 -57.8603
19467.407699 67.651 -52.8732
19608.476560 67.940 -51.4271
19750.567664 68.167 -51.5507
19893.688419 68.323 -52.1300
20037.846286 68.402 -52.5568
